File:              	C:\Qtrac\Data\Daniel M Sørensen\MScan multicentre study\Data from centres\Oxford\Raw data (sorted for use)\ATC01207B.QZD
Name:              	UK.OXF.NC.7.1
Protocol:          	MSCAN-R2
Date:              	7/12/20
Start time:        	11:25:57
Age:               	33
Sex:               	M
Temperature:       	31.8
S/R sites:         	ADM
NC/disease:        	NC
Operator:          	AT
Comments:          	HC Ulnar N First trial
M-SCAN DATA (6-2.2m)
Scanpts: 4, 18, 409, 430
Stim. (mA)     	Amp. (mV)
MS.1           	30             	6.318
MS.2           	30             	6.218
MS.3           	30             	6.288
MS.4           	30             	6.312
MS.5           	30             	6.326
MS.6           	30             	6.337
MS.7           	30             	6.266
MS.8           	30             	6.316
MS.9           	30             	6.435
MS.10          	30             	6.339
MS.11          	30             	6.21
MS.12          	30             	6.226
MS.13          	30             	6.242
MS.14          	30             	6.23
MS.15          	30             	6.357
MS.16          	30             	6.339
MS.17          	30             	6.278
MS.18          	30             	6.447
MS.19          	30             	6.298
MS.20          	30             	6.22
MS.21          	30             	6.208
MS.22          	30             	6.254
MS.23          	30             	6.23
MS.24          	29.88          	6.183
MS.25          	29.82          	6.326
MS.26          	29.76          	6.337
MS.27          	29.702         	6.377
MS.28          	29.642         	6.335
MS.29          	29.582         	6.328
MS.30          	29.522         	6.29
MS.31          	29.465         	6.391
MS.32          	29.405         	6.292
MS.33          	29.347         	6.177
MS.34          	29.287         	6.312
MS.35          	29.23          	6.242
MS.36          	29.172         	6.288
MS.37          	29.112         	6.304
MS.38          	29.055         	6.28
MS.39          	28.997         	6.324
MS.40          	28.94          	6.159
MS.41          	28.882         	6.24
MS.42          	28.823         	6.385
MS.43          	28.765         	6.238
MS.44          	28.707         	6.206
MS.45          	28.65          	6.02
MS.46          	28.595         	6.024
MS.47          	28.537         	6.049
MS.48          	28.48          	6.21
MS.49          	28.422         	6.047
MS.50          	28.365         	5.942
MS.51          	28.31          	6.002
MS.52          	28.252         	5.956
MS.53          	28.198         	5.948
MS.54          	28.14          	5.877
MS.55          	28.085         	5.974
MS.56          	28.028         	5.938
MS.57          	27.972         	5.958
MS.58          	27.915         	5.779
MS.59          	27.86          	5.811
MS.60          	27.805         	5.833
MS.61          	27.75          	5.773
MS.62          	27.692         	5.877
MS.63          	27.637         	6.026
MS.64          	27.582         	5.67
MS.65          	27.528         	5.712
MS.66          	27.472         	5.756
MS.67          	27.417         	5.773
MS.68          	27.362         	5.67
MS.69          	27.307         	5.706
MS.70          	27.255         	5.684
MS.71          	27.2           	5.626
MS.72          	27.145         	5.642
MS.73          	27.09          	5.785
MS.74          	27.037         	5.67
MS.75          	26.983         	5.68
MS.76          	26.927         	5.583
MS.77          	26.875         	5.551
MS.78          	26.82          	5.539
MS.79          	26.767         	5.416
MS.80          	26.715         	5.42
MS.81          	26.66          	5.329
MS.82          	26.608         	5.41
MS.83          	26.555         	5.579
MS.84          	26.502         	5.491
MS.85          	26.448         	5.38
MS.86          	26.395         	5.416
MS.87          	26.342         	5.307
MS.88          	26.29          	5.281
MS.89          	26.237         	5.277
MS.90          	26.185         	5.184
MS.91          	26.132         	5.293
MS.92          	26.08          	5.275
MS.93          	26.028         	5.207
MS.94          	25.977         	5.309
MS.95          	25.925         	5.243
MS.96          	25.872         	5.203
MS.97          	25.82          	5.152
MS.98          	25.77          	5.283
MS.99          	25.717         	5.062
MS.100         	25.667         	5.207
MS.101         	25.615         	5.197
MS.102         	25.565         	5.14
MS.103         	25.512         	5.148
MS.104         	25.462         	5.199
MS.105         	25.413         	5.16
MS.106         	25.36          	5.072
MS.107         	25.31          	5.118
MS.108         	25.26          	5.064
MS.109         	25.21          	5.138
MS.110         	25.157         	5.13
MS.111         	25.108         	5.164
MS.112         	25.057         	4.963
MS.113         	25.007         	4.939
MS.114         	24.957         	5.009
MS.115         	24.907         	5.056
MS.116         	24.858         	5.134
MS.117         	24.807         	4.909
MS.118         	24.76          	4.79
MS.119         	24.71          	4.937
MS.120         	24.66          	5.043
MS.121         	24.61          	4.959
MS.122         	24.562         	4.842
MS.123         	24.512         	4.816
MS.124         	24.465         	4.874
MS.125         	24.415         	4.904
MS.126         	24.365         	4.86
MS.127         	24.317         	4.731
MS.128         	24.27          	4.866
MS.129         	24.22          	4.717
MS.130         	24.172         	4.627
MS.131         	24.122         	4.606
MS.132         	24.075         	4.612
MS.133         	24.028         	4.518
MS.134         	23.98          	4.602
MS.135         	23.932         	4.578
MS.136         	23.882         	4.637
MS.137         	23.835         	4.56
MS.138         	23.788         	4.51
MS.139         	23.74          	4.558
MS.140         	23.692         	4.576
MS.141         	23.645         	4.421
MS.142         	23.597         	4.451
MS.143         	23.552         	4.379
MS.144         	23.505         	4.399
MS.145         	23.457         	4.534
MS.146         	23.41          	4.403
MS.147         	23.365         	4.361
MS.148         	23.317         	4.345
MS.149         	23.27          	4.171
MS.150         	23.225         	4.365
MS.151         	23.177         	4.449
MS.152         	23.132         	4.336
MS.153         	23.085         	4.284
MS.154         	23.04          	4.159
MS.155         	22.993         	4.308
MS.156         	22.948         	4.204
MS.157         	22.903         	4.22
MS.158         	22.855         	4.143
MS.159         	22.81          	4.131
MS.160         	22.765         	4.018
MS.161         	22.72          	4.069
MS.162         	22.672         	4.002
MS.163         	22.627         	3.968
MS.164         	22.582         	4.077
MS.165         	22.538         	3.728
MS.166         	22.493         	3.789
MS.167         	22.448         	3.658
MS.168         	22.403         	3.674
MS.169         	22.358         	3.766
MS.170         	22.312         	3.986
MS.171         	22.27          	3.861
MS.172         	22.225         	3.497
MS.173         	22.18          	3.565
MS.174         	22.135         	3.853
MS.175         	22.092         	3.668
MS.176         	22.047         	3.686
MS.177         	22.002         	3.69
MS.178         	21.96          	3.628
MS.179         	21.915         	3.625
MS.180         	21.872         	3.265
MS.181         	21.827         	3.311
MS.182         	21.785         	3.384
MS.183         	21.74          	3.344
MS.184         	21.698         	3.424
MS.185         	21.655         	3.364
MS.186         	21.61          	3.277
MS.187         	21.567         	3.416
MS.188         	21.525         	3.285
MS.189         	21.483         	3.182
MS.190         	21.438         	3.245
MS.191         	21.395         	3.265
MS.192         	21.352         	3.102
MS.193         	21.31          	3.084
MS.194         	21.267         	3.203
MS.195         	21.225         	3.201
MS.196         	21.182         	3.096
MS.197         	21.14          	3.122
MS.198         	21.097         	2.862
MS.199         	21.055         	2.874
MS.200         	21.015         	2.957
MS.201         	20.972         	2.792
MS.202         	20.93          	2.778
MS.203         	20.887         	2.641
MS.204         	20.847         	2.649
MS.205         	20.805         	2.882
MS.206         	20.762         	2.558
MS.207         	20.722         	2.665
MS.208         	20.68          	2.626
MS.209         	20.64          	2.838
MS.210         	20.597         	2.459
MS.211         	20.557         	2.508
MS.212         	20.515         	2.52
MS.213         	20.475         	2.536
MS.214         	20.435         	2.514
MS.215         	20.392         	2.437
MS.216         	20.352         	2.441
MS.217         	20.312         	2.479
MS.218         	20.27          	2.375
MS.219         	20.23          	2.383
MS.220         	20.19          	2.413
MS.221         	20.15          	2.349
MS.222         	20.11          	2.405
MS.223         	20.07          	2.27
MS.224         	20.03          	2.3
MS.225         	19.99          	2.26
MS.226         	19.95          	2.171
MS.227         	19.91          	2.071
MS.228         	19.87          	2.254
MS.229         	19.83          	2.187
MS.230         	19.79          	2.216
MS.231         	19.75          	2.262
MS.232         	19.712         	2.145
MS.233         	19.672         	1.998
MS.234         	19.632         	2.012
MS.235         	19.592         	1.972
MS.236         	19.555         	1.94
MS.237         	19.515         	2.101
MS.238         	19.475         	1.99
MS.239         	19.438         	2.002
MS.240         	19.397         	1.958
MS.241         	19.36          	1.974
MS.242         	19.32          	1.998
MS.243         	19.282         	1.843
MS.244         	19.245         	1.853
MS.245         	19.205         	1.813
MS.246         	19.167         	1.736
MS.247         	19.13          	1.772
MS.248         	19.09          	1.867
MS.249         	19.052         	1.424
MS.250         	19.015         	1.513
MS.251         	18.977         	1.627
MS.252         	18.938         	1.275
MS.253         	18.9           	1.329
MS.254         	18.862         	1.341
MS.255         	18.825         	1.158
MS.256         	18.788         	1.366
MS.257         	18.75          	1.603
MS.258         	18.712         	0.904
MS.259         	18.675         	1.184
MS.260         	18.637         	1.321
MS.261         	18.6           	0.941
MS.262         	18.562         	1.102
MS.263         	18.528         	0.876
MS.264         	18.49          	0.918
MS.265         	18.452         	0.85
MS.266         	18.415         	0.965
MS.267         	18.378         	0.842
MS.268         	18.342         	0.977
MS.269         	18.305         	0.846
MS.270         	18.27          	0.808
MS.271         	18.233         	0.828
MS.272         	18.195         	0.834
MS.273         	18.16          	0.814
MS.274         	18.122         	0.838
MS.275         	18.087         	0.82
MS.276         	18.05          	0.719
MS.277         	18.015         	0.792
MS.278         	17.98          	0.689
MS.279         	17.942         	0.929
MS.280         	17.907         	0.806
MS.281         	17.87          	0.79
MS.282         	17.835         	0.628
MS.283         	17.8           	0.655
MS.284         	17.765         	0.812
MS.285         	17.73          	0.788
MS.286         	17.692         	0.63
MS.287         	17.657         	0.588
MS.288         	17.622         	0.632
MS.289         	17.587         	0.61
MS.290         	17.552         	0.657
MS.291         	17.517         	0.594
MS.292         	17.483         	0.669
MS.293         	17.448         	0.528
MS.294         	17.413         	0.759
MS.295         	17.378         	0.771
MS.296         	17.342         	0.647
MS.297         	17.307         	0.542
MS.298         	17.275         	0.612
MS.299         	17.24          	0.506
MS.300         	17.205         	0.489
MS.301         	17.17          	0.634
MS.302         	17.135         	0.447
MS.303         	17.102         	0.626
MS.304         	17.067         	0.645
MS.305         	17.032         	0.526
MS.306         	17             	0.479
MS.307         	16.965         	0.514
MS.308         	16.932         	0.439
MS.309         	16.897         	0.413
MS.310         	16.865         	0.598
MS.311         	16.83          	0.395
MS.312         	16.797         	0.3
MS.313         	16.762         	0.469
MS.314         	16.73          	0.286
MS.315         	16.698         	0.278
MS.316         	16.663         	0.324
MS.317         	16.63          	0.216
MS.318         	16.597         	0.344
MS.319         	16.562         	0.35
MS.320         	16.53          	0.262
MS.321         	16.497         	0.397
MS.322         	16.465         	0.199
MS.323         	16.432         	0.411
MS.324         	16.397         	0.385
MS.325         	16.365         	0.397
MS.326         	16.333         	0.417
MS.327         	16.3           	0.395
MS.328         	16.267         	0.399
MS.329         	16.235         	0.248
MS.330         	16.202         	0.363
MS.331         	16.17          	0.328
MS.332         	16.137         	0.33
MS.333         	16.105         	0.35
MS.334         	16.075         	0.369
MS.335         	16.042         	0.224
MS.336         	16.01          	0.266
MS.337         	15.977         	0.342
MS.338         	15.945         	0.377
MS.339         	15.915         	0.487
MS.340         	15.882         	0.375
MS.341         	15.85          	0.373
MS.342         	15.818         	0.109
MS.343         	15.787         	0.165
MS.344         	15.755         	0.093
MS.345         	15.725         	0.064
MS.346         	15.693         	0.06
MS.347         	15.662         	0.127
MS.348         	15.63          	0.077
MS.349         	15.6           	0.091
MS.350         	15.568         	0.066
MS.351         	15.537         	0.077
MS.352         	15.505         	0.073
MS.353         	15.475         	0.171
MS.354         	15.443         	0.068
MS.355         	15.412         	0.075
MS.356         	15.382         	0.066
MS.357         	15.35          	0.066
MS.358         	15.32          	0.07
MS.359         	15.29          	0.058
MS.360         	15.26          	0.064
MS.361         	15.23          	0.068
MS.362         	15.197         	0.073
MS.363         	15.167         	0.064
MS.364         	15.137         	0.062
MS.365         	15.108         	0.075
MS.366         	15.077         	0.058
MS.367         	15.047         	0.075
MS.368         	15.017         	0.068
MS.369         	14.987         	0.077
MS.370         	14.957         	0.068
MS.371         	14.927         	0.054
MS.372         	14.898         	0.068
MS.373         	14.867         	0.07
MS.374         	14.837         	0.044
MS.375         	14.807         	0.046
MS.376         	14.78          	0.07
MS.377         	14.75          	0.048
MS.378         	14.72          	0.062
MS.379         	14.69          	0.068
MS.380         	14.66          	0.048
MS.381         	14.632         	0.046
MS.382         	14.602         	0.054
MS.383         	14.572         	0.052
MS.384         	14.545         	0.048
MS.385         	14.515         	0.046
MS.386         	14.485         	0.044
MS.387         	14.457         	0.056
MS.388         	14.427         	0.058
MS.389         	14.4           	0.052
MS.390         	14.37          	0.058
MS.391         	14.342         	0.05
MS.392         	14.312         	0.046
MS.393         	14.285         	0.05
MS.394         	14.255         	0.054
MS.395         	14.227         	0.05
MS.396         	14.2           	0.048
MS.397         	14.17          	0.048
MS.398         	14.142         	0.038
MS.399         	14.115         	0.052
MS.400         	14.085         	0.058
MS.401         	14.057         	0.048
MS.402         	14.03          	0.05
MS.403         	14.002         	0.058
MS.404         	13.975         	0.042
MS.405         	13.945         	0.046
MS.406         	13.917         	0.054
MS.407         	13.89          	0.054
MS.408         	13.862         	0.046
MS.409         	13.835         	0.058
MS.410         	13.807         	0.054
MS.411         	13.78          	0.05
MS.412         	13.752         	0.048
MS.413         	13.725         	0.046
MS.414         	13.697         	0.054
MS.415         	13.67          	0.048
MS.416         	13.642         	0.05
MS.417         	13.615         	0.038
MS.418         	13.587         	0.048
MS.419         	13.56          	0.046
MS.420         	13.535         	0.048
MS.421         	13.507         	0.054
MS.422         	13.48          	0.048
MS.423         	13.452         	0.052
MS.424         	13.425         	0.042
MS.425         	13.4           	0.042
MS.426         	13.372         	0.046
MS.427         	13.345         	0.046
MS.428         	13.32          	0.046
MS.429         	13.292         	0.048
MS.430         	13.265         	0.044
DERIVED EXCITABILITY VARIABLES
Program = QTracP 3/4/2020
Threshold method = 6 (optimised for CAP, using data for present condition only)
SR method = 1 (using actual data values)
6.                 	0.000               	Peak response\(mV)
9.                 	31.8                	Temperature ( C)
17.                	33                  	Age (years)
18.                	1                   	Sex (M=1, F=2)

EXTRA VARIABLES

MScPeak(mV) = 6.25
MScS5(mA) = 16.44
MScS50(mA) = 21.28
MScS95(mA) = 27.91
MScNSteps = 1
MScSteps(%) = 2
MScStepMax(%) = 2
MScD50 = 53
MScSlope = 4.02
MSFPeakAmp(mV) = 6.26
MSFNUnits = 88
MSFMeanUnitAmp(uV) = 71.2
MSFHuntTime(m) = 1.56
MSFError(%) = 5.05
MSFNLarge = 30.6
MSFMedianAmp(%) = 1.01
MSFMedianAmp(mV) = 0.0634
MSFHalfAmpAmp(%) = 1.24
MSFHalfAmpAmp(mV) = 0.0775
MSFLargestAmp(%) = 2.81
MSFLargestAmp(mV) = 0.176
MSFMeanRS(%) = 1.99
MSFOpts = 10106121
MScDuration(min) = 3.8
MSFTraces = 427
MSFSizeLimit(uV) = 15.7
MSFLimitType = 1
MSFSmallestAmp(uV) = 22.3

EXTRA WAVEFORMS


!MScan Model
!88
	1	14.91	0.83	2
	2	15.75	1.15	2
	3	15.84	2.81	2
	4	16.87	1.45	2
	5	17.19	2.58	2
	6	17.76	1.99	2
	7	18.04	1.24	2
	8	18.43	0.73	2.4
	9	18.53	1.66	2
	10	18.65	1.84	2
	11	18.74	1.34	2
	12	18.82	1.47	2
	13	18.9	1.48	2
	14	18.98	1.44	2
	15	19.06	1.47	2
	16	19.13	1.91	1.6
	17	19.13	1.69	2
	18	19.28	1.56	2
	19	19.36	1.12	2
	20	19.45	1.01	2
	21	19.56	1.22	2
	22	19.65	0.76	2
	23	19.73	0.76	2
	24	19.81	0.75	2
	25	19.87	0.41	2
	26	19.92	0.36	2
	27	19.97	0.4	2
	28	20.04	0.73	2
	29	20.14	1.02	2
	30	20.25	0.89	2
	31	20.37	0.93	2
	32	20.49	1.1	2
	33	20.62	1.23	2
	34	20.7	0.79	2
	35	20.77	0.96	2
	36	20.84	0.95	2
	37	20.92	0.82	2
	38	20.99	0.83	2
	39	21.06	0.95	2
	40	21.12	0.7	2
	41	21.19	0.68	2
	42	21.26	0.97	2
	43	21.37	1.33	2
	44	21.47	1.01	2
	45	21.6	1.61	2
	46	21.74	1.55	2
	47	21.9	1.56	2
	48	22.1	1.65	2
	49	22.29	2.03	2
	50	22.45	1.7	2
	51	22.58	1.46	2
	52	22.7	1.21	2
	53	22.82	1.19	2
	54	22.92	0.96	2
	55	23.02	0.9	2
	56	23.14	1.11	2
	57	23.25	0.82	2
	58	23.43	1.27	2
	59	23.61	1.06	2
	60	23.76	0.95	2
	61	23.85	0.63	2
	62	23.94	0.72	2
	63	24.05	0.71	2
	64	24.16	0.74	2
	65	24.29	0.84	2
	66	24.42	0.87	2
	67	24.61	1.37	2
	68	24.82	1.29	2
	69	25.15	1.47	2
	70	25.52	1.51	2
	71	26.01	0.86	2
	72	26.2	0.76	2
	73	26.33	0.66	2
	74	26.45	0.81	2
	75	26.57	0.61	2
	76	26.69	0.8	2
	77	26.82	0.8	1.6
	78	26.88	1.13	2
	79	27.07	0.92	2
	80	27.28	1.2	2
	81	27.57	1.59	2
	82	27.77	0.77	2
	83	28.06	1.51	2
	84	28.2	0.74	2
	85	28.34	0.91	2
	86	28.5	0.9	2
	87	28.66	0.88	2
	88	29.09	1.66	2

