File:              	C:\Qtrac\Data\Daniel M Sørensen\MScan multicentre study\Data from centres\Ankara\Processed data\HEBC01204C.QZD
Name:              	TR.ANK.NC.4.2
Protocol:          	MSCAN-R2
Date:              	4/12/20
Start time:        	13:30:50
Age:               	38
Sex:               	M
Temperature:
S/R sites:         	ADM
NC/disease:        	NC
Operator:          	HA
Comments:
M-SCAN DATA (5.9-2.1m)
Scanpts: 5, 8, 315, 320
Stim. (mA)     	Amp. (mV)
MS.1           	40.5           	6.828
MS.2           	40.5           	6.782
MS.3           	40.5           	6.751
MS.4           	40.5           	6.633
MS.5           	40.5           	6.721
MS.6           	40.5           	6.721
MS.7           	40.5           	6.584
MS.8           	40.5           	6.675
MS.9           	40.5           	6.703
MS.10          	40.5           	6.755
MS.11          	40.5           	6.629
MS.12          	40.5           	6.727
MS.13          	40.5           	6.766
MS.14          	40.5           	6.798
MS.15          	40.5           	6.901
MS.16          	40.5           	6.836
MS.17          	40.5           	6.753
MS.18          	40.5           	6.747
MS.19          	40.5           	6.717
MS.20          	40.5           	6.598
MS.21          	40.5           	6.725
MS.22          	40.5           	6.721
MS.23          	40.5           	6.681
MS.24          	40.42          	6.532
MS.25          	40.337         	6.715
MS.26          	40.257         	6.816
MS.27          	40.177         	6.641
MS.28          	40.097         	6.657
MS.29          	40.017         	6.705
MS.30          	39.938         	6.478
MS.31          	39.857         	6.651
MS.32          	39.778         	6.469
MS.33          	39.697         	6.417
MS.34          	39.618         	6.542
MS.35          	39.54          	6.578
MS.36          	39.46          	6.383
MS.37          	39.382         	6.401
MS.38          	39.302         	6.381
MS.39          	39.225         	6.467
MS.40          	39.145         	6.32
MS.41          	39.067         	6.302
MS.42          	38.99          	6.018
MS.43          	38.912         	6.087
MS.44          	38.835         	6.252
MS.45          	38.757         	6.179
MS.46          	38.68          	6.053
MS.47          	38.603         	6.214
MS.48          	38.525         	6.022
MS.49          	38.447         	6.091
MS.50          	38.37          	5.865
MS.51          	38.295         	5.847
MS.52          	38.217         	5.93
MS.53          	38.142         	5.664
MS.54          	38.065         	5.799
MS.55          	37.99          	5.648
MS.56          	37.912         	5.515
MS.57          	37.837         	5.587
MS.58          	37.763         	5.658
MS.59          	37.688         	5.73
MS.60          	37.61          	5.708
MS.61          	37.535         	5.541
MS.62          	37.46          	5.545
MS.63          	37.385         	5.589
MS.64          	37.312         	5.577
MS.65          	37.237         	5.251
MS.66          	37.162         	5.199
MS.67          	37.087         	5.289
MS.68          	37.015         	5.479
MS.69          	36.94          	5.227
MS.70          	36.868         	5.34
MS.71          	36.792         	5.146
MS.72          	36.72          	5.041
MS.73          	36.645         	5.176
MS.74          	36.572         	5.718
MS.75          	36.5           	5.172
MS.76          	36.427         	5.428
MS.77          	36.355         	5.005
MS.78          	36.282         	4.824
MS.79          	36.21          	5.219
MS.80          	36.138         	4.731
MS.81          	36.065         	5.176
MS.82          	35.993         	4.727
MS.83          	35.92          	4.991
MS.84          	35.847         	4.675
MS.85          	35.778         	4.834
MS.86          	35.705         	4.528
MS.87          	35.635         	4.133
MS.88          	35.562         	4.389
MS.89          	35.493         	4.429
MS.90          	35.42          	4.252
MS.91          	35.35          	4.224
MS.92          	35.28          	3.976
MS.93          	35.21          	4.463
MS.94          	35.138         	4.139
MS.95          	35.068         	3.893
MS.96          	34.997         	4.151
MS.97          	34.927         	4
MS.98          	34.857         	3.829
MS.99          	34.79          	3.559
MS.100         	34.72          	3.229
MS.101         	34.65          	3.178
MS.102         	34.58          	3.354
MS.103         	34.513         	2.971
MS.104         	34.443         	2.919
MS.105         	34.375         	2.88
MS.106         	34.305         	2.757
MS.107         	34.237         	3.154
MS.108         	34.167         	3.277
MS.109         	34.1           	2.914
MS.110         	34.032         	3.279
MS.111         	33.965         	2.832
MS.112         	33.895         	2.963
MS.113         	33.827         	2.816
MS.114         	33.76          	2.769
MS.115         	33.693         	2.626
MS.116         	33.625         	2.359
MS.117         	33.56          	2.544
MS.118         	33.493         	2.606
MS.119         	33.425         	2.552
MS.120         	33.357         	2.324
MS.121         	33.292         	2.153
MS.122         	33.225         	2.522
MS.123         	33.157         	2.195
MS.124         	33.092         	2.53
MS.125         	33.025         	2.55
MS.126         	32.96          	2.431
MS.127         	32.895         	2.322
MS.128         	32.827         	2.405
MS.129         	32.763         	2.59
MS.130         	32.697         	2.177
MS.131         	32.632         	2.093
MS.132         	32.568         	2.113
MS.133         	32.502         	2.31
MS.134         	32.438         	2.056
MS.135         	32.372         	2.147
MS.136         	32.307         	1.986
MS.137         	32.243         	2.01
MS.138         	32.177         	1.994
MS.139         	32.115         	2.117
MS.140         	32.05          	1.664
MS.141         	31.985         	1.724
MS.142         	31.922         	1.674
MS.143         	31.858         	1.629
MS.144         	31.795         	1.734
MS.145         	31.733         	1.797
MS.146         	31.667         	1.589
MS.147         	31.605         	1.684
MS.148         	31.542         	1.486
MS.149         	31.477         	1.736
MS.150         	31.415         	1.764
MS.151         	31.352         	1.287
MS.152         	31.29          	1.484
MS.153         	31.227         	1.539
MS.154         	31.165         	1.694
MS.155         	31.102         	1.245
MS.156         	31.04          	1.49
MS.157         	30.98          	1.48
MS.158         	30.917         	1.887
MS.159         	30.855         	1.521
MS.160         	30.792         	1.386
MS.161         	30.733         	1.444
MS.162         	30.67          	1.094
MS.163         	30.61          	1.492
MS.164         	30.547         	1.182
MS.165         	30.487         	1.627
MS.166         	30.425         	1.247
MS.167         	30.365         	1.382
MS.168         	30.305         	1.454
MS.169         	30.245         	1.402
MS.170         	30.182         	1.1
MS.171         	30.122         	1.132
MS.172         	30.062         	1.065
MS.173         	30.002         	1.092
MS.174         	29.942         	1.444
MS.175         	29.882         	1.023
MS.176         	29.823         	0.92
MS.177         	29.765         	1.142
MS.178         	29.705         	1.15
MS.179         	29.645         	0.965
MS.180         	29.585         	0.963
MS.181         	29.528         	0.916
MS.182         	29.467         	0.939
MS.183         	29.41          	1.035
MS.184         	29.35          	1.078
MS.185         	29.292         	0.945
MS.186         	29.233         	1.041
MS.187         	29.175         	1.041
MS.188         	29.117         	1.063
MS.189         	29.057         	0.927
MS.190         	29             	0.947
MS.191         	28.942         	1.017
MS.192         	28.885         	0.933
MS.193         	28.827         	0.941
MS.194         	28.77          	0.951
MS.195         	28.712         	0.896
MS.196         	28.655         	0.882
MS.197         	28.597         	1.007
MS.198         	28.54          	0.947
MS.199         	28.483         	0.985
MS.200         	28.425         	0.993
MS.201         	28.37          	0.91
MS.202         	28.312         	0.882
MS.203         	28.255         	0.626
MS.204         	28.2           	0.653
MS.205         	28.142         	0.695
MS.206         	28.087         	0.657
MS.207         	28.03          	0.709
MS.208         	27.975         	0.62
MS.209         	27.92          	0.641
MS.210         	27.862         	0.836
MS.211         	27.807         	0.606
MS.212         	27.752         	0.645
MS.213         	27.698         	0.493
MS.214         	27.64          	0.669
MS.215         	27.585         	0.606
MS.216         	27.53          	0.641
MS.217         	27.475         	0.624
MS.218         	27.42          	0.6
MS.219         	27.365         	0.59
MS.220         	27.312         	0.536
MS.221         	27.257         	0.6
MS.222         	27.202         	0.568
MS.223         	27.147         	0.497
MS.224         	27.092         	0.582
MS.225         	27.04          	0.405
MS.226         	26.985         	0.538
MS.227         	26.932         	0.459
MS.228         	26.877         	0.497
MS.229         	26.825         	0.352
MS.230         	26.77          	0.411
MS.231         	26.717         	0.475
MS.232         	26.662         	0.391
MS.233         	26.61          	0.342
MS.234         	26.557         	0.469
MS.235         	26.505         	0.35
MS.236         	26.45          	0.53
MS.237         	26.397         	0.389
MS.238         	26.345         	0.508
MS.239         	26.292         	0.286
MS.240         	26.24          	0.361
MS.241         	26.188         	0.284
MS.242         	26.135         	0.328
MS.243         	26.082         	0.34
MS.244         	26.032         	0.244
MS.245         	25.98          	0.282
MS.246         	25.927         	0.298
MS.247         	25.875         	0.278
MS.248         	25.825         	0.25
MS.249         	25.772         	0.288
MS.250         	25.72          	0.244
MS.251         	25.67          	0.286
MS.252         	25.618         	0.286
MS.253         	25.567         	0.226
MS.254         	25.515         	0.34
MS.255         	25.465         	0.264
MS.256         	25.415         	0.226
MS.257         	25.362         	0.211
MS.258         	25.312         	0.209
MS.259         	25.262         	0.266
MS.260         	25.212         	0.222
MS.261         	25.16          	0.216
MS.262         	25.11          	0.218
MS.263         	25.06          	0.22
MS.264         	25.01          	0.24
MS.265         	24.96          	0.197
MS.266         	24.91          	0.218
MS.267         	24.86          	0.266
MS.268         	24.812         	0.232
MS.269         	24.762         	0.242
MS.270         	24.712         	0.224
MS.271         	24.663         	0.203
MS.272         	24.612         	0.228
MS.273         	24.565         	0.203
MS.274         	24.515         	0.222
MS.275         	24.467         	0.203
MS.276         	24.417         	0.214
MS.277         	24.37          	0.191
MS.278         	24.32          	0.201
MS.279         	24.272         	0.193
MS.280         	24.222         	0.199
MS.281         	24.175         	0.214
MS.282         	24.127         	0.159
MS.283         	24.077         	0.201
MS.284         	24.03          	0.169
MS.285         	23.983         	0.218
MS.286         	23.935         	0.211
MS.287         	23.885         	0.203
MS.288         	23.837         	0.169
MS.289         	23.79          	0.177
MS.290         	23.743         	0.167
MS.291         	23.695         	0.193
MS.292         	23.647         	0.054
MS.293         	23.602         	0.214
MS.294         	23.555         	0.179
MS.295         	23.507         	0.165
MS.296         	23.46          	0.167
MS.297         	23.413         	0.207
MS.298         	23.368         	0.181
MS.299         	23.32          	0.177
MS.300         	23.272         	0.171
MS.301         	23.227         	0.185
MS.302         	23.18          	0.183
MS.303         	23.135         	0.189
MS.304         	23.087         	0.185
MS.305         	23.042         	0.222
MS.306         	22.995         	0.042
MS.307         	22.95          	0.075
MS.308         	22.905         	0.191
MS.309         	22.858         	0.048
MS.310         	22.812         	0.187
MS.311         	22.767         	0.044
MS.312         	22.722         	0.054
MS.313         	22.675         	0.044
MS.314         	22.63          	0.054
MS.315         	22.585         	0.052
MS.316         	22.54          	0.056
MS.317         	22.495         	0.048
MS.318         	22.45          	0.046
MS.319         	22.405         	0.044
MS.320         	22.36          	0.05
MS.321         	22.315         	0.042
MS.322         	22.272         	0.052
MS.323         	22.227         	0.054
MS.324         	22.182         	0.054
MS.325         	22.137         	0.054
MS.326         	22.095         	0.05
MS.327         	22.05          	0.06
MS.328         	22.005         	0.062
MS.329         	21.962         	0.058
MS.330         	21.917         	0.048
MS.331         	21.875         	0.058
MS.332         	21.83          	0.054
MS.333         	21.788         	0.054
MS.334         	21.743         	0.058
MS.335         	21.7           	0.056
MS.336         	21.657         	0.056
MS.337         	21.612         	0.058
MS.338         	21.57          	0.054
MS.339         	21.528         	0.056
MS.340         	21.485         	0.054
MS.341         	21.44          	0.058
MS.342         	21.397         	0.056
MS.343         	21.355         	0.062
MS.344         	21.312         	0.06
MS.345         	21.27          	0.054
MS.346         	21.227         	0.062
MS.347         	21.185         	0.058
MS.348         	21.142         	0.064
MS.349         	21.1           	0.06
MS.350         	21.057         	0.066
MS.351         	21.017         	0.068
MS.352         	20.975         	0.062
MS.353         	20.932         	0.058
MS.354         	20.89          	0.064
MS.355         	20.85          	0.062
MS.356         	20.807         	0.062
MS.357         	20.765         	0.064
MS.358         	20.725         	0.06
MS.359         	20.682         	0.06
MS.360         	20.642         	0.062
MS.361         	20.6           	0.068
MS.362         	20.56          	0.064
MS.363         	20.517         	0.062
MS.364         	20.477         	0.066
MS.365         	20.435         	0.073
MS.366         	20.395         	0.064
MS.367         	20.355         	0.068
MS.368         	20.315         	0.064
MS.369         	20.272         	0.073
MS.370         	20.233         	0.068
MS.371         	20.192         	0.07
MS.372         	20.153         	0.064
MS.373         	20.112         	0.066
MS.374         	20.073         	0.064
MS.375         	20.032         	0.068
MS.376         	19.993         	0.077
MS.377         	19.952         	0.075
MS.378         	19.913         	0.062
MS.379         	19.872         	0.07
MS.380         	19.833         	0.075
MS.381         	19.792         	0.077
MS.382         	19.752         	0.081
MS.383         	19.712         	0.073
MS.384         	19.675         	0.077
MS.385         	19.635         	0.075
MS.386         	19.595         	0.075
MS.387         	19.557         	0.073
MS.388         	19.517         	0.075
MS.389         	19.477         	0.081
MS.390         	19.44          	0.07
MS.391         	19.4           	0.07
MS.392         	19.362         	0.073
MS.393         	19.323         	0.07
MS.394         	19.285         	0.075
MS.395         	19.245         	0.079
MS.396         	19.208         	0.077
MS.397         	19.17          	0.075
MS.398         	19.13          	0.079
MS.399         	19.092         	0.087
MS.400         	19.055         	0.075
MS.401         	19.017         	0.075
MS.402         	18.977         	0.075
MS.403         	18.94          	0.079
MS.404         	18.903         	0.077
MS.405         	18.865         	0.056
MS.406         	18.827         	0.077
MS.407         	18.79          	0.085
MS.408         	18.753         	0.087
MS.409         	18.715         	0.079
MS.410         	18.677         	0.056
MS.411         	18.64          	0.054
MS.412         	18.602         	0.05
MS.413         	18.565         	0.058
MS.414         	18.528         	0.054
MS.415         	18.493         	0.07
MS.416         	18.455         	0.081
MS.417         	18.417         	0.07
MS.418         	18.38          	0.054
MS.419         	18.345         	0.048
MS.420         	18.307         	0.075
MS.421         	18.27          	0.054
MS.422         	18.235         	0.052
MS.423         	18.198         	0.052
MS.424         	18.163         	0.042
MS.425         	18.125         	0.054
MS.426         	18.09          	0.05
MS.427         	18.052         	0.044
DERIVED EXCITABILITY VARIABLES
Program = QTracP 3/4/2020
Threshold method = 6 (optimised for CAP, using data for present condition only)
SR method = 1 (using actual data values)
6.                 	0.000               	Peak response\(mV)
17.                	38                  	Age (years)
18.                	1                   	Sex (M=1, F=2)

EXTRA VARIABLES

MScPeak(mV) = 6.67
MScS5(mA) = 26
MScS50(mA) = 34.64
MScS95(mA) = 39.15
MScNSteps = 5
MScSteps(%) = 13.4
MScStepMax(%) = 4
MScD50 = 35
MScSlope = 7.44
MSFPeakAmp(mV) = 6.63
MSFNUnits = 57
MSFMeanUnitAmp(uV) = 116.2
MSFHuntTime(m) = 1.56
MSFError(%) = 5.45
MSFNLarge = 15.24
MSFMedianAmp(%) = 1.4
MSFMedianAmp(mV) = 0.0926
MSFHalfAmpAmp(%) = 2.12
MSFHalfAmpAmp(mV) = 0.141
MSFLargestAmp(%) = 4.48
MSFLargestAmp(mV) = 0.297
MSFMeanRS(%) = 1.99
MSFOpts = 10106121
MScDuration(min) = 3.8
MSFTraces = 316
MSFSizeLimit(uV) = 23.2
MSFLimitType = 3
MSFSmallestAmp(uV) = 25.2

EXTRA WAVEFORMS


!MScan Model
!57
	1	22.89	1.53	2
	2	24.18	1.05	2
	3	25.72	0.78	2
	4	26.12	0.89	2
	5	26.67	1.53	2
	6	26.97	0.94	2
	7	27.1	0.38	2
	8	27.39	0.99	2
	9	27.88	1.39	2
	10	28.14	1.02	2
	11	28.39	3.03	2
	12	29.28	1.26	2
	13	29.94	2.21	2
	14	30.69	4.38	2
	15	31.6	3.34	2
	16	31.81	1.44	2
	17	32.01	2.21	1.6
	18	32.21	1.32	2
	19	32.35	1.4	2
	20	32.49	1.36	2
	21	33.18	4.26	2
	22	33.43	2.22	2
	23	33.69	1.6	2
	24	34.07	3.57	2
	25	34.34	2.13	2.4
	26	34.5	3.39	2
	27	34.58	1.64	2
	28	34.65	2.01	2
	29	34.87	2.01	2
	30	35.03	4.48	1.78
	31	35.2	1.74	2
	32	35.35	2.12	2
	33	35.51	3.57	2
	34	35.66	1.93	2
	35	35.77	0.83	2
	36	35.88	1.31	2
	37	36.1	4.29	2
	38	36.87	4.21	2
	39	37.35	1.91	2
	40	37.55	1.27	2
	41	37.72	1.11	2
	42	37.84	0.6	2
	43	37.96	1.45	2
	44	38.07	0.84	2
	45	38.19	0.85	2
	46	38.29	0.47	2
	47	38.4	0.53	2
	48	38.51	0.96	2
	49	38.63	0.95	2
	50	38.76	1.54	2
	51	38.88	0.71	2
	52	39.06	1.21	2
	53	39.25	1.04	2
	54	39.4	0.86	2
	55	39.48	2.21	2
	56	39.56	1	2
	57	39.75	0.71	2

