File:              	C:\Qtrac\Data\Daniel M Sørensen\MScan multicentre study\Data from centres\Roskilde\Folders with NC-examinations\ROS_N3b\MBC00311B.QZD
Name:              	DK.ROS.NC.3.2
Protocol:          	MSCAN-R2
Date:              	11/3/20
Start time:        	11:59:00
Age:               	22
Sex:               	f
Temperature:       	37.4
S/R sites:         	Ulnar Wr-ADM
NC/disease:        	NC
Operator:          	MB
Comments:
M-SCAN DATA (8-1.4m)
Scanpts: 168, 176, 683, 705
Stim. (mA)     	Amp. (mV)
MS.1           	28.5           	12.729
MS.2           	28.5           	12.75
MS.3           	28.5           	12.75
MS.4           	28.5           	12.814
MS.5           	28.5           	12.81
MS.6           	28.5           	12.854
MS.7           	28.5           	12.883
MS.8           	28.5           	12.881
MS.9           	28.5           	12.872
MS.10          	28.5           	12.879
MS.11          	28.5           	12.885
MS.12          	28.5           	12.883
MS.13          	28.5           	12.86
MS.14          	28.5           	12.893
MS.15          	28.5           	12.907
MS.16          	28.5           	12.899
MS.17          	28.5           	12.895
MS.18          	28.5           	12.899
MS.19          	28.5           	12.903
MS.20          	28.5           	12.923
MS.21          	28.5           	12.903
MS.22          	28.5           	12.915
MS.23          	28.5           	12.919
MS.24          	28.385         	12.937
MS.25          	28.33          	12.957
MS.26          	28.272         	12.957
MS.27          	28.217         	12.955
MS.28          	28.16          	12.985
MS.29          	28.102         	12.959
MS.30          	28.047         	12.973
MS.31          	27.993         	12.963
MS.32          	27.935         	12.985
MS.33          	27.88          	13.003
MS.34          	27.825         	13.007
MS.35          	27.767         	12.999
MS.36          	27.712         	13.009
MS.37          	27.657         	13.034
MS.38          	27.602         	13.036
MS.39          	27.547         	13.032
MS.40          	27.493         	13.03
MS.41          	27.438         	13.05
MS.42          	27.382         	13.06
MS.43          	27.327         	13.048
MS.44          	27.272         	13.068
MS.45          	27.217         	13.066
MS.46          	27.165         	13.068
MS.47          	27.11          	13.088
MS.48          	27.055         	13.06
MS.49          	27.002         	13.072
MS.50          	26.948         	13.07
MS.51          	26.895         	13.066
MS.52          	26.84          	13.022
MS.53          	26.787         	13.054
MS.54          	26.733         	13.034
MS.55          	26.68          	13.058
MS.56          	26.627         	13.042
MS.57          	26.573         	13.034
MS.58          	26.52          	13.032
MS.59          	26.467         	13.03
MS.60          	26.415         	13.03
MS.61          	26.362         	13.028
MS.62          	26.307         	13.04
MS.63          	26.255         	13.06
MS.64          	26.202         	13.052
MS.65          	26.153         	13.038
MS.66          	26.1           	13.054
MS.67          	26.047         	13.052
MS.68          	25.995         	13.058
MS.69          	25.942         	13.056
MS.70          	25.89          	13.056
MS.71          	25.84          	13.076
MS.72          	25.787         	13.088
MS.73          	25.735         	13.092
MS.74          	25.685         	13.084
MS.75          	25.632         	13.106
MS.76          	25.582         	13.11
MS.77          	25.53          	13.088
MS.78          	25.48          	13.104
MS.79          	25.43          	13.136
MS.80          	25.377         	13.12
MS.81          	25.327         	13.128
MS.82          	25.278         	13.128
MS.83          	25.227         	13.156
MS.84          	25.175         	13.154
MS.85          	25.125         	13.138
MS.86          	25.075         	13.169
MS.87          	25.025         	13.154
MS.88          	24.975         	13.167
MS.89          	24.925         	13.159
MS.90          	24.875         	13.173
MS.91          	24.825         	13.169
MS.92          	24.778         	13.167
MS.93          	24.727         	13.156
MS.94          	24.677         	13.167
MS.95          	24.627         	13.148
MS.96          	24.58          	13.152
MS.97          	24.53          	13.161
MS.98          	24.48          	13.189
MS.99          	24.432         	13.185
MS.100         	24.382         	13.201
MS.101         	24.335         	13.179
MS.102         	24.285         	13.197
MS.103         	24.237         	13.209
MS.104         	24.19          	13.205
MS.105         	24.14          	13.213
MS.106         	24.092         	13.199
MS.107         	24.045         	13.181
MS.108         	23.997         	13.203
MS.109         	23.948         	13.201
MS.110         	23.9           	13.221
MS.111         	23.852         	13.201
MS.112         	23.805         	13.233
MS.113         	23.757         	13.197
MS.114         	23.71          	13.221
MS.115         	23.663         	13.169
MS.116         	23.615         	13.209
MS.117         	23.567         	13.201
MS.118         	23.52          	13.173
MS.119         	23.475         	13.209
MS.120         	23.427         	13.221
MS.121         	23.38          	13.213
MS.122         	23.332         	13.161
MS.123         	23.288         	13.209
MS.124         	23.24          	13.138
MS.125         	23.195         	13.195
MS.126         	23.147         	13.15
MS.127         	23.102         	13.217
MS.128         	23.055         	13.183
MS.129         	23.01          	13.165
MS.130         	22.962         	13.132
MS.131         	22.917         	13.148
MS.132         	22.872         	13.161
MS.133         	22.825         	13.146
MS.134         	22.78          	13.213
MS.135         	22.735         	13.148
MS.136         	22.69          	13.159
MS.137         	22.645         	13.159
MS.138         	22.6           	13.142
MS.139         	22.552         	13.163
MS.140         	22.507         	13.175
MS.141         	22.462         	13.152
MS.142         	22.42          	13.148
MS.143         	22.375         	13.136
MS.144         	22.33          	13.159
MS.145         	22.285         	13.163
MS.146         	22.24          	13.146
MS.147         	22.195         	13.146
MS.148         	22.153         	13.14
MS.149         	22.108         	13.154
MS.150         	22.062         	13.142
MS.151         	22.02          	13.144
MS.152         	21.975         	13.148
MS.153         	21.93          	13.161
MS.154         	21.887         	13.163
MS.155         	21.842         	13.148
MS.156         	21.8           	13.156
MS.157         	21.755         	13.163
MS.158         	21.712         	13.177
MS.159         	21.67          	13.185
MS.160         	21.625         	13.165
MS.161         	21.583         	13.148
MS.162         	21.54          	13.195
MS.163         	21.497         	13.191
MS.164         	21.455         	13.205
MS.165         	21.41          	13.199
MS.166         	21.368         	13.193
MS.167         	21.325         	13.209
MS.168         	21.282         	13.199
MS.169         	21.24          	13.183
MS.170         	21.198         	13.199
MS.171         	21.155         	13.185
MS.172         	21.112         	13.181
MS.173         	21.07          	13.177
MS.174         	21.03          	13.167
MS.175         	20.987         	13.156
MS.176         	20.945         	13.175
MS.177         	20.903         	13.169
MS.178         	20.862         	13.195
MS.179         	20.82          	13.211
MS.180         	20.778         	13.217
MS.181         	20.737         	13.179
MS.182         	20.695         	13.191
MS.183         	20.655         	13.195
MS.184         	20.612         	13.016
MS.185         	20.573         	13.197
MS.186         	20.53          	13.193
MS.187         	20.49          	13.199
MS.188         	20.448         	13.009
MS.189         	20.407         	13.209
MS.190         	20.368         	13.016
MS.191         	20.325         	13.191
MS.192         	20.285         	12.997
MS.193         	20.245         	13.199
MS.194         	20.205         	13.189
MS.195         	20.165         	12.991
MS.196         	20.122         	12.995
MS.197         	20.083         	12.993
MS.198         	20.042         	12.997
MS.199         	20.002         	13.001
MS.200         	19.962         	12.985
MS.201         	19.922         	13.022
MS.202         	19.882         	12.989
MS.203         	19.845         	13.003
MS.204         	19.805         	13.003
MS.205         	19.765         	13.003
MS.206         	19.725         	12.987
MS.207         	19.685         	12.969
MS.208         	19.647         	12.955
MS.209         	19.608         	12.973
MS.210         	19.567         	12.963
MS.211         	19.53          	12.977
MS.212         	19.49          	12.947
MS.213         	19.45          	12.965
MS.214         	19.413         	12.985
MS.215         	19.372         	12.965
MS.216         	19.335         	12.999
MS.217         	19.295         	12.959
MS.218         	19.257         	12.975
MS.219         	19.22          	13.007
MS.220         	19.18          	13.001
MS.221         	19.142         	12.959
MS.222         	19.105         	12.937
MS.223         	19.065         	12.983
MS.224         	19.028         	12.961
MS.225         	18.99          	12.911
MS.226         	18.952         	12.951
MS.227         	18.915         	12.973
MS.228         	18.875         	12.943
MS.229         	18.837         	12.923
MS.230         	18.8           	12.931
MS.231         	18.762         	12.987
MS.232         	18.725         	12.935
MS.233         	18.688         	12.929
MS.234         	18.65          	12.943
MS.235         	18.612         	12.951
MS.236         	18.577         	12.967
MS.237         	18.54          	12.911
MS.238         	18.503         	12.945
MS.239         	18.465         	12.897
MS.240         	18.427         	12.877
MS.241         	18.392         	12.86
MS.242         	18.355         	12.919
MS.243         	18.317         	12.953
MS.244         	18.282         	12.939
MS.245         	18.245         	12.949
MS.246         	18.208         	12.941
MS.247         	18.172         	12.856
MS.248         	18.135         	12.792
MS.249         	18.1           	12.832
MS.250         	18.062         	12.927
MS.251         	18.028         	12.959
MS.252         	17.993         	12.881
MS.253         	17.955         	12.85
MS.254         	17.92          	12.86
MS.255         	17.885         	12.79
MS.256         	17.847         	12.778
MS.257         	17.812         	12.881
MS.258         	17.778         	12.814
MS.259         	17.743         	12.881
MS.260         	17.705         	12.834
MS.261         	17.67          	12.828
MS.262         	17.635         	12.812
MS.263         	17.6           	12.883
MS.264         	17.565         	12.858
MS.265         	17.53          	12.824
MS.266         	17.495         	12.738
MS.267         	17.46          	12.814
MS.268         	17.425         	12.834
MS.269         	17.39          	12.786
MS.270         	17.355         	12.736
MS.271         	17.32          	12.877
MS.272         	17.285         	12.719
MS.273         	17.253         	12.82
MS.274         	17.217         	12.792
MS.275         	17.182         	12.806
MS.276         	17.147         	12.818
MS.277         	17.115         	12.836
MS.278         	17.08          	12.774
MS.279         	17.045         	12.881
MS.280         	17.012         	12.752
MS.281         	16.977         	12.734
MS.282         	16.945         	12.709
MS.283         	16.91          	12.647
MS.284         	16.875         	12.584
MS.285         	16.842         	12.659
MS.286         	16.81          	12.49
MS.287         	16.775         	12.685
MS.288         	16.743         	12.534
MS.289         	16.708         	12.744
MS.290         	16.675         	12.564
MS.291         	16.642         	12.671
MS.292         	16.608         	12.56
MS.293         	16.575         	12.518
MS.294         	16.542         	12.528
MS.295         	16.51          	12.621
MS.296         	16.475         	12.659
MS.297         	16.442         	12.472
MS.298         	16.41          	12.458
MS.299         	16.378         	12.603
MS.300         	16.345         	12.548
MS.301         	16.312         	12.439
MS.302         	16.28          	12.536
MS.303         	16.247         	12.502
MS.304         	16.215         	12.605
MS.305         	16.182         	12.617
MS.306         	16.15          	12.443
MS.307         	16.118         	12.429
MS.308         	16.085         	12.427
MS.309         	16.052         	12.383
MS.310         	16.02          	12.361
MS.311         	15.99          	12.337
MS.312         	15.957         	12.365
MS.313         	15.925         	12.315
MS.314         	15.892         	12.268
MS.315         	15.862         	12.337
MS.316         	15.83          	12.371
MS.317         	15.797         	12.214
MS.318         	15.767         	12.3
MS.319         	15.735         	12.264
MS.320         	15.705         	12.315
MS.321         	15.672         	12.256
MS.322         	15.64          	12.029
MS.323         	15.61          	12.268
MS.324         	15.577         	12.224
MS.325         	15.547         	12.159
MS.326         	15.517         	12.258
MS.327         	15.485         	12.159
MS.328         	15.455         	12.278
MS.329         	15.422         	12.117
MS.330         	15.392         	12.107
MS.331         	15.362         	11.962
MS.332         	15.332         	12.188
MS.333         	15.3           	12.184
MS.334         	15.27          	11.946
MS.335         	15.24          	11.94
MS.336         	15.21          	11.91
MS.337         	15.18          	11.972
MS.338         	15.148         	11.878
MS.339         	15.117         	11.741
MS.340         	15.087         	11.72
MS.341         	15.057         	11.636
MS.342         	15.027         	11.453
MS.343         	14.997         	11.551
MS.344         	14.967         	11.739
MS.345         	14.938         	11.253
MS.346         	14.907         	11.88
MS.347         	14.877         	11.348
MS.348         	14.847         	11.102
MS.349         	14.82          	10.943
MS.350         	14.79          	10.933
MS.351         	14.76          	10.967
MS.352         	14.73          	10.846
MS.353         	14.7           	11.132
MS.354         	14.672         	10.655
MS.355         	14.642         	10.645
MS.356         	14.612         	10.671
MS.357         	14.582         	10.748
MS.358         	14.555         	10.582
MS.359         	14.525         	10.182
MS.360         	14.497         	10.476
MS.361         	14.467         	10.949
MS.362         	14.438         	10.327
MS.363         	14.41          	10.238
MS.364         	14.38          	10.143
MS.365         	14.352         	10.212
MS.366         	14.322         	10.012
MS.367         	14.295         	9.91
MS.368         	14.267         	9.624
MS.369         	14.237         	9.267
MS.370         	14.21          	9.557
MS.371         	14.18          	9.527
MS.372         	14.153         	9.61
MS.373         	14.125         	9.166
MS.374         	14.095         	9.265
MS.375         	14.068         	9.271
MS.376         	14.04          	9.523
MS.377         	14.012         	9.158
MS.378         	13.985         	9.082
MS.379         	13.955         	9.217
MS.380         	13.927         	9.293
MS.381         	13.9           	8.802
MS.382         	13.872         	8.882
MS.383         	13.845         	8.884
MS.384         	13.818         	9.068
MS.385         	13.79          	8.566
MS.386         	13.762         	8.651
MS.387         	13.735         	8.705
MS.388         	13.707         	8.645
MS.389         	13.68          	8.518
MS.390         	13.653         	8.472
MS.391         	13.625         	8.647
MS.392         	13.597         	8.56
MS.393         	13.57          	8.518
MS.394         	13.542         	8.385
MS.395         	13.517         	8.385
MS.396         	13.49          	8.272
MS.397         	13.462         	8.272
MS.398         	13.435         	8.282
MS.399         	13.407         	8.329
MS.400         	13.382         	8.123
MS.401         	13.355         	8.089
MS.402         	13.327         	8.099
MS.403         	13.302         	8.115
MS.404         	13.275         	8.02
MS.405         	13.247         	8.057
MS.406         	13.222         	7.904
MS.407         	13.195         	7.803
MS.408         	13.17          	7.738
MS.409         	13.142         	7.676
MS.410         	13.117         	7.688
MS.411         	13.09          	7.632
MS.412         	13.065         	7.398
MS.413         	13.037         	7.597
MS.414         	13.012         	7.293
MS.415         	12.987         	7.384
MS.416         	12.96          	7.398
MS.417         	12.935         	7.69
MS.418         	12.907         	7.215
MS.419         	12.882         	7.158
MS.420         	12.858         	7.471
MS.421         	12.832         	7.513
MS.422         	12.805         	7.513
MS.423         	12.78          	7.547
MS.424         	12.755         	7.454
MS.425         	12.73          	7.589
MS.426         	12.705         	7.356
MS.427         	12.677         	7.168
MS.428         	12.653         	6.961
MS.429         	12.627         	6.896
MS.430         	12.602         	6.53
MS.431         	12.577         	6.639
MS.432         	12.552         	6.979
MS.433         	12.528         	6.776
MS.434         	12.502         	6.733
MS.435         	12.477         	6.25
MS.436         	12.452         	6.161
MS.437         	12.427         	6.181
MS.438         	12.403         	6.008
MS.439         	12.377         	6.131
MS.440         	12.352         	5.863
MS.441         	12.327         	5.944
MS.442         	12.302         	5.696
MS.443         	12.28          	5.658
MS.444         	12.255         	5.567
MS.445         	12.23          	5.771
MS.446         	12.205         	5.64
MS.447         	12.182         	5.477
MS.448         	12.157         	5.261
MS.449         	12.132         	5.009
MS.450         	12.108         	5.289
MS.451         	12.085         	5.213
MS.452         	12.06          	5.078
MS.453         	12.035         	5.013
MS.454         	12.012         	4.723
MS.455         	11.988         	4.937
MS.456         	11.965         	4.751
MS.457         	11.94          	4.711
MS.458         	11.915         	4.8
MS.459         	11.892         	4.562
MS.460         	11.867         	4.602
MS.461         	11.845         	4.631
MS.462         	11.822         	4.526
MS.463         	11.797         	4.62
MS.464         	11.775         	4.506
MS.465         	11.75          	4.528
MS.466         	11.727         	4.212
MS.467         	11.702         	4.463
MS.468         	11.68          	4.339
MS.469         	11.657         	4.349
MS.470         	11.632         	4.328
MS.471         	11.61          	4.242
MS.472         	11.587         	4.133
MS.473         	11.565         	4.282
MS.474         	11.54          	4.109
MS.475         	11.517         	4.055
MS.476         	11.495         	4.038
MS.477         	11.472         	3.972
MS.478         	11.45          	3.859
MS.479         	11.425         	3.877
MS.480         	11.403         	3.632
MS.481         	11.38          	3.553
MS.482         	11.358         	3.565
MS.483         	11.335         	3.366
MS.484         	11.312         	3.525
MS.485         	11.29          	3.648
MS.486         	11.267         	3.529
MS.487         	11.245         	3.654
MS.488         	11.222         	3.233
MS.489         	11.2           	3.148
MS.490         	11.177         	3.547
MS.491         	11.155         	3.13
MS.492         	11.132         	3.319
MS.493         	11.11          	3.529
MS.494         	11.087         	2.985
MS.495         	11.068         	3.458
MS.496         	11.045         	2.908
MS.497         	11.023         	2.85
MS.498         	11             	2.955
MS.499         	10.977         	2.884
MS.500         	10.955         	2.739
MS.501         	10.935         	2.725
MS.502         	10.912         	2.534
MS.503         	10.89          	2.876
MS.504         	10.87          	2.812
MS.505         	10.847         	2.773
MS.506         	10.825         	2.443
MS.507         	10.805         	2.455
MS.508         	10.782         	2.367
MS.509         	10.76          	2.453
MS.510         	10.74          	2.455
MS.511         	10.717         	2.379
MS.512         	10.698         	2.33
MS.513         	10.675         	2.306
MS.514         	10.653         	2.167
MS.515         	10.632         	2.139
MS.516         	10.61          	2.326
MS.517         	10.59          	2.457
MS.518         	10.568         	2.062
MS.519         	10.547         	2.062
MS.520         	10.528         	2.073
MS.521         	10.505         	2.016
MS.522         	10.485         	1.932
MS.523         	10.462         	1.932
MS.524         	10.443         	2.101
MS.525         	10.422         	1.903
MS.526         	10.4           	2.004
MS.527         	10.38          	1.529
MS.528         	10.36          	1.613
MS.529         	10.34          	1.531
MS.530         	10.318         	1.541
MS.531         	10.297         	1.394
MS.532         	10.278         	1.454
MS.533         	10.257         	1.446
MS.534         	10.235         	1.581
MS.535         	10.215         	1.19
MS.536         	10.195         	1.211
MS.537         	10.175         	1.456
MS.538         	10.155         	1.368
MS.539         	10.135         	1.158
MS.540         	10.115         	1.144
MS.541         	10.092         	1.084
MS.542         	10.073         	1.211
MS.543         	10.052         	1.063
MS.544         	10.032         	1.18
MS.545         	10.012         	1.144
MS.546         	9.992          	0.975
MS.547         	9.972          	0.846
MS.548         	9.952          	0.931
MS.549         	9.932          	0.959
MS.550         	9.912          	0.965
MS.551         	9.892          	0.634
MS.552         	9.875          	0.697
MS.553         	9.855          	0.641
MS.554         	9.835          	0.479
MS.555         	9.815          	0.487
MS.556         	9.795          	0.554
MS.557         	9.775          	0.592
MS.558         	9.755          	0.552
MS.559         	9.738          	0.526
MS.560         	9.717          	0.526
MS.561         	9.698          	0.409
MS.562         	9.677          	0.485
MS.563         	9.66           	0.53
MS.564         	9.64           	0.516
MS.565         	9.62           	0.367
MS.566         	9.602          	0.332
MS.567         	9.582          	0.427
MS.568         	9.562          	0.371
MS.569         	9.545          	0.373
MS.570         	9.525          	0.316
MS.571         	9.505          	0.354
MS.572         	9.488          	0.359
MS.573         	9.467          	0.278
MS.574         	9.45           	0.304
MS.575         	9.43           	0.334
MS.576         	9.41           	0.28
MS.577         	9.392          	0.274
MS.578         	9.372          	0.236
MS.579         	9.355          	0.268
MS.580         	9.335          	0.29
MS.581         	9.318          	0.165
MS.582         	9.3            	0.24
MS.583         	9.28           	0.316
MS.584         	9.262          	0.234
MS.585         	9.242          	0.143
MS.586         	9.225          	0.211
MS.587         	9.207          	0.234
MS.588         	9.188          	0.226
MS.589         	9.17           	0.137
MS.590         	9.153          	0.121
MS.591         	9.132          	0.143
MS.592         	9.115          	0.113
MS.593         	9.097          	0.139
MS.594         	9.077          	0.111
MS.595         	9.06           	0.109
MS.596         	9.042          	0.236
MS.597         	9.025          	0.222
MS.598         	9.005          	0.103
MS.599         	8.988          	0.111
MS.600         	8.97           	0.127
MS.601         	8.952          	0.099
MS.602         	8.935          	0.109
MS.603         	8.917          	0.095
MS.604         	8.898          	0.097
MS.605         	8.88           	0.107
MS.606         	8.863          	0.099
MS.607         	8.845          	0.097
MS.608         	8.827          	0.097
MS.609         	8.81           	0.091
MS.610         	8.792          	0.099
MS.611         	8.775          	0.105
MS.612         	8.757          	0.103
MS.613         	8.74           	0.097
MS.614         	8.722          	0.091
MS.615         	8.705          	0.107
MS.616         	8.688          	0.083
MS.617         	8.67           	0.105
MS.618         	8.653          	0.099
MS.619         	8.635          	0.093
MS.620         	8.617          	0.089
MS.621         	8.6            	0.073
MS.622         	8.585          	0.087
MS.623         	8.568          	0.091
MS.624         	8.55           	0.073
MS.625         	8.533          	0.066
MS.626         	8.515          	0.091
MS.627         	8.497          	0.083
MS.628         	8.483          	0.095
MS.629         	8.465          	0.066
MS.630         	8.448          	0.07
MS.631         	8.43           	0.066
MS.632         	8.415          	0.075
MS.633         	8.398          	0.07
MS.634         	8.38           	0.054
MS.635         	8.363          	0.048
MS.636         	8.347          	0.068
MS.637         	8.33           	0.052
MS.638         	8.312          	0.068
MS.639         	8.297          	0.05
MS.640         	8.28           	0.052
MS.641         	8.265          	0.05
MS.642         	8.247          	0.05
MS.643         	8.23           	0.052
MS.644         	8.215          	0.073
MS.645         	8.198          	0.052
MS.646         	8.182          	0.056
MS.647         	8.165          	0.05
MS.648         	8.15           	0.05
MS.649         	8.132          	0.048
MS.650         	8.117          	0.028
MS.651         	8.1            	0.05
MS.652         	8.085          	0.056
MS.653         	8.068          	0.052
MS.654         	8.052          	0.052
MS.655         	8.035          	0.054
MS.656         	8.02           	0.04
MS.657         	8.002          	0.052
MS.658         	7.987          	0.056
MS.659         	7.972          	0.073
MS.660         	7.955          	0.054
MS.661         	7.94           	0.056
MS.662         	7.925          	0.052
MS.663         	7.907          	0.056
MS.664         	7.892          	0.04
MS.665         	7.878          	0.052
MS.666         	7.86           	0.038
MS.667         	7.845          	0.056
MS.668         	7.83           	0.054
MS.669         	7.815          	0.056
MS.670         	7.797          	0.06
MS.671         	7.782          	0.054
MS.672         	7.767          	0.052
MS.673         	7.753          	0.058
MS.674         	7.735          	0.058
MS.675         	7.72           	0.058
MS.676         	7.705          	0.052
MS.677         	7.69           	0.056
MS.678         	7.675          	0.06
MS.679         	7.66           	0.06
MS.680         	7.645          	0.058
MS.681         	7.628          	0.054
MS.682         	7.612          	0.056
MS.683         	7.597          	0.04
MS.684         	7.582          	0.06
MS.685         	7.567          	0.028
MS.686         	7.552          	0.04
MS.687         	7.537          	0.06
MS.688         	7.523          	0.05
MS.689         	7.507          	0.042
MS.690         	7.492          	0.058
MS.691         	7.477          	0.032
MS.692         	7.462          	0.036
MS.693         	7.447          	0.036
MS.694         	7.432          	0.05
MS.695         	7.418          	0.034
MS.696         	7.402          	0.048
MS.697         	7.387          	0.044
MS.698         	7.372          	0.048
MS.699         	7.36           	0.032
MS.700         	7.345          	0.022
MS.701         	7.33           	0.042
MS.702         	7.315          	0.026
MS.703         	7.3            	0.036
MS.704         	7.285          	0.032
MS.705         	7.27           	0.032
DERIVED EXCITABILITY VARIABLES
Program = QTracP 3/4/2020
Threshold method = 6 (optimised for CAP, using data for present condition only)
SR method = 1 (using actual data values)
6.                 	0.000               	Peak response\(mV)
9.                 	37.4                	Temperature ( C)
17.                	22                  	Age (years)
18.                	2                   	Sex (M=1, F=2)

EXTRA VARIABLES

MScPeak(mV) = 12.82
MScS5(mA) = 9.88
MScS50(mA) = 12.49
MScS95(mA) = 15.49
MScNSteps = 3
MScSteps(%) = 6.7
MScStepMax(%) = 2.3
MScD50 = 52
MScSlope = 3.99
MSFPeakAmp(mV) = 13.1
MSFNUnits = 171
MSFMeanUnitAmp(uV) = 76.8
MSFHuntTime(m) = 3.71
MSFError(%) = 3.78
MSFNLarge = 50.73
MSFMedianAmp(%) = 0.465
MSFMedianAmp(mV) = 0.0611
MSFHalfAmpAmp(%) = 0.667
MSFHalfAmpAmp(mV) = 0.0876
MSFLargestAmp(%) = 2.25
MSFLargestAmp(mV) = 0.295
MSFMeanRS(%) = 2
MSFOpts = 10106121
MScDuration(min) = 6.6
MSFTraces = 538
MSFSizeLimit(uV) = 32.8
MSFLimitType = 1
MSFSmallestAmp(uV) = 33.3

EXTRA WAVEFORMS


!MScan Model
!171
	1	8.54	0.34	2
	2	9.11	0.52	2
	3	9.28	0.49	2
	4	9.36	0.3	2
	5	9.43	0.28	2
	6	9.52	0.56	2
	7	9.65	0.57	2
	8	9.71	0.47	2
	9	9.75	0.46	2
	10	9.78	0.26	2
	11	9.85	0.25	2
	12	9.87	0.43	2
	13	9.9	0.3	2
	14	9.93	0.29	2
	15	9.96	0.46	2
	16	9.99	0.41	2
	17	10.03	0.45	2
	18	10.07	0.78	2
	19	10.13	0.69	2
	20	10.17	0.58	2
	21	10.21	0.75	2
	22	10.21	0.51	2
	23	10.25	0.6	2
	24	10.28	0.42	2
	25	10.31	0.47	2
	26	10.34	0.54	2
	27	10.37	0.52	2
	28	10.41	0.44	2
	29	10.44	0.49	2
	30	10.47	0.62	2
	31	10.51	0.68	2
	32	10.55	0.45	2
	33	10.61	1.12	2
	34	10.67	0.78	2
	35	10.71	0.5	2
	36	10.75	0.53	2
	37	10.79	0.56	2
	38	10.84	0.68	2
	39	10.88	0.76	2
	40	10.93	0.78	2
	41	10.99	0.85	2
	42	11.06	1.09	2
	43	11.12	0.98	2
	44	11.18	0.94	2
	45	11.25	1.05	2
	46	11.31	1.11	2
	47	11.34	0.43	2
	48	11.36	0.36	2
	49	11.39	0.4	2
	50	11.42	0.45	2
	51	11.44	0.39	2
	52	11.46	0.33	2
	53	11.48	0.31	2
	54	11.51	0.3	2
	55	11.53	0.31	2
	56	11.55	0.35	2
	57	11.57	0.36	2
	58	11.59	0.35	2
	59	11.61	0.32	2
	60	11.64	0.3	2
	61	11.66	0.32	2
	62	11.69	0.5	2
	63	11.72	0.51	2
	64	11.76	0.46	2
	65	11.79	0.39	2
	66	11.82	0.38	2
	67	11.84	0.42	2
	68	11.87	0.46	2
	69	11.9	0.38	2
	70	11.92	0.29	2
	71	11.94	0.29	2
	72	11.96	0.34	2
	73	11.98	0.38	2
	74	12	0.39	2
	75	12.02	0.34	2
	76	12.03	0.27	2
	77	12.05	0.26	2
	78	12.06	0.26	2
	79	12.08	0.28	2
	80	12.09	0.29	2
	81	12.1	0.31	2
	82	12.12	0.31	2
	83	12.13	0.32	2
	84	12.15	0.33	2
	85	12.16	0.33	2
	86	12.18	0.33	2
	87	12.19	0.36	2
	88	12.21	0.38	2
	89	12.22	0.4	2
	90	12.24	0.4	2
	91	12.25	0.4	2
	92	12.27	0.41	2
	93	12.29	0.39	2
	94	12.3	0.37	2
	95	12.32	0.38	2
	96	12.33	0.37	2
	97	12.34	2.25	2
	98	12.35	0.37	2
	99	12.37	0.4	2
	100	12.39	0.49	2
	101	12.41	0.68	2
	102	12.44	0.72	2
	103	12.46	0.75	2
	104	12.49	0.75	2
	105	12.52	0.94	2
	106	12.57	0.91	2
	107	12.61	0.45	2
	108	12.61	0.3	2
	109	12.7	1.82	2
	110	13.03	2.24	2
	111	13.08	0.3	2
	112	13.13	0.54	2
	113	13.16	0.37	2
	114	13.21	0.52	2
	115	13.24	0.28	2
	116	13.26	0.33	2
	117	13.3	0.49	2
	118	13.32	0.42	2
	119	13.35	0.39	2
	120	13.38	0.35	2
	121	13.41	0.35	2
	122	13.44	0.42	2
	123	13.47	0.44	2
	124	13.51	0.41	2
	125	13.54	0.37	2
	126	13.57	0.38	2
	127	13.61	0.41	2
	128	13.64	0.44	2
	129	13.68	0.44	2
	130	13.72	0.54	2
	131	13.77	0.57	2
	132	13.81	0.6	2
	133	13.87	0.8	2
	134	13.94	0.85	2
	135	13.99	0.66	2
	136	14.03	0.72	2
	137	14.07	0.83	2
	138	14.12	0.8	2
	139	14.17	0.88	2
	140	14.21	0.98	2
	141	14.26	0.93	2
	142	14.31	0.79	2
	143	14.35	0.79	2
	144	14.4	0.94	2
	145	14.45	0.9	2
	146	14.5	0.82	2
	147	14.55	1.08	2
	148	14.62	1.56	2
	149	14.69	1.25	2
	150	14.76	1.17	2
	151	14.83	1.08	2
	152	14.87	0.64	2
	153	14.91	0.61	2
	154	14.95	0.64	2
	155	15.01	0.87	2
	156	15.07	0.8	2
	157	15.14	0.92	2
	158	15.29	1.58	2
	159	15.39	0.44	2
	160	15.39	0.29	2
	161	15.56	0.62	2
	162	15.73	0.6	2
	163	15.86	0.5	2
	164	15.99	0.47	2
	165	16.15	0.43	2
	166	16.55	1	2
	167	16.8	0.67	2
	168	17.11	0.67	2
	169	18.07	0.99	2
	170	18.89	0.47	2
	171	20.23	1.43	2

