File:              	C:\Qtrac\Data\Daniel M Sørensen\MScan multicentre study\Data from centres\Roskilde\Folders with NC-examinations\ROS_N10b\MBC00623C.QZD
Name:              	DK.ROS.NC.10.2
Protocol:          	MSCAN-R2
Date:              	23/6/20
Start time:        	19:31:56
Age:               	44
Sex:               	f
Temperature:       	36.4
S/R sites:         	Ulnar Wr-ADM
NC/disease:        	NC
Operator:          	MB
Comments:
M-SCAN DATA (7.7-1.5m)
Scanpts: 120, 124, 645, 667
Stim. (mA)     	Amp. (mV)
MS.1           	9              	9.775
MS.2           	9              	9.765
MS.3           	9              	9.751
MS.4           	9              	9.751
MS.5           	9              	9.753
MS.6           	9              	9.769
MS.7           	9              	9.769
MS.8           	9              	9.777
MS.9           	9              	9.821
MS.10          	9              	9.896
MS.11          	9              	9.861
MS.12          	9              	9.867
MS.13          	9              	9.851
MS.14          	9              	9.894
MS.15          	9              	9.883
MS.16          	9              	9.847
MS.17          	9              	9.837
MS.18          	9              	9.861
MS.19          	9              	9.829
MS.20          	9              	9.829
MS.21          	9              	9.841
MS.22          	9              	9.827
MS.23          	9              	9.809
MS.24          	8.965          	9.799
MS.25          	8.945          	9.815
MS.26          	8.927          	9.819
MS.27          	8.91           	9.867
MS.28          	8.892          	9.833
MS.29          	8.875          	9.845
MS.30          	8.858          	9.797
MS.31          	8.84           	9.799
MS.32          	8.823          	9.803
MS.33          	8.805          	9.793
MS.34          	8.787          	9.805
MS.35          	8.77           	9.805
MS.36          	8.752          	9.823
MS.37          	8.735          	9.803
MS.38          	8.717          	9.829
MS.39          	8.7            	9.829
MS.40          	8.682          	9.835
MS.41          	8.665          	9.817
MS.42          	8.648          	9.803
MS.43          	8.63           	9.793
MS.44          	8.613          	9.829
MS.45          	8.595          	9.845
MS.46          	8.577          	9.801
MS.47          	8.56           	9.805
MS.48          	8.545          	9.793
MS.49          	8.528          	9.803
MS.50          	8.51           	9.811
MS.51          	8.492          	9.803
MS.52          	8.475          	9.813
MS.53          	8.46           	9.783
MS.54          	8.443          	9.819
MS.55          	8.425          	9.827
MS.56          	8.408          	9.829
MS.57          	8.392          	9.815
MS.58          	8.375          	9.807
MS.59          	8.358          	9.809
MS.60          	8.342          	9.809
MS.61          	8.325          	9.831
MS.62          	8.307          	9.817
MS.63          	8.292          	9.817
MS.64          	8.275          	9.823
MS.65          	8.257          	9.847
MS.66          	8.242          	9.851
MS.67          	8.225          	9.839
MS.68          	8.21           	9.825
MS.69          	8.193          	9.811
MS.70          	8.175          	9.845
MS.71          	8.16           	9.823
MS.72          	8.142          	9.829
MS.73          	8.127          	9.815
MS.74          	8.11           	9.829
MS.75          	8.095          	9.819
MS.76          	8.077          	9.857
MS.77          	8.062          	9.819
MS.78          	8.047          	9.823
MS.79          	8.03           	9.825
MS.80          	8.015          	9.803
MS.81          	7.997          	9.819
MS.82          	7.982          	9.825
MS.83          	7.967          	9.843
MS.84          	7.95           	9.813
MS.85          	7.935          	9.823
MS.86          	7.918          	9.785
MS.87          	7.902          	9.807
MS.88          	7.887          	9.791
MS.89          	7.872          	9.801
MS.90          	7.855          	9.831
MS.91          	7.84           	9.861
MS.92          	7.825          	9.855
MS.93          	7.807          	9.827
MS.94          	7.793          	9.815
MS.95          	7.777          	9.839
MS.96          	7.762          	9.833
MS.97          	7.747          	9.841
MS.98          	7.73           	9.867
MS.99          	7.715          	9.892
MS.100         	7.7            	9.873
MS.101         	7.685          	9.873
MS.102         	7.67           	9.857
MS.103         	7.655          	9.859
MS.104         	7.637          	9.873
MS.105         	7.622          	9.89
MS.106         	7.607          	9.877
MS.107         	7.592          	9.894
MS.108         	7.577          	9.863
MS.109         	7.562          	9.888
MS.110         	7.547          	9.871
MS.111         	7.532          	9.908
MS.112         	7.517          	9.928
MS.113         	7.503          	9.924
MS.114         	7.487          	9.918
MS.115         	7.472          	9.885
MS.116         	7.457          	9.892
MS.117         	7.442          	9.912
MS.118         	7.427          	9.879
MS.119         	7.412          	9.922
MS.120         	7.398          	9.938
MS.121         	7.382          	9.867
MS.122         	7.367          	9.894
MS.123         	7.355          	9.894
MS.124         	7.34           	9.898
MS.125         	7.325          	9.888
MS.126         	7.31           	9.912
MS.127         	7.295          	9.904
MS.128         	7.28           	9.918
MS.129         	7.265          	9.9
MS.130         	7.253          	9.938
MS.131         	7.237          	9.92
MS.132         	7.222          	9.92
MS.133         	7.207          	9.896
MS.134         	7.195          	9.896
MS.135         	7.18           	9.93
MS.136         	7.165          	9.892
MS.137         	7.15           	9.914
MS.138         	7.137          	9.894
MS.139         	7.122          	9.881
MS.140         	7.108          	9.885
MS.141         	7.095          	9.869
MS.142         	7.08           	9.883
MS.143         	7.065          	9.875
MS.144         	7.052          	9.888
MS.145         	7.037          	9.879
MS.146         	7.023          	9.881
MS.147         	7.01           	9.879
MS.148         	6.995          	9.877
MS.149         	6.98           	9.91
MS.150         	6.967          	9.906
MS.151         	6.952          	9.918
MS.152         	6.94           	9.888
MS.153         	6.925          	9.881
MS.154         	6.912          	9.875
MS.155         	6.898          	9.865
MS.156         	6.885          	9.869
MS.157         	6.87           	9.877
MS.158         	6.858          	9.896
MS.159         	6.842          	9.883
MS.160         	6.83           	9.888
MS.161         	6.815          	9.873
MS.162         	6.802          	9.881
MS.163         	6.787          	9.888
MS.164         	6.775          	9.906
MS.165         	6.762          	9.922
MS.166         	6.747          	9.912
MS.167         	6.735          	9.926
MS.168         	6.72           	9.91
MS.169         	6.707          	9.954
MS.170         	6.695          	9.98
MS.171         	6.68           	9.974
MS.172         	6.668          	9.988
MS.173         	6.655          	9.986
MS.174         	6.64           	9.92
MS.175         	6.628          	9.926
MS.176         	6.615          	9.894
MS.177         	6.6            	9.829
MS.178         	6.587          	9.896
MS.179         	6.575          	9.809
MS.180         	6.562          	9.918
MS.181         	6.547          	9.908
MS.182         	6.535          	9.926
MS.183         	6.523          	9.831
MS.184         	6.51           	9.821
MS.185         	6.495          	9.823
MS.186         	6.483          	9.902
MS.187         	6.47           	9.875
MS.188         	6.457          	9.843
MS.189         	6.445          	9.811
MS.190         	6.432          	9.809
MS.191         	6.418          	9.91
MS.192         	6.405          	9.817
MS.193         	6.392          	9.773
MS.194         	6.38           	9.835
MS.195         	6.367          	9.757
MS.196         	6.355          	9.803
MS.197         	6.342          	9.954
MS.198         	6.33           	9.922
MS.199         	6.317          	9.821
MS.200         	6.305          	9.837
MS.201         	6.293          	9.797
MS.202         	6.28           	9.783
MS.203         	6.267          	9.593
MS.204         	6.255          	9.67
MS.205         	6.242          	9.672
MS.206         	6.23           	9.684
MS.207         	6.217          	9.549
MS.208         	6.205          	9.777
MS.209         	6.192          	9.722
MS.210         	6.18           	9.749
MS.211         	6.168          	9.545
MS.212         	6.155          	9.497
MS.213         	6.142          	9.672
MS.214         	6.13           	9.585
MS.215         	6.117          	9.585
MS.216         	6.105          	9.515
MS.217         	6.092          	9.465
MS.218         	6.082          	9.442
MS.219         	6.07           	9.501
MS.220         	6.057          	9.452
MS.221         	6.045          	9.426
MS.222         	6.032          	9.44
MS.223         	6.02           	9.313
MS.224         	6.01           	9.418
MS.225         	5.997          	9.384
MS.226         	5.985          	9.384
MS.227         	5.972          	9.465
MS.228         	5.96           	9.328
MS.229         	5.95           	9.338
MS.230         	5.938          	9.318
MS.231         	5.925          	9.263
MS.232         	5.912          	9.305
MS.233         	5.902          	9.382
MS.234         	5.89           	9.261
MS.235         	5.878          	9.138
MS.236         	5.867          	9.179
MS.237         	5.855          	9.297
MS.238         	5.842          	9.283
MS.239         	5.83           	9.046
MS.240         	5.82           	9.271
MS.241         	5.807          	9.019
MS.242         	5.797          	9.062
MS.243         	5.785          	9.064
MS.244         	5.773          	9.219
MS.245         	5.762          	9.177
MS.246         	5.75           	9.211
MS.247         	5.737          	9.253
MS.248         	5.727          	9.215
MS.249         	5.715          	9.015
MS.250         	5.705          	9.138
MS.251         	5.692          	9.11
MS.252         	5.682          	9.187
MS.253         	5.67           	9.122
MS.254         	5.66           	9.092
MS.255         	5.648          	9.034
MS.256         	5.637          	9.054
MS.257         	5.625          	9.112
MS.258         	5.615          	9.096
MS.259         	5.602          	8.876
MS.260         	5.592          	8.999
MS.261         	5.58           	9.029
MS.262         	5.57           	8.987
MS.263         	5.557          	9.001
MS.264         	5.547          	9.04
MS.265         	5.535          	8.798
MS.266         	5.525          	9.042
MS.267         	5.512          	9.193
MS.268         	5.503          	8.723
MS.269         	5.492          	8.826
MS.270         	5.48           	8.899
MS.271         	5.47           	8.788
MS.272         	5.46           	8.81
MS.273         	5.447          	8.929
MS.274         	5.438          	8.838
MS.275         	5.425          	8.81
MS.276         	5.415          	8.784
MS.277         	5.405          	8.802
MS.278         	5.392          	8.895
MS.279         	5.382          	8.711
MS.280         	5.372          	8.888
MS.281         	5.362          	8.681
MS.282         	5.35           	8.818
MS.283         	5.34           	8.345
MS.284         	5.33           	8.522
MS.285         	5.318          	8.359
MS.286         	5.307          	8.798
MS.287         	5.297          	8.762
MS.288         	5.287          	8.683
MS.289         	5.277          	8.548
MS.290         	5.265          	8.474
MS.291         	5.255          	8.417
MS.292         	5.245          	8.258
MS.293         	5.235          	8.141
MS.294         	5.225          	8.234
MS.295         	5.213          	8.109
MS.296         	5.202          	8.224
MS.297         	5.193          	8.204
MS.298         	5.182          	8.079
MS.299         	5.172          	8.081
MS.300         	5.162          	7.914
MS.301         	5.15           	7.9
MS.302         	5.14           	7.96
MS.303         	5.13           	7.771
MS.304         	5.12           	7.726
MS.305         	5.11           	7.505
MS.306         	5.1            	7.757
MS.307         	5.09           	7.269
MS.308         	5.08           	7.259
MS.309         	5.07           	7.346
MS.310         	5.06           	7.295
MS.311         	5.05           	7.618
MS.312         	5.04           	7.295
MS.313         	5.03           	7.048
MS.314         	5.02           	7.06
MS.315         	5.01           	7.291
MS.316         	5              	7.229
MS.317         	4.99           	7.035
MS.318         	4.98           	6.898
MS.319         	4.97           	6.806
MS.320         	4.96           	6.782
MS.321         	4.95           	6.846
MS.322         	4.94           	6.55
MS.323         	4.93           	6.439
MS.324         	4.92           	6.576
MS.325         	4.91           	6.693
MS.326         	4.9            	6.534
MS.327         	4.89           	6.425
MS.328         	4.88           	6.439
MS.329         	4.87           	6.157
MS.330         	4.86           	5.942
MS.331         	4.85           	6.256
MS.332         	4.842          	5.978
MS.333         	4.832          	5.98
MS.334         	4.822          	5.946
MS.335         	4.812          	5.652
MS.336         	4.802          	5.799
MS.337         	4.793          	5.507
MS.338         	4.782          	5.622
MS.339         	4.775          	5.716
MS.340         	4.765          	5.607
MS.341         	4.755          	5.37
MS.342         	4.745          	5.481
MS.343         	4.735          	5.309
MS.344         	4.727          	4.945
MS.345         	4.717          	5.166
MS.346         	4.707          	5.052
MS.347         	4.697          	5.098
MS.348         	4.69           	4.977
MS.349         	4.68           	5.094
MS.350         	4.67           	4.993
MS.351         	4.66           	4.751
MS.352         	4.652          	4.89
MS.353         	4.642          	4.733
MS.354         	4.632          	4.945
MS.355         	4.625          	4.804
MS.356         	4.615          	4.475
MS.357         	4.605          	4.659
MS.358         	4.595          	4.441
MS.359         	4.588          	4.576
MS.360         	4.577          	4.341
MS.361         	4.568          	4.407
MS.362         	4.56           	4.161
MS.363         	4.55           	4.135
MS.364         	4.543          	4.03
MS.365         	4.532          	3.968
MS.366         	4.523          	3.883
MS.367         	4.515          	4
MS.368         	4.505          	3.897
MS.369         	4.495          	3.728
MS.370         	4.487          	3.531
MS.371         	4.477          	3.619
MS.372         	4.47           	3.706
MS.373         	4.46           	3.738
MS.374         	4.452          	3.527
MS.375         	4.443          	3.696
MS.376         	4.432          	3.585
MS.377         	4.425          	3.487
MS.378         	4.415          	3.583
MS.379         	4.407          	3.331
MS.380         	4.398          	3.567
MS.381         	4.39           	3.446
MS.382         	4.38           	3.368
MS.383         	4.372          	3.325
MS.384         	4.362          	3.162
MS.385         	4.355          	3.253
MS.386         	4.345          	3.174
MS.387         	4.338          	3.158
MS.388         	4.327          	3.178
MS.389         	4.32           	3.078
MS.390         	4.31           	2.935
MS.391         	4.302          	2.856
MS.392         	4.295          	2.971
MS.393         	4.285          	2.812
MS.394         	4.277          	2.937
MS.395         	4.267          	2.786
MS.396         	4.26           	2.651
MS.397         	4.253          	2.896
MS.398         	4.242          	2.923
MS.399         	4.235          	2.496
MS.400         	4.225          	2.377
MS.401         	4.217          	2.479
MS.402         	4.21           	2.284
MS.403         	4.2            	2.649
MS.404         	4.193          	2.661
MS.405         	4.185          	2.342
MS.406         	4.175          	2.56
MS.407         	4.168          	2.286
MS.408         	4.16           	2.326
MS.409         	4.15           	2.326
MS.410         	4.142          	2.465
MS.411         	4.135          	2.163
MS.412         	4.125          	2.058
MS.413         	4.117          	1.956
MS.414         	4.11           	2.022
MS.415         	4.1            	1.958
MS.416         	4.092          	2.185
MS.417         	4.085          	1.98
MS.418         	4.077          	2.038
MS.419         	4.068          	2.03
MS.420         	4.06           	2.03
MS.421         	4.052          	1.913
MS.422         	4.045          	2.125
MS.423         	4.035          	1.924
MS.424         	4.027          	1.936
MS.425         	4.02           	1.926
MS.426         	4.012          	1.823
MS.427         	4.003          	1.855
MS.428         	3.995          	1.712
MS.429         	3.987          	1.72
MS.430         	3.98           	1.668
MS.431         	3.972          	1.688
MS.432         	3.965          	1.633
MS.433         	3.955          	1.662
MS.434         	3.947          	1.706
MS.435         	3.94           	1.664
MS.436         	3.932          	1.607
MS.437         	3.925          	1.581
MS.438         	3.918          	1.545
MS.439         	3.91           	1.436
MS.440         	3.9            	1.482
MS.441         	3.892          	1.484
MS.442         	3.885          	1.474
MS.443         	3.877          	1.448
MS.444         	3.87           	1.337
MS.445         	3.862          	1.349
MS.446         	3.855          	1.38
MS.447         	3.847          	1.283
MS.448         	3.84           	1.335
MS.449         	3.832          	1.217
MS.450         	3.822          	1.235
MS.451         	3.815          	1.297
MS.452         	3.807          	1.096
MS.453         	3.8            	1.2
MS.454         	3.793          	1.061
MS.455         	3.785          	1.102
MS.456         	3.777          	1.144
MS.457         	3.77           	1.108
MS.458         	3.762          	1.198
MS.459         	3.755          	1.076
MS.460         	3.747          	1.088
MS.461         	3.74           	0.995
MS.462         	3.732          	0.991
MS.463         	3.725          	1.11
MS.464         	3.717          	0.977
MS.465         	3.71           	0.935
MS.466         	3.702          	0.991
MS.467         	3.695          	1.019
MS.468         	3.688          	1.088
MS.469         	3.68           	0.973
MS.470         	3.675          	0.922
MS.471         	3.668          	0.92
MS.472         	3.66           	0.872
MS.473         	3.652          	0.775
MS.474         	3.645          	0.832
MS.475         	3.637          	0.874
MS.476         	3.63           	0.792
MS.477         	3.622          	0.757
MS.478         	3.615          	0.697
MS.479         	3.607          	0.687
MS.480         	3.6            	0.759
MS.481         	3.595          	0.757
MS.482         	3.587          	0.771
MS.483         	3.58           	0.804
MS.484         	3.572          	0.626
MS.485         	3.565          	0.554
MS.486         	3.557          	0.584
MS.487         	3.55           	0.727
MS.488         	3.545          	0.57
MS.489         	3.537          	0.546
MS.490         	3.53           	0.6
MS.491         	3.523          	0.608
MS.492         	3.515          	0.6
MS.493         	3.507          	0.483
MS.494         	3.502          	0.453
MS.495         	3.495          	0.439
MS.496         	3.487          	0.461
MS.497         	3.48           	0.437
MS.498         	3.472          	0.413
MS.499         	3.467          	0.365
MS.500         	3.46           	0.425
MS.501         	3.452          	0.401
MS.502         	3.445          	0.363
MS.503         	3.44           	0.407
MS.504         	3.432          	0.354
MS.505         	3.425          	0.393
MS.506         	3.418          	0.399
MS.507         	3.412          	0.35
MS.508         	3.405          	0.296
MS.509         	3.398          	0.31
MS.510         	3.392          	0.328
MS.511         	3.385          	0.393
MS.512         	3.377          	0.363
MS.513         	3.37           	0.278
MS.514         	3.365          	0.342
MS.515         	3.357          	0.25
MS.516         	3.35           	0.264
MS.517         	3.345          	0.24
MS.518         	3.337          	0.316
MS.519         	3.33           	0.254
MS.520         	3.325          	0.214
MS.521         	3.317          	0.25
MS.522         	3.31           	0.282
MS.523         	3.305          	0.248
MS.524         	3.297          	0.22
MS.525         	3.29           	0.29
MS.526         	3.285          	0.218
MS.527         	3.277          	0.218
MS.528         	3.273          	0.195
MS.529         	3.265          	0.228
MS.530         	3.257          	0.159
MS.531         	3.252          	0.177
MS.532         	3.245          	0.179
MS.533         	3.24           	0.199
MS.534         	3.232          	0.173
MS.535         	3.225          	0.163
MS.536         	3.22           	0.165
MS.537         	3.212          	0.155
MS.538         	3.207          	0.157
MS.539         	3.2            	0.139
MS.540         	3.195          	0.137
MS.541         	3.188          	0.185
MS.542         	3.18           	0.155
MS.543         	3.175          	0.147
MS.544         	3.168          	0.161
MS.545         	3.162          	0.165
MS.546         	3.155          	0.137
MS.547         	3.15           	0.139
MS.548         	3.142          	0.123
MS.549         	3.138          	0.173
MS.550         	3.13           	0.133
MS.551         	3.125          	0.133
MS.552         	3.117          	0.115
MS.553         	3.112          	0.111
MS.554         	3.105          	0.117
MS.555         	3.1            	0.157
MS.556         	3.092          	0.135
MS.557         	3.087          	0.131
MS.558         	3.08           	0.119
MS.559         	3.075          	0.123
MS.560         	3.067          	0.111
MS.561         	3.062          	0.111
MS.562         	3.057          	0.105
MS.563         	3.05           	0.103
MS.564         	3.045          	0.097
MS.565         	3.037          	0.123
MS.566         	3.033          	0.141
MS.567         	3.025          	0.115
MS.568         	3.02           	0.107
MS.569         	3.015          	0.119
MS.570         	3.007          	0.099
MS.571         	3.002          	0.137
MS.572         	2.995          	0.119
MS.573         	2.99           	0.095
MS.574         	2.985          	0.103
MS.575         	2.977          	0.073
MS.576         	2.972          	0.064
MS.577         	2.965          	0.123
MS.578         	2.96           	0.079
MS.579         	2.955          	0.06
MS.580         	2.947          	0.105
MS.581         	2.942          	0.068
MS.582         	2.938          	0.06
MS.583         	2.93           	0.081
MS.584         	2.925          	0.062
MS.585         	2.92           	0.083
MS.586         	2.912          	0.077
MS.587         	2.908          	0.097
MS.588         	2.902          	0.062
MS.589         	2.895          	0.093
MS.590         	2.89           	0.04
MS.591         	2.885          	0.052
MS.592         	2.877          	0.068
MS.593         	2.872          	0.046
MS.594         	2.867          	0.058
MS.595         	2.86           	0.05
MS.596         	2.855          	0.087
MS.597         	2.85           	0.05
MS.598         	2.845          	0.042
MS.599         	2.837          	0.046
MS.600         	2.832          	0.046
MS.601         	2.827          	0.05
MS.602         	2.822          	0.058
MS.603         	2.815          	0.05
MS.604         	2.81           	0.04
MS.605         	2.805          	0.048
MS.606         	2.8            	0.046
MS.607         	2.793          	0.05
MS.608         	2.787          	0.034
MS.609         	2.783          	0.048
MS.610         	2.777          	0.034
MS.611         	2.77           	0.036
MS.612         	2.765          	0.038
MS.613         	2.76           	0.042
MS.614         	2.755          	0.04
MS.615         	2.75           	0.04
MS.616         	2.742          	0.03
MS.617         	2.737          	0.038
MS.618         	2.732          	0.026
MS.619         	2.727          	0.016
MS.620         	2.722          	0.034
MS.621         	2.715          	0.03
MS.622         	2.71           	0.03
MS.623         	2.705          	0.028
MS.624         	2.7            	0.036
MS.625         	2.695          	0.04
MS.626         	2.69           	0.022
MS.627         	2.685          	0.042
MS.628         	2.678          	0.01
MS.629         	2.672          	0.022
MS.630         	2.668          	0.036
MS.631         	2.662          	0.038
MS.632         	2.658          	0.034
MS.633         	2.652          	0.004
MS.634         	2.648          	0.024
MS.635         	2.64           	0.006
MS.636         	2.635          	0.014
MS.637         	2.63           	0.034
MS.638         	2.625          	0.018
MS.639         	2.62           	0.008
MS.640         	2.615          	0.02
MS.641         	2.61           	0.024
MS.642         	2.605          	0.02
MS.643         	2.6            	0.02
MS.644         	2.595          	0.006
MS.645         	2.59           	0.008
MS.646         	2.582          	0.024
MS.647         	2.577          	0.018
MS.648         	2.572          	0.022
MS.649         	2.567          	0.02
MS.650         	2.562          	0.016
MS.651         	2.557          	0.01
MS.652         	2.553          	0.008
MS.653         	2.547          	0.018
MS.654         	2.543          	0.01
MS.655         	2.537          	0.004
MS.656         	2.533          	0.006
MS.657         	2.527          	0.006
MS.658         	2.523          	0.016
MS.659         	2.517          	0.004
MS.660         	2.513          	0.004
MS.661         	2.507          	0.01
MS.662         	2.503          	0.004
MS.663         	2.497          	0.008
MS.664         	2.492          	0.01
MS.665         	2.487          	0.008
MS.666         	2.482          	0.008
MS.667         	2.477          	0.002
DERIVED EXCITABILITY VARIABLES
Program = QTracP 3/4/2020
Threshold method = 6 (optimised for CAP, using data for present condition only)
SR method = 1 (using actual data values)
6.                 	0.000               	Peak response\(mV)
9.                 	36.4                	Temperature ( C)
17.                	44                  	Age (years)
18.                	2                   	Sex (M=1, F=2)

EXTRA VARIABLES

MScPeak(mV) = 9.81
MScS5(mA) = 3.51
MScS50(mA) = 4.64
MScS95(mA) = 5.96
MScNSteps = 0
MScSteps(%) = 0.0
MScStepMax(%) = 0.0
MScD50 = 50
MScSlope = 5.31
MSFPeakAmp(mV) = 9.89
MSFNUnits = 163
MSFMeanUnitAmp(uV) = 60.7
MSFHuntTime(m) = 3.08
MSFError(%) = 2.91
MSFNLarge = 48.17
MSFMedianAmp(%) = 0.513
MSFMedianAmp(mV) = 0.0507
MSFHalfAmpAmp(%) = 0.661
MSFHalfAmpAmp(mV) = 0.0654
MSFLargestAmp(%) = 3.16
MSFLargestAmp(mV) = 0.313
MSFMeanRS(%) = 2
MSFOpts = 10106121
MScDuration(min) = 6.2
MSFTraces = 548
MSFSizeLimit(uV) = 24.7
MSFLimitType = 1
MSFSmallestAmp(uV) = 25

EXTRA WAVEFORMS


!MScan Model
!163
	1	2.71	0.43	2
	2	2.96	0.26	2
	3	3.04	0.33	2
	4	3.14	0.27	2
	5	3.24	0.4	2
	6	3.28	0.42	2
	7	3.34	0.56	2
	8	3.4	0.77	2
	9	3.44	0.37	2
	10	3.47	0.33	2
	11	3.49	0.41	2
	12	3.51	0.49	2
	13	3.53	0.62	2
	14	3.57	1.06	2
	15	3.6	0.62	2
	16	3.61	0.36	2
	17	3.63	0.46	2
	18	3.65	0.48	2
	19	3.66	0.32	2
	20	3.69	0.7	2
	21	3.72	0.53	2
	22	3.74	0.48	2
	23	3.76	0.36	2
	24	3.78	0.39	2
	25	3.8	0.38	2
	26	3.81	0.42	2
	27	3.83	0.5	2
	28	3.84	0.38	2
	29	3.85	0.43	2
	30	3.86	0.33	2
	31	3.88	0.39	2
	32	3.88	0.3	2
	33	3.9	0.39	2
	34	3.91	0.35	2
	35	3.92	0.32	2
	36	3.93	0.28	2
	37	3.94	0.5	2
	38	3.95	0.37	2
	39	3.96	0.29	2
	40	3.97	0.25	2
	41	3.98	0.37	2
	42	4	0.28	2
	43	4	0.28	2
	44	4.01	0.28	2
	45	4.03	0.7	2
	46	4.09	1.64	2
	47	4.11	0.49	2
	48	4.13	0.6	2
	49	4.18	2.25	2
	50	4.22	2.1	2
	51	4.24	0.44	2
	52	4.26	1.1	2
	53	4.27	0.59	2
	54	4.28	0.72	2
	55	4.29	0.58	2
	56	4.3	0.59	2
	57	4.32	0.66	2
	58	4.33	0.45	2
	59	4.33	0.26	2
	60	4.34	0.26	2
	61	4.34	0.26	2
	62	4.35	0.31	2
	63	4.35	0.45	2
	64	4.36	0.54	2
	65	4.38	0.45	2
	66	4.39	0.38	2
	67	4.41	1.36	2
	68	4.44	0.67	2
	69	4.46	0.7	2
	70	4.48	0.79	2
	71	4.49	0.6	2
	72	4.5	0.45	2
	73	4.51	0.33	2
	74	4.51	0.34	2
	75	4.52	0.34	2
	76	4.52	0.33	2
	77	4.53	0.28	2
	78	4.53	0.28	2
	79	4.53	0.28	2
	80	4.54	0.28	2
	81	4.54	0.28	2
	82	4.55	0.31	2
	83	4.55	0.32	2
	84	4.55	0.3	2
	85	4.56	0.3	2
	86	4.56	0.3	2
	87	4.57	0.3	2
	88	4.57	0.43	2
	89	4.58	0.66	2
	90	4.59	0.66	2
	91	4.6	0.7	2
	92	4.6	0.54	2
	93	4.61	0.54	2
	94	4.62	0.75	2
	95	4.64	0.85	2
	96	4.65	0.72	2
	97	4.66	0.6	2
	98	4.67	0.51	2
	99	4.68	0.5	2
	100	4.69	0.54	2
	101	4.7	0.63	2
	102	4.72	0.66	2
	103	4.73	0.66	2
	104	4.74	0.55	2
	105	4.75	0.74	2
	106	4.76	0.81	2
	107	4.77	0.89	2
	108	4.79	1.34	2
	109	4.8	0.8	2
	110	4.81	0.41	2
	111	4.81	0.38	2
	112	4.82	0.38	2
	113	4.83	0.38	2
	114	4.83	0.41	2
	115	4.84	0.57	2
	116	4.85	0.57	2
	117	4.85	0.7	2
	118	4.87	1.09	2
	119	4.88	0.69	2
	120	4.89	0.7	2
	121	4.9	0.77	2
	122	4.91	0.6	2
	123	4.92	0.6	2
	124	4.93	0.8	2
	125	4.94	0.65	2
	126	4.95	0.62	2
	127	4.96	0.75	2
	128	4.97	0.8	2
	129	4.98	0.37	2
	130	4.99	0.8	2
	131	5.03	2.22	2
	132	5.06	1.12	2
	133	5.08	1.19	2
	134	5.1	1.03	2
	135	5.11	0.55	2
	136	5.11	0.75	2
	137	5.11	0.45	2
	138	5.12	0.45	2
	139	5.13	0.45	2
	140	5.14	0.51	2
	141	5.15	0.51	2
	142	5.16	0.6	2
	143	5.17	0.68	2
	144	5.18	0.65	2
	145	5.19	0.51	2
	146	5.19	3.16	2
	147	5.2	0.41	2
	148	5.24	0.91	2
	149	5.26	0.99	1.6
	150	5.41	0.79	2
	151	5.59	2.08	2
	152	5.62	0.28	2
	153	5.69	0.82	2
	154	5.86	0.87	2
	155	5.91	0.71	2
	156	5.95	0.59	2
	157	5.99	0.38	2
	158	6.04	0.66	2
	159	6.07	0.31	2
	160	6.1	0.48	2
	161	6.17	1	2
	162	6.24	1.15	2
	163	6.44	1.15	2

