File:              	C:\Qtrac\Data\Daniel M Sørensen\MScan multicentre study\Data from centres\Toronto\Processed data\MSCC01216B.QZD
Name:              	CA.TOR.NC.9.2
Protocol:          	MSCAN-R2
Date:              	16/12/20
Start time:        	12:04:01
Age:               	51
Sex:               	F
Temperature:       	31.2
S/R sites:         	ADM
NC/disease:        	NC
Operator:          	LP
Comments:          	MFF60ON, use 2nd trial
M-SCAN DATA (Repeat 2/2, 9.7-6.3m)
Scanpts: 12, 20, 367, 388
Stim. (mA)     	Amp. (mV)
MS.1           	25.5           	11.855
MS.2           	25.5           	11.767
MS.3           	25.5           	11.819
MS.4           	25.5           	11.678
MS.5           	25.5           	11.894
MS.6           	25.5           	11.594
MS.7           	25.5           	11.88
MS.8           	25.5           	11.845
MS.9           	25.5           	11.775
MS.10          	25.5           	11.817
MS.11          	25.5           	11.777
MS.12          	25.5           	11.741
MS.13          	25.5           	11.781
MS.14          	25.5           	11.845
MS.15          	25.5           	11.815
MS.16          	25.5           	11.835
MS.17          	25.5           	11.799
MS.18          	25.5           	11.853
MS.19          	25.5           	11.817
MS.20          	25.5           	11.787
MS.21          	25.5           	11.803
MS.22          	25.5           	11.781
MS.23          	25.5           	11.847
MS.24          	25.45          	11.493
MS.25          	25.397         	11.831
MS.26          	25.347         	11.791
MS.27          	25.297         	11.71
MS.28          	25.247         	11.839
MS.29          	25.195         	11.769
MS.30          	25.145         	11.533
MS.31          	25.095         	11.718
MS.32          	25.045         	11.471
MS.33          	24.995         	11.565
MS.34          	24.945         	11.41
MS.35          	24.895         	11.602
MS.36          	24.845         	11.366
MS.37          	24.795         	11.41
MS.38          	24.747         	11.35
MS.39          	24.698         	11.39
MS.40          	24.647         	11.378
MS.41          	24.597         	11.344
MS.42          	24.55          	11.239
MS.43          	24.5           	11.267
MS.44          	24.45          	11.281
MS.45          	24.403         	11.142
MS.46          	24.352         	11.215
MS.47          	24.305         	11.14
MS.48          	24.257         	11.352
MS.49          	24.207         	10.764
MS.50          	24.16          	11.03
MS.51          	24.11          	11.122
MS.52          	24.062         	10.86
MS.53          	24.015         	10.731
MS.54          	23.967         	10.508
MS.55          	23.92          	10.141
MS.56          	23.872         	10.695
MS.57          	23.823         	10.413
MS.58          	23.775         	11.023
MS.59          	23.727         	10.506
MS.60          	23.68          	10.453
MS.61          	23.635         	11.046
MS.62          	23.587         	10.76
MS.63          	23.54          	10.417
MS.64          	23.493         	10.339
MS.65          	23.445         	9.775
MS.66          	23.397         	10.437
MS.67          	23.352         	9.342
MS.68          	23.305         	10.035
MS.69          	23.257         	9.563
MS.70          	23.212         	9.745
MS.71          	23.165         	10.02
MS.72          	23.12          	9.771
MS.73          	23.073         	9.652
MS.74          	23.028         	8.935
MS.75          	22.98          	8.947
MS.76          	22.935         	8.905
MS.77          	22.89          	8.711
MS.78          	22.845         	8.53
MS.79          	22.797         	8.667
MS.80          	22.752         	8.258
MS.81          	22.707         	8.568
MS.82          	22.663         	8.21
MS.83          	22.618         	8.604
MS.84          	22.573         	8.034
MS.85          	22.525         	8.276
MS.86          	22.48          	7.896
MS.87          	22.438         	8.041
MS.88          	22.392         	8.016
MS.89          	22.347         	8.822
MS.90          	22.302         	8.792
MS.91          	22.257         	7.771
MS.92          	22.212         	8.337
MS.93          	22.167         	8.194
MS.94          	22.125         	7.763
MS.95          	22.08          	7.73
MS.96          	22.035         	7.7
MS.97          	21.993         	8.008
MS.98          	21.948         	7.835
MS.99          	21.905         	7.708
MS.100         	21.86          	7.755
MS.101         	21.817         	7.422
MS.102         	21.772         	7.378
MS.103         	21.73          	7.64
MS.104         	21.688         	7.458
MS.105         	21.642         	7.247
MS.106         	21.6           	6.57
MS.107         	21.557         	6.856
MS.108         	21.512         	7.773
MS.109         	21.47          	6.804
MS.110         	21.427         	7.523
MS.111         	21.385         	7.074
MS.112         	21.342         	6.665
MS.113         	21.3           	6.804
MS.114         	21.257         	6.137
MS.115         	21.215         	6.359
MS.116         	21.172         	6.417
MS.117         	21.13          	5.716
MS.118         	21.087         	6.371
MS.119         	21.045         	5.857
MS.120         	21.002         	5.998
MS.121         	20.962         	6.282
MS.122         	20.92          	5.477
MS.123         	20.877         	5.771
MS.124         	20.835         	5.195
MS.125         	20.795         	5.438
MS.126         	20.752         	5.617
MS.127         	20.712         	4.967
MS.128         	20.67          	5.132
MS.129         	20.627         	4.455
MS.130         	20.587         	4.963
MS.131         	20.545         	4.751
MS.132         	20.505         	4.86
MS.133         	20.465         	4.661
MS.134         	20.422         	4.939
MS.135         	20.382         	4.177
MS.136         	20.342         	4.195
MS.137         	20.3           	3.942
MS.138         	20.26          	4.304
MS.139         	20.22          	4.089
MS.140         	20.18          	4.075
MS.141         	20.14          	3.873
MS.142         	20.1           	3.932
MS.143         	20.06          	3.859
MS.144         	20.02          	3.795
MS.145         	19.98          	3.67
MS.146         	19.94          	3.839
MS.147         	19.9           	3.932
MS.148         	19.86          	3.408
MS.149         	19.82          	3.549
MS.150         	19.78          	3.337
MS.151         	19.74          	2.975
MS.152         	19.7           	3.607
MS.153         	19.663         	3.076
MS.154         	19.622         	3.114
MS.155         	19.583         	3.325
MS.156         	19.545         	2.917
MS.157         	19.505         	3.072
MS.158         	19.465         	2.818
MS.159         	19.427         	2.757
MS.160         	19.387         	2.993
MS.161         	19.35          	2.925
MS.162         	19.31          	2.83
MS.163         	19.272         	3.08
MS.164         	19.235         	2.598
MS.165         	19.195         	2.991
MS.166         	19.157         	2.633
MS.167         	19.12          	2.506
MS.168         	19.08          	2.628
MS.169         	19.042         	2.079
MS.170         	19.005         	2.381
MS.171         	18.967         	2.276
MS.172         	18.927         	2.439
MS.173         	18.89          	2.574
MS.174         	18.852         	2.075
MS.175         	18.815         	2.105
MS.176         	18.778         	2.306
MS.177         	18.74          	1.847
MS.178         	18.702         	1.95
MS.179         	18.665         	2.105
MS.180         	18.628         	1.787
MS.181         	18.59          	1.601
MS.182         	18.555         	1.698
MS.183         	18.517         	1.758
MS.184         	18.48          	1.919
MS.185         	18.442         	1.696
MS.186         	18.405         	1.797
MS.187         	18.37          	1.581
MS.188         	18.333         	1.71
MS.189         	18.295         	1.811
MS.190         	18.26          	1.428
MS.191         	18.222         	1.497
MS.192         	18.188         	1.492
MS.193         	18.15          	1.291
MS.194         	18.115         	1.617
MS.195         	18.077         	1.337
MS.196         	18.042         	1.319
MS.197         	18.005         	1.263
MS.198         	17.97          	1.124
MS.199         	17.932         	1.281
MS.200         	17.897         	1.251
MS.201         	17.862         	1.17
MS.202         	17.827         	1.074
MS.203         	17.79          	0.991
MS.204         	17.755         	1.09
MS.205         	17.72          	0.931
MS.206         	17.685         	1.088
MS.207         	17.65          	0.878
MS.208         	17.612         	0.951
MS.209         	17.577         	1.009
MS.210         	17.542         	0.717
MS.211         	17.507         	0.951
MS.212         	17.472         	0.87
MS.213         	17.438         	0.882
MS.214         	17.403         	0.792
MS.215         	17.37          	0.747
MS.216         	17.335         	0.737
MS.217         	17.3           	0.838
MS.218         	17.265         	0.691
MS.219         	17.23          	0.777
MS.220         	17.195         	0.657
MS.221         	17.163         	0.647
MS.222         	17.128         	0.681
MS.223         	17.092         	0.659
MS.224         	17.06          	0.755
MS.225         	17.025         	0.586
MS.226         	16.99          	0.665
MS.227         	16.958         	0.564
MS.228         	16.922         	0.53
MS.229         	16.89          	0.534
MS.230         	16.855         	0.665
MS.231         	16.823         	0.514
MS.232         	16.788         	0.54
MS.233         	16.755         	0.624
MS.234         	16.72          	0.52
MS.235         	16.688         	0.632
MS.236         	16.655         	0.671
MS.237         	16.62          	0.457
MS.238         	16.587         	0.481
MS.239         	16.555         	0.516
MS.240         	16.522         	0.459
MS.241         	16.49          	0.5
MS.242         	16.455         	0.51
MS.243         	16.422         	0.463
MS.244         	16.39          	0.504
MS.245         	16.358         	0.508
MS.246         	16.325         	0.459
MS.247         	16.292         	0.487
MS.248         	16.26          	0.459
MS.249         	16.227         	0.469
MS.250         	16.195         	0.419
MS.251         	16.163         	0.469
MS.252         	16.13          	0.459
MS.253         	16.097         	0.481
MS.254         	16.065         	0.445
MS.255         	16.032         	0.433
MS.256         	16.003         	0.459
MS.257         	15.97          	0.433
MS.258         	15.938         	0.449
MS.259         	15.905         	0.429
MS.260         	15.875         	0.401
MS.261         	15.842         	0.425
MS.262         	15.81          	0.403
MS.263         	15.78          	0.437
MS.264         	15.747         	0.415
MS.265         	15.715         	0.429
MS.266         	15.685         	0.407
MS.267         	15.652         	0.357
MS.268         	15.622         	0.393
MS.269         	15.59          	0.423
MS.270         	15.56          	0.399
MS.271         	15.527         	0.371
MS.272         	15.497         	0.246
MS.273         	15.467         	0.354
MS.274         	15.435         	0.389
MS.275         	15.405         	0.24
MS.276         	15.375         	0.352
MS.277         	15.342         	0.27
MS.278         	15.312         	0.415
MS.279         	15.282         	0.334
MS.280         	15.252         	0.232
MS.281         	15.22          	0.292
MS.282         	15.19          	0.344
MS.283         	15.16          	0.288
MS.284         	15.13          	0.26
MS.285         	15.1           	0.248
MS.286         	15.07          	0.234
MS.287         	15.04          	0.31
MS.288         	15.01          	0.256
MS.289         	14.98          	0.373
MS.290         	14.95          	0.22
MS.291         	14.92          	0.373
MS.292         	14.89          	0.234
MS.293         	14.86          	0.254
MS.294         	14.83          	0.187
MS.295         	14.8           	0.203
MS.296         	14.77          	0.203
MS.297         	14.742         	0.24
MS.298         	14.712         	0.179
MS.299         	14.682         	0.205
MS.300         	14.652         	0.199
MS.301         	14.625         	0.103
MS.302         	14.595         	0.107
MS.303         	14.565         	0.081
MS.304         	14.537         	0.153
MS.305         	14.507         	0.143
MS.306         	14.477         	0.169
MS.307         	14.45          	0.195
MS.308         	14.42          	0.173
MS.309         	14.392         	0.167
MS.310         	14.362         	0.062
MS.311         	14.335         	0.081
MS.312         	14.305         	0.099
MS.313         	14.278         	0.161
MS.314         	14.25          	0.06
MS.315         	14.22          	0.06
MS.316         	14.193         	0.165
MS.317         	14.162         	0.153
MS.318         	14.135         	0.062
MS.319         	14.108         	0.066
MS.320         	14.08          	0.058
MS.321         	14.05          	0.044
MS.322         	14.023         	0.153
MS.323         	13.995         	0.042
MS.324         	13.967         	0.137
MS.325         	13.94          	0.054
MS.326         	13.91          	0.054
MS.327         	13.882         	0.075
MS.328         	13.855         	0.054
MS.329         	13.827         	0.05
MS.330         	13.8           	0.131
MS.331         	13.773         	0.052
MS.332         	13.745         	0.07
MS.333         	13.717         	0.054
MS.334         	13.69          	0.048
MS.335         	13.662         	0.133
MS.336         	13.635         	0.058
MS.337         	13.608         	0.133
MS.338         	13.58          	0.054
MS.339         	13.555         	0.056
MS.340         	13.528         	0.05
MS.341         	13.5           	0.068
MS.342         	13.472         	0.052
MS.343         	13.445         	0.046
MS.344         	13.42          	0.048
MS.345         	13.392         	0.046
MS.346         	13.365         	0.068
MS.347         	13.34          	0.137
MS.348         	13.312         	0.048
MS.349         	13.285         	0.048
MS.350         	13.26          	0.05
MS.351         	13.233         	0.042
MS.352         	13.205         	0.056
MS.353         	13.18          	0.058
MS.354         	13.153         	0.054
MS.355         	13.127         	0.014
MS.356         	13.1           	0.014
MS.357         	13.075         	0.014
MS.358         	13.047         	0.052
MS.359         	13.023         	0.016
MS.360         	12.997         	0.014
MS.361         	12.97          	0.012
MS.362         	12.945         	0.016
MS.363         	12.917         	0.012
MS.364         	12.892         	0.012
MS.365         	12.867         	0.044
MS.366         	12.842         	0.014
MS.367         	12.815         	0.012
MS.368         	12.79          	0.048
MS.369         	12.765         	0.014
MS.370         	12.74          	0.012
MS.371         	12.712         	0.014
MS.372         	12.688         	0.016
MS.373         	12.662         	0.052
MS.374         	12.637         	0.016
MS.375         	12.613         	0.012
MS.376         	12.587         	0.014
MS.377         	12.562         	0.01
MS.378         	12.537         	0.014
MS.379         	12.512         	0.012
MS.380         	12.488         	0.01
MS.381         	12.462         	0.016
MS.382         	12.438         	0.012
MS.383         	12.412         	0.014
MS.384         	12.387         	0.014
MS.385         	12.363         	0.014
MS.386         	12.337         	0.012
MS.387         	12.312         	0.018
MS.388         	12.287         	0.016
DERIVED EXCITABILITY VARIABLES
Program = QTracP 3/4/2020
Threshold method = 6 (optimised for CAP, using data for present condition only)
SR method = 1 (using actual data values)
6.                 	0.000               	Peak response\(mV)
9.                 	31.2                	Temperature ( C)
17.                	51                  	Age (years)
18.                	2                   	Sex (M=1, F=2)

EXTRA VARIABLES

MScPeak(mV) = 11.78
MScS5(mA) = 16.84
MScS50(mA) = 21.06
MScS95(mA) = 24.33
MScNSteps = 2
MScSteps(%) = 4.2
MScStepMax(%) = 2.1
MScD50 = 38
MScSlope = 5.92
MSFPeakAmp(mV) = 11.8
MSFNUnits = 94
MSFMeanUnitAmp(uV) = 125.4
MSFHuntTime(m) = 2.15
MSFError(%) = 3.68
MSFNLarge = 22.5
MSFMedianAmp(%) = 0.785
MSFMedianAmp(mV) = 0.0926
MSFHalfAmpAmp(%) = 1.36
MSFHalfAmpAmp(mV) = 0.16
MSFLargestAmp(%) = 5.13
MSFLargestAmp(mV) = 0.604
MSFMeanRS(%) = 2
MSFOpts = 10106121
MSFTraces = 377
MSFSizeLimit(uV) = 29.5
MSFLimitType = 1
MSFSmallestAmp(uV) = 29.6

EXTRA WAVEFORMS


!MScan Model
!94
	1	12.95	0.51	2
	2	14.27	0.32	2
	3	14.52	0.74	2
	4	14.78	0.79	2
	5	15.55	0.71	2
	6	15.77	0.4	2
	7	16.11	0.49	2
	8	16.77	0.77	2
	9	16.94	0.43	2
	10	17.09	0.53	2
	11	17.25	0.59	2
	12	17.41	0.58	2
	13	17.55	0.75	2
	14	17.66	0.59	2
	15	17.71	0.25	2
	16	17.75	0.32	2
	17	17.79	0.31	2
	18	17.83	0.33	2
	19	17.88	0.35	2
	20	17.92	0.38	2
	21	17.97	0.41	2
	22	18.02	0.44	2
	23	18.07	0.46	2
	24	18.13	0.43	2
	25	18.19	0.65	2
	26	18.26	0.58	2
	27	18.32	0.53	2
	28	18.45	1.02	2
	29	18.59	0.75	2
	30	18.63	0.41	2
	31	18.67	0.46	2
	32	18.71	0.68	2
	33	18.78	1.13	2
	34	18.91	1.13	2
	35	19.03	1.85	2
	36	19.18	1.76	2
	37	19.35	1.49	2
	38	19.5	1.64	2
	39	19.58	0.56	2
	40	19.66	0.73	2
	41	19.72	0.92	2
	42	19.78	0.78	2
	43	19.84	0.76	2
	44	19.9	0.91	2
	45	19.99	1.36	2
	46	20.07	0.94	2
	47	20.16	0.54	2
	48	20.2	0.67	2
	49	20.25	0.77	2
	50	20.29	0.83	2
	51	20.37	1.28	2
	52	20.46	1.2	2
	53	20.52	1.07	2
	54	20.58	1.28	2
	55	20.64	1.42	2
	56	20.7	1.14	2
	57	20.78	1.68	2
	58	20.86	2.02	2
	59	20.92	0.44	2
	60	20.95	1.73	2
	61	21.05	2.23	2
	62	21.14	1.52	2
	63	21.21	1.5	2
	64	21.28	1.78	2
	65	21.58	5.13	2
	66	21.73	1.96	2
	67	21.8	1.05	2
	68	21.88	0.85	2
	69	21.95	0.82	2
	70	22.11	1.85	2
	71	22.62	2.67	2
	72	22.66	0.48	2
	73	22.7	0.48	2
	74	22.74	0.77	2
	75	22.78	0.83	2
	76	22.82	0.84	2
	77	22.86	0.84	2
	78	22.91	1	2
	79	22.98	1.5	2
	80	23.06	1.17	2
	81	23.25	5.09	2
	82	23.42	3.19	2
	83	23.86	4.15	2
	84	24.03	1.51	2
	85	24.14	1.11	2
	86	24.24	1.08	2
	87	24.41	1.34	2
	88	24.55	0.7	2
	89	24.72	0.6	2
	90	24.8	0.33	2
	91	24.86	0.26	2
	92	24.92	0.35	2
	93	24.98	0.37	2
	94	25.25	1.64	2

