File:              	C:\Qtrac\Data\Daniel M Sørensen\MScan multicentre study\Data from centres\Toronto\Processed data\MSCC01202B.QZD
Name:              	CA.TOR.NC.7.1
Protocol:          	MSCAN-R2
Date:              	2/12/20
Start time:        	10:49:15
Age:               	43
Sex:               	F
Temperature:       	31.3
S/R sites:         	ADM
NC/disease:        	NC
Operator:          	LP
Comments:          	MFF60ON
M-SCAN DATA (6.3-1.2m)
Scanpts: 15, 24, 405, 411
Stim. (mA)     	Amp. (mV)
MS.1           	25             	13.165
MS.2           	25             	13.062
MS.3           	25             	13.078
MS.4           	25             	13.088
MS.5           	25             	13.024
MS.6           	25             	13.016
MS.7           	25             	12.983
MS.8           	25             	13.245
MS.9           	25             	13.03
MS.10          	25             	13.024
MS.11          	25             	13.058
MS.12          	25             	13.11
MS.13          	25             	13.048
MS.14          	25             	13.024
MS.15          	25             	13.005
MS.16          	25             	13.034
MS.17          	25             	13.013
MS.18          	25             	12.917
MS.19          	25             	13.088
MS.20          	25             	12.999
MS.21          	25             	12.957
MS.22          	25             	12.995
MS.23          	25             	13.1
MS.24          	24.9           	13.068
MS.25          	24.85          	13.08
MS.26          	24.8           	13.003
MS.27          	24.75          	13.106
MS.28          	24.702         	13.128
MS.29          	24.653         	13.03
MS.30          	24.602         	13.104
MS.31          	24.555         	13.07
MS.32          	24.505         	13.064
MS.33          	24.455         	13.018
MS.34          	24.407         	12.915
MS.35          	24.358         	12.893
MS.36          	24.31          	12.967
MS.37          	24.26          	13.028
MS.38          	24.212         	13.046
MS.39          	24.165         	12.947
MS.40          	24.115         	12.756
MS.41          	24.067         	12.86
MS.42          	24.02          	12.623
MS.43          	23.972         	12.734
MS.44          	23.925         	12.709
MS.45          	23.875         	12.685
MS.46          	23.827         	12.54
MS.47          	23.78          	12.516
MS.48          	23.733         	12.502
MS.49          	23.685         	12.266
MS.50          	23.637         	12.532
MS.51          	23.59          	12.421
MS.52          	23.545         	12.516
MS.53          	23.497         	12.407
MS.54          	23.45          	12.544
MS.55          	23.403         	12.48
MS.56          	23.358         	12.441
MS.57          	23.31          	12.109
MS.58          	23.262         	12.254
MS.59          	23.217         	12.431
MS.60          	23.17          	12.284
MS.61          	23.125         	12.397
MS.62          	23.077         	11.99
MS.63          	23.032         	12.101
MS.64          	22.985         	11.96
MS.65          	22.94          	11.628
MS.66          	22.895         	11.904
MS.67          	22.847         	11.771
MS.68          	22.802         	11.976
MS.69          	22.757         	11.741
MS.70          	22.712         	11.886
MS.71          	22.665         	11.318
MS.72          	22.62          	11.523
MS.73          	22.575         	11.602
MS.74          	22.53          	11.527
MS.75          	22.485         	11.14
MS.76          	22.44          	11.007
MS.77          	22.395         	11.352
MS.78          	22.35          	11.114
MS.79          	22.307         	11.044
MS.80          	22.262         	11.076
MS.81          	22.217         	10.995
MS.82          	22.172         	10.883
MS.83          	22.127         	11.05
MS.84          	22.085         	10.778
MS.85          	22.04          	10.584
MS.86          	21.995         	10.401
MS.87          	21.952         	10.337
MS.88          	21.907         	10.061
MS.89          	21.865         	10.723
MS.90          	21.82          	10.131
MS.91          	21.778         	10.149
MS.92          	21.735         	9.761
MS.93          	21.69          	9.877
MS.94          	21.647         	9.767
MS.95          	21.605         	9.843
MS.96          	21.56          	9.871
MS.97          	21.517         	10.055
MS.98          	21.475         	9.485
MS.99          	21.432         	9.245
MS.100         	21.39          	9.777
MS.101         	21.345         	9.616
MS.102         	21.302         	9.315
MS.103         	21.26          	8.969
MS.104         	21.217         	9.34
MS.105         	21.175         	9.011
MS.106         	21.135         	8.921
MS.107         	21.092         	9.392
MS.108         	21.05          	9.183
MS.109         	21.007         	8.82
MS.110         	20.965         	8.963
MS.111         	20.922         	8.695
MS.112         	20.882         	8.999
MS.113         	20.84          	8.526
MS.114         	20.797         	8.743
MS.115         	20.757         	8.54
MS.116         	20.715         	8.312
MS.117         	20.675         	8.486
MS.118         	20.632         	8.03
MS.119         	20.592         	8.389
MS.120         	20.55          	8.101
MS.121         	20.51          	8.18
MS.122         	20.467         	7.847
MS.123         	20.427         	7.908
MS.124         	20.387         	8.111
MS.125         	20.345         	7.956
MS.126         	20.305         	8.111
MS.127         	20.265         	7.865
MS.128         	20.225         	7.799
MS.129         	20.182         	7.541
MS.130         	20.142         	7.609
MS.131         	20.102         	7.672
MS.132         	20.062         	7.559
MS.133         	20.022         	7.483
MS.134         	19.983         	7.37
MS.135         	19.942         	7.575
MS.136         	19.903         	6.941
MS.137         	19.862         	7.473
MS.138         	19.823         	7.11
MS.139         	19.785         	7.092
MS.140         	19.745         	6.983
MS.141         	19.705         	6.768
MS.142         	19.665         	6.731
MS.143         	19.627         	6.61
MS.144         	19.587         	6.145
MS.145         	19.547         	6.393
MS.146         	19.51          	6.353
MS.147         	19.47          	6.407
MS.148         	19.43          	6.51
MS.149         	19.392         	6.171
MS.150         	19.352         	6.04
MS.151         	19.315         	6.047
MS.152         	19.275         	5.642
MS.153         	19.237         	6.214
MS.154         	19.2           	5.72
MS.155         	19.16          	5.763
MS.156         	19.122         	5.69
MS.157         	19.085         	5.904
MS.158         	19.047         	5.416
MS.159         	19.007         	4.991
MS.160         	18.97          	5.047
MS.161         	18.932         	5.235
MS.162         	18.895         	5.001
MS.163         	18.858         	5.138
MS.164         	18.82          	4.796
MS.165         	18.782         	4.844
MS.166         	18.745         	4.208
MS.167         	18.708         	4.733
MS.168         	18.67          	4.079
MS.169         	18.632         	3.916
MS.170         	18.595         	4.153
MS.171         	18.557         	3.789
MS.172         	18.52          	3.722
MS.173         	18.483         	3.779
MS.174         	18.448         	3.928
MS.175         	18.41          	4.3
MS.176         	18.372         	2.89
MS.177         	18.335         	3.531
MS.178         	18.3           	3.374
MS.179         	18.262         	2.987
MS.180         	18.227         	3.074
MS.181         	18.19          	3.19
MS.182         	18.153         	3.019
MS.183         	18.118         	2.763
MS.184         	18.08          	2.876
MS.185         	18.045         	2.81
MS.186         	18.01          	2.528
MS.187         	17.972         	2.763
MS.188         	17.938         	2.818
MS.189         	17.903         	2.848
MS.190         	17.865         	2.606
MS.191         	17.83          	2.439
MS.192         	17.795         	2.459
MS.193         	17.757         	2.439
MS.194         	17.722         	2.399
MS.195         	17.688         	2.377
MS.196         	17.653         	2.254
MS.197         	17.618         	2.492
MS.198         	17.583         	2.135
MS.199         	17.547         	1.899
MS.200         	17.512         	2.101
MS.201         	17.477         	1.746
MS.202         	17.442         	1.825
MS.203         	17.407         	1.629
MS.204         	17.372         	1.69
MS.205         	17.337         	1.613
MS.206         	17.302         	1.432
MS.207         	17.267         	1.335
MS.208         	17.235         	1.631
MS.209         	17.2           	1.253
MS.210         	17.165         	1.486
MS.211         	17.13          	1.39
MS.212         	17.097         	1.09
MS.213         	17.062         	1.047
MS.214         	17.028         	1.406
MS.215         	16.995         	1.041
MS.216         	16.96          	1.025
MS.217         	16.927         	1.045
MS.218         	16.892         	0.86
MS.219         	16.86          	1.2
MS.220         	16.825         	1.013
MS.221         	16.792         	1.059
MS.222         	16.757         	0.985
MS.223         	16.725         	0.761
MS.224         	16.69          	0.711
MS.225         	16.657         	0.711
MS.226         	16.625         	0.868
MS.227         	16.59          	0.806
MS.228         	16.557         	0.951
MS.229         	16.525         	0.63
MS.230         	16.493         	0.826
MS.231         	16.46          	0.771
MS.232         	16.425         	0.536
MS.233         	16.392         	0.685
MS.234         	16.36          	0.626
MS.235         	16.327         	0.675
MS.236         	16.295         	0.554
MS.237         	16.262         	0.393
MS.238         	16.23          	0.671
MS.239         	16.198         	0.467
MS.240         	16.165         	0.477
MS.241         	16.132         	0.489
MS.242         	16.1           	0.443
MS.243         	16.067         	0.522
MS.244         	16.038         	0.365
MS.245         	16.005         	0.566
MS.246         	15.972         	0.431
MS.247         	15.94          	0.415
MS.248         	15.91          	0.485
MS.249         	15.877         	0.334
MS.250         	15.845         	0.461
MS.251         	15.812         	0.342
MS.252         	15.782         	0.363
MS.253         	15.75          	0.334
MS.254         	15.72          	0.421
MS.255         	15.688         	0.365
MS.256         	15.657         	0.284
MS.257         	15.625         	0.284
MS.258         	15.595         	0.318
MS.259         	15.562         	0.294
MS.260         	15.532         	0.278
MS.261         	15.5           	0.278
MS.262         	15.47          	0.268
MS.263         	15.438         	0.268
MS.264         	15.407         	0.27
MS.265         	15.377         	0.26
MS.266         	15.347         	0.278
MS.267         	15.315         	0.238
MS.268         	15.285         	0.27
MS.269         	15.255         	0.272
MS.270         	15.225         	0.24
MS.271         	15.193         	0.274
MS.272         	15.162         	0.242
MS.273         	15.132         	0.236
MS.274         	15.102         	0.244
MS.275         	15.072         	0.268
MS.276         	15.042         	0.292
MS.277         	15.012         	0.238
MS.278         	14.983         	0.23
MS.279         	14.952         	0.278
MS.280         	14.922         	0.258
MS.281         	14.892         	0.244
MS.282         	14.862         	0.236
MS.283         	14.832         	0.25
MS.284         	14.802         	0.23
MS.285         	14.775         	0.244
MS.286         	14.745         	0.25
MS.287         	14.715         	0.246
MS.288         	14.685         	0.246
MS.289         	14.657         	0.153
MS.290         	14.627         	0.244
MS.291         	14.597         	0.242
MS.292         	14.568         	0.25
MS.293         	14.54          	0.25
MS.294         	14.51          	0.252
MS.295         	14.483         	0.165
MS.296         	14.452         	0.163
MS.297         	14.422         	0.25
MS.298         	14.395         	0.252
MS.299         	14.365         	0.242
MS.300         	14.337         	0.228
MS.301         	14.31          	0.163
MS.302         	14.28          	0.244
MS.303         	14.252         	0.246
MS.304         	14.222         	0.153
MS.305         	14.195         	0.185
MS.306         	14.167         	0.159
MS.307         	14.137         	0.173
MS.308         	14.11          	0.25
MS.309         	14.082         	0.169
MS.310         	14.052         	0.171
MS.311         	14.025         	0.159
MS.312         	13.997         	0.232
MS.313         	13.97          	0.177
MS.314         	13.943         	0.163
MS.315         	13.912         	0.165
MS.316         	13.885         	0.173
MS.317         	13.858         	0.171
MS.318         	13.83          	0.167
MS.319         	13.802         	0.179
MS.320         	13.775         	0.175
MS.321         	13.747         	0.173
MS.322         	13.72          	0.163
MS.323         	13.693         	0.163
MS.324         	13.665         	0.163
MS.325         	13.637         	0.175
MS.326         	13.61          	0.171
MS.327         	13.582         	0.169
MS.328         	13.557         	0.175
MS.329         	13.53          	0.171
MS.330         	13.502         	0.163
MS.331         	13.475         	0.175
MS.332         	13.447         	0.161
MS.333         	13.422         	0.175
MS.334         	13.395         	0.171
MS.335         	13.367         	0.159
MS.336         	13.342         	0.159
MS.337         	13.315         	0.119
MS.338         	13.287         	0.173
MS.339         	13.262         	0.135
MS.340         	13.235         	0.121
MS.341         	13.207         	0.121
MS.342         	13.182         	0.113
MS.343         	13.155         	0.119
MS.344         	13.13          	0.167
MS.345         	13.102         	0.131
MS.346         	13.077         	0.121
MS.347         	13.05          	0.119
MS.348         	13.025         	0.151
MS.349         	13             	0.125
MS.350         	12.972         	0.115
MS.351         	12.947         	0.115
MS.352         	12.92          	0.167
MS.353         	12.895         	0.119
MS.354         	12.87          	0.109
MS.355         	12.845         	0.113
MS.356         	12.818         	0.129
MS.357         	12.792         	0.169
MS.358         	12.767         	0.109
MS.359         	12.742         	0.105
MS.360         	12.715         	0.131
MS.361         	12.69          	0.121
MS.362         	12.665         	0.133
MS.363         	12.64          	0.123
MS.364         	12.615         	0.109
MS.365         	12.59          	0.109
MS.366         	12.565         	0.129
MS.367         	12.54          	0.099
MS.368         	12.515         	0.115
MS.369         	12.49          	0.117
MS.370         	12.465         	0.109
MS.371         	12.44          	0.117
MS.372         	12.415         	0.095
MS.373         	12.39          	0.105
MS.374         	12.365         	0.099
MS.375         	12.34          	0.107
MS.376         	12.315         	0.105
MS.377         	12.29          	0.095
MS.378         	12.267         	0.103
MS.379         	12.242         	0.095
MS.380         	12.217         	0.111
MS.381         	12.193         	0.107
MS.382         	12.17          	0.105
MS.383         	12.145         	0.101
MS.384         	12.12          	0.099
MS.385         	12.095         	0.109
MS.386         	12.072         	0.087
MS.387         	12.047         	0.101
MS.388         	12.023         	0.111
MS.389         	12             	0.097
MS.390         	11.975         	0.103
MS.391         	11.952         	0.099
MS.392         	11.927         	0.113
MS.393         	11.905         	0.103
MS.394         	11.88          	0.111
MS.395         	11.858         	0.111
MS.396         	11.832         	0.113
MS.397         	11.81          	0.099
MS.398         	11.785         	0.107
MS.399         	11.762         	0.109
MS.400         	11.738         	0.097
MS.401         	11.715         	0.101
MS.402         	11.693         	0.105
MS.403         	11.667         	0.091
MS.404         	11.645         	0.099
MS.405         	11.622         	0.107
MS.406         	11.597         	0.103
MS.407         	11.575         	0.095
MS.408         	11.552         	0.103
MS.409         	11.53          	0.107
MS.410         	11.505         	0.103
MS.411         	11.483         	0.097
MS.412         	11.46          	0.105
MS.413         	11.438         	0.101
MS.414         	11.415         	0.105
MS.415         	11.392         	0.103
MS.416         	11.37          	0.105
MS.417         	11.345         	0.097
MS.418         	11.322         	0.109
MS.419         	11.3           	0.101
MS.420         	11.278         	0.095
MS.421         	11.255         	0.093
MS.422         	11.233         	0.105
MS.423         	11.21          	0.099
MS.424         	11.188         	0.091
MS.425         	11.165         	0.085
MS.426         	11.142         	0.101
MS.427         	11.122         	0.111
MS.428         	11.1           	0.103
MS.429         	11.077         	0.111
MS.430         	11.055         	0.101
MS.431         	11.032         	0.095
MS.432         	11.01          	0.077
MS.433         	10.988         	0.089
MS.434         	10.967         	0.087
MS.435         	10.945         	0.079
MS.436         	10.922         	0.081
MS.437         	10.9           	0.095
MS.438         	10.88          	0.091
MS.439         	10.858         	0.109
MS.440         	10.835         	0.107
MS.441         	10.815         	0.093
MS.442         	10.792         	0.085
MS.443         	10.77          	0.081
MS.444         	10.75          	0.089
MS.445         	10.727         	0.085
MS.446         	10.707         	0.04
MS.447         	10.685         	0.077
MS.448         	10.665         	0.085
MS.449         	10.642         	0.046
MS.450         	10.622         	0.036
MS.451         	10.6           	0.04
MS.452         	10.58          	0.089
MS.453         	10.557         	0.034
MS.454         	10.537         	0.083
MS.455         	10.515         	0.079
MS.456         	10.495         	0.081
MS.457         	10.472         	0.083
MS.458         	10.452         	0.04
MS.459         	10.432         	0.083
MS.460         	10.41          	0.036
MS.461         	10.39          	0.034
MS.462         	10.37          	0.038
MS.463         	10.35          	0.04
MS.464         	10.327         	0.03
MS.465         	10.307         	0.077
MS.466         	10.287         	0.034
MS.467         	10.267         	0.036
MS.468         	10.245         	0.038
MS.469         	10.225         	0.036
MS.470         	10.205         	0.042
MS.471         	10.185         	0.038
MS.472         	10.165         	0.04
MS.473         	10.145         	0.032
MS.474         	10.122         	0.038
MS.475         	10.102         	0.032
MS.476         	10.082         	0.036
MS.477         	10.062         	0.038
MS.478         	10.042         	0.034
MS.479         	10.023         	0.04
MS.480         	10.002         	0.036
MS.481         	9.983          	0.04
MS.482         	9.962          	0.03
MS.483         	9.943          	0.032
MS.484         	9.922          	0.042
MS.485         	9.903          	0.042
MS.486         	9.882          	0.04
MS.487         	9.865          	0.036
MS.488         	9.845          	0.036
MS.489         	9.825          	0.034
MS.490         	9.805          	0.044
MS.491         	9.785          	0.04
MS.492         	9.765          	0.036
MS.493         	9.745          	0.036
MS.494         	9.727          	0.042
MS.495         	9.707          	0.034
MS.496         	9.688          	0.04
MS.497         	9.667          	0.038
MS.498         	9.65           	0.048
MS.499         	9.63           	0.048
MS.500         	9.61           	0.038
MS.501         	9.592          	0.038
MS.502         	9.573          	0.038
MS.503         	9.552          	0.038
MS.504         	9.535          	0.04
MS.505         	9.515          	0.044
MS.506         	9.495          	0.034
MS.507         	9.477          	0.034
MS.508         	9.457          	0.036
MS.509         	9.44           	0.032
MS.510         	9.42           	0.038
MS.511         	9.403          	0.04
MS.512         	9.382          	0.044
MS.513         	9.365          	0.032
MS.514         	9.345          	0.012
MS.515         	9.327          	0.032
MS.516         	9.307          	0.036
MS.517         	9.29           	0.036
MS.518         	9.27           	0.04
MS.519         	9.252          	0.034
MS.520         	9.235          	0.01
MS.521         	9.215          	0.038
MS.522         	9.198          	0.038
MS.523         	9.177          	0.036
MS.524         	9.16           	0.01
MS.525         	9.142          	0.012
MS.526         	9.122          	0.032
MS.527         	9.105          	0.008
MS.528         	9.087          	0.034
MS.529         	9.07           	0.012
MS.530         	9.05           	0.04
MS.531         	9.033          	0.038
MS.532         	9.015          	0.014
MS.533         	8.997          	0.01
MS.534         	8.98           	0.012
MS.535         	8.96           	0.006
MS.536         	8.943          	0.014
MS.537         	8.925          	0.01
MS.538         	8.908          	0.04
MS.539         	8.89           	0.008
MS.540         	8.872          	0.014
MS.541         	8.855          	0.036
MS.542         	8.837          	0.012
MS.543         	8.818          	0.01
MS.544         	8.8            	0.008
MS.545         	8.783          	0.016
MS.546         	8.765          	0.01
MS.547         	8.747          	0.014
MS.548         	8.73           	0.01
MS.549         	8.712          	0.012
MS.550         	8.695          	0.012
MS.551         	8.677          	0.012
MS.552         	8.662          	0.008
MS.553         	8.645          	0.016
MS.554         	8.627          	0.008
MS.555         	8.61           	0.006
MS.556         	8.592          	0.016
MS.557         	8.575          	0.012
MS.558         	8.557          	0.012
MS.559         	8.54           	0.012
DERIVED EXCITABILITY VARIABLES
Program = QTracP 3/4/2020
Threshold method = 6 (optimised for CAP, using data for present condition only)
SR method = 1 (using actual data values)
6.                 	0.000               	Peak response\(mV)
9.                 	31.3                	Temperature ( C)
17.                	43                  	Age (years)
18.                	2                   	Sex (M=1, F=2)

EXTRA VARIABLES

MScPeak(mV) = 13.03
MScS5(mA) = 16.38
MScS50(mA) = 19.62
MScS95(mA) = 23.34
MScNSteps = 1
MScSteps(%) = 3.3
MScStepMax(%) = 3.3
MScD50 = 43
MScSlope = 6.06
MSFPeakAmp(mV) = 12.9
MSFNUnits = 148
MSFMeanUnitAmp(uV) = 87.3
MSFHuntTime(m) = 2.6
MSFError(%) = 4.11
MSFNLarge = 50.59
MSFMedianAmp(%) = 0.61
MSFMedianAmp(mV) = 0.0788
MSFHalfAmpAmp(%) = 0.738
MSFHalfAmpAmp(mV) = 0.0954
MSFLargestAmp(%) = 1.48
MSFLargestAmp(mV) = 0.191
MSFMeanRS(%) = 2
MSFOpts = 10106121
MScDuration(min) = 5.1
MSFTraces = 397
MSFSizeLimit(uV) = 32.3
MSFLimitType = 1
MSFSmallestAmp(uV) = 33

EXTRA WAVEFORMS


!MScan Model
!148
	1	13.16	0.26	2
	2	14.04	0.38	2
	3	14.63	0.71	2
	4	15.64	0.39	2
	5	15.78	0.38	2
	6	15.98	0.5	2
	7	16.16	0.62	2
	8	16.31	0.6	2
	9	16.43	0.59	2
	10	16.52	0.58	2
	11	16.64	0.73	2
	12	16.76	0.72	2
	13	16.86	0.61	2
	14	16.96	0.75	2
	15	17.05	0.93	2
	16	17.1	0.44	2
	17	17.15	0.38	2
	18	17.19	0.48	2
	19	17.24	0.53	2
	20	17.26	0.32	2
	21	17.29	0.32	2
	22	17.32	0.39	2
	23	17.34	0.44	2
	24	17.37	0.44	2
	25	17.4	0.42	2
	26	17.42	0.34	2
	27	17.44	0.31	2
	28	17.46	0.28	2
	29	17.48	0.26	2
	30	17.48	1.06	2
	31	17.52	0.37	2
	32	17.54	0.3	2
	33	17.56	0.31	2
	34	17.58	0.32	2
	35	17.61	0.54	2
	36	17.65	0.61	2
	37	17.69	0.5	2
	38	17.72	0.44	2
	39	17.76	0.48	2
	40	17.92	0.94	2
	41	18.01	0.83	2
	42	18.1	1.48	2
	43	18.17	1.12	2
	44	18.24	0.76	2
	45	18.31	1.2	2
	46	18.37	1.09	2
	47	18.43	1.3	2
	48	18.49	1.24	2
	49	18.55	1.23	2
	50	18.61	1.35	2
	51	18.67	1.25	2
	52	18.7	0.53	2
	53	18.72	0.52	2
	54	18.75	0.41	2
	55	18.77	0.48	2
	56	18.8	0.54	2
	57	18.82	0.6	2
	58	18.85	0.61	2
	59	18.88	0.81	2
	60	18.92	1.03	2
	61	18.96	1.03	2
	62	19	0.85	2
	63	19.04	0.79	2
	64	19.09	0.97	2
	65	19.14	0.93	2
	66	19.2	0.83	2
	67	19.25	0.85	2
	68	19.31	0.98	2
	69	19.36	1.32	2
	70	19.42	0.85	2
	71	19.46	0.51	2
	72	19.49	0.44	2
	73	19.52	0.42	2
	74	19.55	0.44	2
	75	19.59	0.56	2
	76	19.62	0.57	2
	77	19.65	0.56	2
	78	19.68	0.54	2
	79	19.71	0.49	2
	80	19.74	0.36	2
	81	19.77	0.47	2
	82	19.81	0.5	2
	83	19.84	0.53	2
	84	19.87	0.57	2
	85	19.91	0.6	2
	86	19.94	0.68	2
	87	19.98	0.5	2
	88	20.01	0.48	2
	89	20.07	0.79	2
	90	20.14	0.83	2
	91	20.2	0.7	2
	92	20.26	0.59	2
	93	20.31	0.54	2
	94	20.36	0.55	2
	95	20.41	0.54	2
	96	20.47	0.57	2
	97	20.52	0.62	2
	98	20.58	0.69	2
	99	20.63	0.62	2
	100	20.68	0.52	2
	101	20.73	0.47	2
	102	20.78	0.59	2
	103	20.84	0.78	2
	104	20.9	0.81	2
	105	20.96	0.79	2
	106	21.03	0.93	2
	107	21.12	1.12	2
	108	21.21	1.05	2
	109	21.32	1.25	2
	110	21.43	1.12	2
	111	21.51	0.92	2
	112	21.6	1.06	2
	113	21.67	0.9	2
	114	21.72	0.66	2
	115	21.77	0.84	2
	116	21.82	0.81	2
	117	21.87	0.74	2
	118	21.92	0.73	2
	119	21.97	0.56	2
	120	22.02	0.54	2
	121	22.08	0.69	2
	122	22.12	0.66	2
	123	22.17	0.64	2
	124	22.22	0.72	2
	125	22.26	0.62	2
	126	22.31	0.67	2
	127	22.4	1.21	2
	128	22.49	1.08	2
	129	22.56	0.74	2
	130	22.63	0.64	2
	131	22.7	0.69	2
	132	22.76	0.72	2
	133	22.85	0.93	2
	134	22.93	0.82	2
	135	23.03	0.82	2
	136	23.13	0.8	2
	137	23.16	0.47	2
	138	23.25	0.85	2
	139	23.49	1.28	2
	140	23.62	0.57	2
	141	23.72	0.44	2
	142	23.78	0.28	2
	143	23.85	0.35	2
	144	23.91	0.39	2
	145	23.96	0.33	2
	146	24.02	0.3	2
	147	24.2	0.34	2
	148	24.36	0.7	2

