File:              	C:\Qtrac\Data\Daniel M Sørensen\MScan multicentre study\Data from centres\Odense\Processed data\PHC00914B.QZD
Name:              	DK.ODE.NC.3.2
Protocol:          	MSCAN-R2
Date:              	14/9/20
Start time:        	09:59:15
Age:               	29
Sex:               	M
Temperature:       	33.9
S/R sites:         	ADM
NC/disease:        	NC
Operator:          	TK
Comments:
M-SCAN DATA (9.4-0.9m)
Scanpts: 136, 148, 872, 893
Stim. (mA)     	Amp. (mV)
MS.1           	17.5           	5.7
MS.2           	17.5           	5.712
MS.3           	17.5           	5.66
MS.4           	17.5           	5.706
MS.5           	17.5           	5.714
MS.6           	17.5           	5.732
MS.7           	17.5           	5.65
MS.8           	17.5           	5.66
MS.9           	17.5           	5.73
MS.10          	17.5           	5.732
MS.11          	17.5           	5.672
MS.12          	17.5           	5.698
MS.13          	17.5           	5.67
MS.14          	17.5           	5.767
MS.15          	17.5           	5.686
MS.16          	17.5           	5.7
MS.17          	17.5           	5.7
MS.18          	17.5           	5.712
MS.19          	17.5           	5.724
MS.20          	17.5           	5.74
MS.21          	17.5           	5.654
MS.22          	17.5           	5.754
MS.23          	17.5           	5.724
MS.24          	17.43          	5.664
MS.25          	17.395         	5.686
MS.26          	17.36          	5.702
MS.27          	17.325         	5.708
MS.28          	17.29          	5.696
MS.29          	17.257         	5.617
MS.30          	17.222         	5.654
MS.31          	17.188         	5.746
MS.32          	17.153         	5.754
MS.33          	17.12          	5.63
MS.34          	17.085         	5.783
MS.35          	17.05          	5.738
MS.36          	17.017         	5.748
MS.37          	16.983         	5.654
MS.38          	16.95          	5.767
MS.39          	16.915         	5.714
MS.40          	16.88          	5.771
MS.41          	16.847         	5.716
MS.42          	16.812         	5.76
MS.43          	16.78          	5.728
MS.44          	16.747         	5.744
MS.45          	16.712         	5.69
MS.46          	16.68          	5.756
MS.47          	16.647         	5.71
MS.48          	16.612         	5.781
MS.49          	16.58          	5.74
MS.50          	16.547         	5.682
MS.51          	16.515         	5.756
MS.52          	16.48          	5.718
MS.53          	16.448         	5.734
MS.54          	16.415         	5.718
MS.55          	16.382         	5.722
MS.56          	16.35          	5.793
MS.57          	16.317         	5.73
MS.58          	16.285         	5.783
MS.59          	16.253         	5.708
MS.60          	16.22          	5.797
MS.61          	16.188         	5.781
MS.62          	16.155         	5.758
MS.63          	16.122         	5.734
MS.64          	16.09          	5.779
MS.65          	16.057         	5.843
MS.66          	16.025         	5.777
MS.67          	15.992         	5.724
MS.68          	15.962         	5.698
MS.69          	15.93          	5.734
MS.70          	15.898         	5.765
MS.71          	15.867         	5.742
MS.72          	15.835         	5.831
MS.73          	15.802         	5.736
MS.74          	15.773         	5.829
MS.75          	15.74          	5.789
MS.76          	15.707         	5.833
MS.77          	15.677         	5.771
MS.78          	15.645         	5.815
MS.79          	15.615         	5.797
MS.80          	15.582         	5.793
MS.81          	15.552         	5.76
MS.82          	15.52          	5.887
MS.83          	15.49          	5.871
MS.84          	15.46          	5.813
MS.85          	15.427         	5.821
MS.86          	15.398         	5.799
MS.87          	15.367         	5.789
MS.88          	15.335         	5.924
MS.89          	15.305         	5.839
MS.90          	15.275         	5.92
MS.91          	15.245         	5.809
MS.92          	15.212         	5.904
MS.93          	15.182         	5.847
MS.94          	15.152         	5.815
MS.95          	15.122         	5.885
MS.96          	15.092         	5.865
MS.97          	15.062         	5.871
MS.98          	15.032         	5.897
MS.99          	15.002         	5.92
MS.100         	14.972         	5.877
MS.101         	14.943         	5.887
MS.102         	14.912         	5.847
MS.103         	14.882         	5.906
MS.104         	14.852         	5.843
MS.105         	14.822         	5.847
MS.106         	14.792         	5.857
MS.107         	14.765         	5.815
MS.108         	14.735         	5.847
MS.109         	14.705         	5.956
MS.110         	14.675         	5.849
MS.111         	14.648         	5.829
MS.112         	14.617         	5.871
MS.113         	14.587         	5.859
MS.114         	14.56          	5.851
MS.115         	14.53          	5.833
MS.116         	14.5           	5.889
MS.117         	14.472         	5.861
MS.118         	14.443         	5.851
MS.119         	14.415         	5.877
MS.120         	14.385         	5.801
MS.121         	14.358         	5.863
MS.122         	14.327         	5.865
MS.123         	14.3           	5.875
MS.124         	14.27          	5.912
MS.125         	14.242         	5.873
MS.126         	14.212         	5.936
MS.127         	14.185         	5.924
MS.128         	14.157         	5.956
MS.129         	14.127         	5.879
MS.130         	14.1           	5.833
MS.131         	14.072         	5.946
MS.132         	14.045         	5.871
MS.133         	14.015         	5.908
MS.134         	13.987         	5.91
MS.135         	13.96          	5.97
MS.136         	13.932         	5.897
MS.137         	13.905         	5.912
MS.138         	13.877         	5.897
MS.139         	13.85          	5.885
MS.140         	13.82          	5.887
MS.141         	13.792         	5.893
MS.142         	13.765         	5.877
MS.143         	13.737         	5.92
MS.144         	13.71          	5.835
MS.145         	13.682         	5.813
MS.146         	13.655         	5.91
MS.147         	13.63          	5.821
MS.148         	13.602         	5.887
MS.149         	13.575         	5.918
MS.150         	13.547         	5.893
MS.151         	13.52          	5.916
MS.152         	13.492         	5.879
MS.153         	13.467         	5.891
MS.154         	13.44          	5.865
MS.155         	13.412         	5.793
MS.156         	13.385         	5.881
MS.157         	13.36          	5.821
MS.158         	13.332         	5.899
MS.159         	13.305         	5.841
MS.160         	13.28          	5.815
MS.161         	13.252         	5.797
MS.162         	13.225         	5.803
MS.163         	13.2           	5.825
MS.164         	13.172         	5.827
MS.165         	13.148         	5.767
MS.166         	13.12          	5.871
MS.167         	13.095         	5.847
MS.168         	13.068         	5.897
MS.169         	13.042         	5.849
MS.170         	13.015         	5.851
MS.171         	12.99          	5.801
MS.172         	12.965         	5.819
MS.173         	12.938         	5.938
MS.174         	12.912         	5.859
MS.175         	12.887         	5.853
MS.176         	12.86          	5.845
MS.177         	12.835         	5.831
MS.178         	12.81          	5.809
MS.179         	12.785         	5.851
MS.180         	12.757         	5.833
MS.181         	12.733         	5.787
MS.182         	12.707         	5.779
MS.183         	12.682         	5.869
MS.184         	12.657         	5.863
MS.185         	12.632         	5.889
MS.186         	12.608         	5.805
MS.187         	12.58          	5.754
MS.188         	12.555         	5.922
MS.189         	12.53          	5.827
MS.190         	12.505         	5.736
MS.191         	12.48          	5.825
MS.192         	12.455         	5.869
MS.193         	12.43          	5.73
MS.194         	12.405         	5.758
MS.195         	12.382         	5.873
MS.196         	12.358         	5.72
MS.197         	12.332         	5.827
MS.198         	12.307         	5.714
MS.199         	12.282         	5.783
MS.200         	12.257         	5.706
MS.201         	12.233         	5.75
MS.202         	12.21          	5.785
MS.203         	12.185         	5.839
MS.204         	12.16          	5.775
MS.205         	12.135         	5.771
MS.206         	12.113         	5.791
MS.207         	12.087         	5.746
MS.208         	12.062         	5.718
MS.209         	12.04          	5.769
MS.210         	12.015         	5.696
MS.211         	11.992         	5.74
MS.212         	11.967         	5.698
MS.213         	11.943         	5.746
MS.214         	11.92          	5.781
MS.215         	11.895         	5.718
MS.216         	11.872         	5.758
MS.217         	11.847         	5.682
MS.218         	11.825         	5.728
MS.219         	11.8           	5.73
MS.220         	11.778         	5.672
MS.221         	11.755         	5.744
MS.222         	11.73          	5.74
MS.223         	11.707         	5.793
MS.224         	11.682         	5.66
MS.225         	11.66          	5.752
MS.226         	11.637         	5.684
MS.227         	11.615         	5.696
MS.228         	11.59          	5.65
MS.229         	11.568         	5.589
MS.230         	11.545         	5.622
MS.231         	11.523         	5.696
MS.232         	11.497         	5.652
MS.233         	11.475         	5.716
MS.234         	11.452         	5.746
MS.235         	11.43          	5.605
MS.236         	11.407         	5.497
MS.237         	11.385         	5.68
MS.238         	11.36          	5.617
MS.239         	11.337         	5.68
MS.240         	11.315         	5.553
MS.241         	11.292         	5.632
MS.242         	11.27          	5.509
MS.243         	11.247         	5.607
MS.244         	11.225         	5.565
MS.245         	11.202         	5.626
MS.246         	11.18          	5.597
MS.247         	11.157         	5.549
MS.248         	11.135         	5.636
MS.249         	11.115         	5.525
MS.250         	11.092         	5.601
MS.251         	11.07          	5.555
MS.252         	11.047         	5.555
MS.253         	11.025         	5.483
MS.254         	11.002         	5.483
MS.255         	10.983         	5.396
MS.256         	10.96          	5.503
MS.257         	10.938         	5.555
MS.258         	10.915         	5.583
MS.259         	10.895         	5.493
MS.260         	10.872         	5.511
MS.261         	10.85          	5.434
MS.262         	10.827         	5.527
MS.263         	10.807         	5.573
MS.264         	10.785         	5.521
MS.265         	10.765         	5.599
MS.266         	10.742         	5.41
MS.267         	10.72          	5.523
MS.268         	10.7           	5.487
MS.269         	10.677         	5.493
MS.270         	10.657         	5.491
MS.271         	10.635         	5.483
MS.272         	10.615         	5.525
MS.273         	10.592         	5.454
MS.274         	10.573         	5.402
MS.275         	10.55          	5.531
MS.276         	10.53          	5.468
MS.277         	10.507         	5.567
MS.278         	10.488         	5.545
MS.279         	10.467         	5.559
MS.280         	10.445         	5.505
MS.281         	10.425         	5.456
MS.282         	10.405         	5.533
MS.283         	10.382         	5.505
MS.284         	10.363         	5.553
MS.285         	10.342         	5.501
MS.286         	10.32          	5.521
MS.287         	10.3           	5.491
MS.288         	10.28          	5.503
MS.289         	10.26          	5.575
MS.290         	10.24          	5.525
MS.291         	10.217         	5.503
MS.292         	10.198         	5.505
MS.293         	10.177         	5.537
MS.294         	10.157         	5.485
MS.295         	10.137         	5.551
MS.296         	10.117         	5.424
MS.297         	10.097         	5.587
MS.298         	10.077         	5.579
MS.299         	10.057         	5.539
MS.300         	10.035         	5.521
MS.301         	10.015         	5.477
MS.302         	9.995          	5.507
MS.303         	9.975          	5.523
MS.304         	9.955          	5.499
MS.305         	9.938          	5.545
MS.306         	9.917          	5.491
MS.307         	9.898          	5.477
MS.308         	9.877          	5.495
MS.309         	9.858          	5.557
MS.310         	9.837          	5.599
MS.311         	9.818          	5.531
MS.312         	9.797          	5.438
MS.313         	9.778          	5.474
MS.314         	9.76           	5.446
MS.315         	9.74           	5.499
MS.316         	9.72           	5.545
MS.317         	9.7            	5.464
MS.318         	9.682          	5.428
MS.319         	9.662          	5.489
MS.320         	9.642          	5.39
MS.321         	9.622          	5.493
MS.322         	9.605          	5.384
MS.323         	9.585          	5.477
MS.324         	9.565          	5.551
MS.325         	9.547          	5.402
MS.326         	9.528          	5.454
MS.327         	9.507          	5.432
MS.328         	9.49           	5.396
MS.329         	9.47           	5.454
MS.330         	9.452          	5.39
MS.331         	9.432          	5.472
MS.332         	9.415          	5.477
MS.333         	9.395          	5.458
MS.334         	9.377          	5.432
MS.335         	9.358          	5.38
MS.336         	9.34           	5.41
MS.337         	9.32           	5.422
MS.338         	9.302          	5.444
MS.339         	9.283          	5.406
MS.340         	9.265          	5.42
MS.341         	9.245          	5.354
MS.342         	9.227          	5.366
MS.343         	9.21           	5.398
MS.344         	9.19           	5.317
MS.345         	9.172          	5.344
MS.346         	9.155          	5.479
MS.347         	9.135          	5.466
MS.348         	9.117          	5.376
MS.349         	9.1            	5.398
MS.350         	9.08           	5.487
MS.351         	9.062          	5.382
MS.352         	9.045          	5.406
MS.353         	9.028          	5.402
MS.354         	9.01           	5.366
MS.355         	8.99           	5.426
MS.356         	8.972          	5.404
MS.357         	8.955          	5.307
MS.358         	8.938          	5.456
MS.359         	8.92           	5.331
MS.360         	8.903          	5.291
MS.361         	8.882          	5.329
MS.362         	8.865          	5.233
MS.363         	8.847          	5.392
MS.364         	8.83           	5.396
MS.365         	8.812          	5.354
MS.366         	8.795          	5.348
MS.367         	8.778          	5.265
MS.368         	8.76           	5.342
MS.369         	8.742          	5.309
MS.370         	8.725          	5.327
MS.371         	8.707          	5.209
MS.372         	8.69           	5.329
MS.373         	8.672          	5.146
MS.374         	8.655          	5.297
MS.375         	8.637          	5.317
MS.376         	8.62           	5.289
MS.377         	8.602          	5.035
MS.378         	8.587          	5.029
MS.379         	8.57           	5.156
MS.380         	8.552          	4.935
MS.381         	8.535          	5.176
MS.382         	8.517          	5.064
MS.383         	8.5            	4.961
MS.384         	8.485          	4.898
MS.385         	8.467          	4.933
MS.386         	8.45           	4.876
MS.387         	8.432          	5.035
MS.388         	8.417          	4.866
MS.389         	8.4            	4.896
MS.390         	8.382          	4.923
MS.391         	8.365          	5.041
MS.392         	8.35           	4.778
MS.393         	8.332          	4.84
MS.394         	8.315          	4.838
MS.395         	8.3            	4.737
MS.396         	8.283          	4.753
MS.397         	8.267          	4.77
MS.398         	8.25           	4.796
MS.399         	8.233          	4.774
MS.400         	8.217          	4.645
MS.401         	8.2            	4.629
MS.402         	8.185          	4.761
MS.403         	8.167          	4.667
MS.404         	8.153          	4.629
MS.405         	8.135          	4.592
MS.406         	8.12           	4.669
MS.407         	8.102          	4.443
MS.408         	8.087          	4.361
MS.409         	8.07           	4.423
MS.410         	8.055          	4.51
MS.411         	8.037          	4.411
MS.412         	8.023          	4.407
MS.413         	8.005          	4.27
MS.414         	7.99           	4.073
MS.415         	7.975          	4.157
MS.416         	7.957          	4.56
MS.417         	7.942          	4.048
MS.418         	7.927          	4.473
MS.419         	7.91           	4.073
MS.420         	7.895          	4.399
MS.421         	7.88           	3.982
MS.422         	7.862          	4.085
MS.423         	7.847          	3.909
MS.424         	7.832          	4.187
MS.425         	7.815          	3.911
MS.426         	7.8            	4.097
MS.427         	7.785          	3.807
MS.428         	7.77           	4.169
MS.429         	7.755          	3.523
MS.430         	7.737          	3.686
MS.431         	7.722          	3.597
MS.432         	7.707          	3.768
MS.433         	7.692          	3.507
MS.434         	7.677          	3.358
MS.435         	7.662          	3.279
MS.436         	7.645          	3.335
MS.437         	7.63           	3.327
MS.438         	7.615          	3.412
MS.439         	7.6            	3.422
MS.440         	7.585          	3.535
MS.441         	7.57           	3.142
MS.442         	7.555          	3.335
MS.443         	7.54           	3.122
MS.444         	7.525          	3.198
MS.445         	7.51           	3.366
MS.446         	7.495          	3.364
MS.447         	7.48           	3.184
MS.448         	7.465          	3.148
MS.449         	7.45           	3.102
MS.450         	7.435          	3.352
MS.451         	7.42           	3.116
MS.452         	7.405          	3.015
MS.453         	7.39           	2.979
MS.454         	7.375          	2.921
MS.455         	7.36           	2.85
MS.456         	7.347          	3.241
MS.457         	7.332          	2.886
MS.458         	7.317          	3.045
MS.459         	7.302          	2.977
MS.460         	7.287          	2.804
MS.461         	7.273          	2.818
MS.462         	7.257          	2.731
MS.463         	7.245          	2.977
MS.464         	7.23           	2.701
MS.465         	7.215          	2.802
MS.466         	7.2            	2.812
MS.467         	7.188          	2.725
MS.468         	7.172          	2.838
MS.469         	7.157          	2.761
MS.470         	7.142          	2.802
MS.471         	7.13           	2.681
MS.472         	7.115          	2.731
MS.473         	7.1            	2.719
MS.474         	7.087          	2.737
MS.475         	7.072          	2.618
MS.476         	7.057          	2.663
MS.477         	7.045          	2.657
MS.478         	7.03           	2.647
MS.479         	7.015          	2.62
MS.480         	7.003          	2.673
MS.481         	6.987          	2.59
MS.482         	6.975          	2.506
MS.483         	6.96           	2.542
MS.484         	6.945          	2.614
MS.485         	6.932          	2.6
MS.486         	6.918          	2.534
MS.487         	6.905          	2.485
MS.488         	6.89           	2.534
MS.489         	6.878          	2.473
MS.490         	6.862          	2.498
MS.491         	6.85           	2.419
MS.492         	6.835          	2.427
MS.493         	6.822          	2.56
MS.494         	6.807          	2.371
MS.495         	6.795          	2.506
MS.496         	6.782          	2.437
MS.497         	6.767          	2.463
MS.498         	6.755          	2.26
MS.499         	6.74           	2.322
MS.500         	6.727          	2.264
MS.501         	6.715          	2.336
MS.502         	6.7            	2.284
MS.503         	6.688          	2.26
MS.504         	6.675          	2.083
MS.505         	6.66           	2.296
MS.506         	6.648          	1.936
MS.507         	6.635          	2.173
MS.508         	6.62           	2.262
MS.509         	6.608          	2.203
MS.510         	6.595          	2.087
MS.511         	6.58           	2.077
MS.512         	6.567          	2.113
MS.513         	6.555          	1.791
MS.514         	6.543          	1.776
MS.515         	6.527          	1.726
MS.516         	6.515          	1.936
MS.517         	6.503          	1.466
MS.518         	6.49           	1.605
MS.519         	6.477          	1.756
MS.520         	6.462          	1.627
MS.521         	6.45           	1.525
MS.522         	6.438          	1.581
MS.523         	6.425          	1.43
MS.524         	6.412          	1.511
MS.525         	6.4            	1.448
MS.526         	6.387          	1.525
MS.527         	6.375          	1.539
MS.528         	6.36           	1.656
MS.529         	6.347          	1.37
MS.530         	6.335          	1.398
MS.531         	6.322          	1.39
MS.532         	6.31           	1.287
MS.533         	6.297          	1.408
MS.534         	6.285          	1.352
MS.535         	6.273          	1.337
MS.536         	6.26           	1.384
MS.537         	6.247          	1.323
MS.538         	6.235          	1.347
MS.539         	6.222          	1.299
MS.540         	6.21           	1.309
MS.541         	6.197          	1.233
MS.542         	6.185          	1.376
MS.543         	6.172          	1.38
MS.544         	6.16           	1.279
MS.545         	6.148          	1.247
MS.546         	6.135          	1.223
MS.547         	6.125          	1.053
MS.548         	6.112          	1.301
MS.549         	6.1            	1.237
MS.550         	6.088          	1.186
MS.551         	6.075          	1.231
MS.552         	6.062          	0.949
MS.553         	6.05           	1.273
MS.554         	6.037          	1.074
MS.555         	6.027          	1.186
MS.556         	6.015          	1.114
MS.557         	6.003          	1.116
MS.558         	5.99           	1.172
MS.559         	5.977          	1.094
MS.560         	5.967          	1.148
MS.561         	5.955          	0.991
MS.562         	5.942          	1.124
MS.563         	5.93           	0.755
MS.564         	5.92           	0.848
MS.565         	5.907          	0.806
MS.566         	5.895          	1.112
MS.567         	5.885          	0.945
MS.568         	5.872          	1.021
MS.569         	5.86           	0.753
MS.570         	5.847          	0.743
MS.571         	5.838          	0.729
MS.572         	5.825          	0.848
MS.573         	5.812          	0.713
MS.574         	5.802          	0.737
MS.575         	5.79           	0.741
MS.576         	5.78           	0.691
MS.577         	5.767          	0.729
MS.578         	5.755          	0.713
MS.579         	5.745          	0.737
MS.580         	5.733          	0.749
MS.581         	5.722          	0.721
MS.582         	5.71           	0.663
MS.583         	5.697          	0.689
MS.584         	5.688          	0.546
MS.585         	5.675          	0.687
MS.586         	5.665          	0.588
MS.587         	5.652          	0.673
MS.588         	5.642          	0.564
MS.589         	5.63           	0.614
MS.590         	5.62           	0.653
MS.591         	5.608          	0.669
MS.592         	5.597          	0.56
MS.593         	5.585          	0.522
MS.594         	5.575          	0.534
MS.595         	5.562          	0.544
MS.596         	5.552          	0.586
MS.597         	5.54           	0.445
MS.598         	5.53           	0.566
MS.599         	5.52           	0.562
MS.600         	5.507          	0.465
MS.601         	5.497          	0.5
MS.602         	5.485          	0.451
MS.603         	5.475          	0.433
MS.604         	5.465          	0.431
MS.605         	5.452          	0.385
MS.606         	5.443          	0.354
MS.607         	5.432          	0.391
MS.608         	5.42           	0.342
MS.609         	5.41           	0.375
MS.610         	5.4            	0.441
MS.611         	5.387          	0.417
MS.612         	5.378          	0.35
MS.613         	5.367          	0.34
MS.614         	5.355          	0.433
MS.615         	5.345          	0.361
MS.616         	5.335          	0.407
MS.617         	5.325          	0.415
MS.618         	5.312          	0.248
MS.619         	5.302          	0.328
MS.620         	5.293          	0.32
MS.621         	5.282          	0.328
MS.622         	5.27           	0.31
MS.623         	5.26           	0.336
MS.624         	5.25           	0.226
MS.625         	5.24           	0.32
MS.626         	5.23           	0.381
MS.627         	5.217          	0.324
MS.628         	5.207          	0.244
MS.629         	5.197          	0.3
MS.630         	5.188          	0.294
MS.631         	5.177          	0.288
MS.632         	5.168          	0.26
MS.633         	5.155          	0.262
MS.634         	5.145          	0.258
MS.635         	5.135          	0.298
MS.636         	5.125          	0.302
MS.637         	5.115          	0.308
MS.638         	5.105          	0.27
MS.639         	5.095          	0.32
MS.640         	5.085          	0.232
MS.641         	5.075          	0.328
MS.642         	5.065          	0.286
MS.643         	5.055          	0.29
MS.644         	5.045          	0.361
MS.645         	5.035          	0.276
MS.646         	5.025          	0.336
MS.647         	5.015          	0.205
MS.648         	5.005          	0.27
MS.649         	4.995          	0.214
MS.650         	4.985          	0.328
MS.651         	4.975          	0.266
MS.652         	4.965          	0.244
MS.653         	4.955          	0.264
MS.654         	4.945          	0.254
MS.655         	4.935          	0.278
MS.656         	4.925          	0.254
MS.657         	4.915          	0.26
MS.658         	4.905          	0.252
MS.659         	4.895          	0.262
MS.660         	4.885          	0.25
MS.661         	4.875          	0.256
MS.662         	4.865          	0.288
MS.663         	4.855          	0.296
MS.664         	4.845          	0.256
MS.665         	4.838          	0.25
MS.666         	4.827          	0.234
MS.667         	4.818          	0.224
MS.668         	4.807          	0.266
MS.669         	4.797          	0.197
MS.670         	4.787          	0.266
MS.671         	4.78           	0.177
MS.672         	4.77           	0.294
MS.673         	4.76           	0.256
MS.674         	4.75           	0.24
MS.675         	4.74           	0.258
MS.676         	4.733          	0.242
MS.677         	4.722          	0.189
MS.678         	4.713          	0.22
MS.679         	4.702          	0.254
MS.680         	4.693          	0.256
MS.681         	4.685          	0.294
MS.682         	4.675          	0.258
MS.683         	4.665          	0.266
MS.684         	4.655          	0.3
MS.685         	4.648          	0.276
MS.686         	4.637          	0.28
MS.687         	4.628          	0.284
MS.688         	4.62           	0.262
MS.689         	4.61           	0.294
MS.690         	4.6            	0.23
MS.691         	4.592          	0.318
MS.692         	4.582          	0.238
MS.693         	4.572          	0.24
MS.694         	4.565          	0.292
MS.695         	4.555          	0.224
MS.696         	4.545          	0.318
MS.697         	4.537          	0.296
MS.698         	4.527          	0.32
MS.699         	4.517          	0.288
MS.700         	4.51           	0.211
MS.701         	4.5            	0.238
MS.702         	4.492          	0.238
MS.703         	4.483          	0.248
MS.704         	4.472          	0.272
MS.705         	4.465          	0.308
MS.706         	4.455          	0.258
MS.707         	4.447          	0.264
MS.708         	4.438          	0.248
MS.709         	4.43           	0.284
MS.710         	4.42           	0.288
MS.711         	4.412          	0.256
MS.712         	4.402          	0.256
MS.713         	4.395          	0.336
MS.714         	4.385          	0.244
MS.715         	4.378          	0.232
MS.716         	4.367          	0.254
MS.717         	4.36           	0.254
MS.718         	4.35           	0.332
MS.719         	4.342          	0.268
MS.720         	4.332          	0.302
MS.721         	4.325          	0.336
MS.722         	4.315          	0.302
MS.723         	4.307          	0.248
MS.724         	4.298          	0.23
MS.725         	4.29           	0.306
MS.726         	4.28           	0.294
MS.727         	4.273          	0.32
MS.728         	4.265          	0.248
MS.729         	4.255          	0.284
MS.730         	4.247          	0.28
MS.731         	4.237          	0.185
MS.732         	4.23           	0.264
MS.733         	4.222          	0.244
MS.734         	4.213          	0.256
MS.735         	4.205          	0.26
MS.736         	4.197          	0.29
MS.737         	4.188          	0.264
MS.738         	4.18           	0.274
MS.739         	4.17           	0.228
MS.740         	4.162          	0.222
MS.741         	4.155          	0.246
MS.742         	4.145          	0.26
MS.743         	4.137          	0.31
MS.744         	4.13           	0.246
MS.745         	4.122          	0.282
MS.746         	4.112          	0.246
MS.747         	4.105          	0.286
MS.748         	4.097          	0.288
MS.749         	4.088          	0.298
MS.750         	4.08           	0.264
MS.751         	4.072          	0.222
MS.752         	4.065          	0.246
MS.753         	4.055          	0.256
MS.754         	4.048          	0.258
MS.755         	4.04           	0.302
MS.756         	4.032          	0.254
MS.757         	4.023          	0.26
MS.758         	4.015          	0.284
MS.759         	4.007          	0.268
MS.760         	4              	0.27
MS.761         	3.992          	0.246
MS.762         	3.982          	0.248
MS.763         	3.975          	0.23
MS.764         	3.967          	0.308
MS.765         	3.96           	0.23
MS.766         	3.952          	0.264
MS.767         	3.945          	0.23
MS.768         	3.935          	0.302
MS.769         	3.928          	0.262
MS.770         	3.92           	0.244
MS.771         	3.912          	0.28
MS.772         	3.905          	0.29
MS.773         	3.897          	0.28
MS.774         	3.89           	0.228
MS.775         	3.882          	0.298
MS.776         	3.872          	0.316
MS.777         	3.865          	0.26
MS.778         	3.857          	0.298
MS.779         	3.85           	0.32
MS.780         	3.842          	0.278
MS.781         	3.835          	0.274
MS.782         	3.827          	0.246
MS.783         	3.82           	0.278
MS.784         	3.812          	0.242
MS.785         	3.805          	0.304
MS.786         	3.797          	0.282
MS.787         	3.79           	0.302
MS.788         	3.783          	0.28
MS.789         	3.775          	0.288
MS.790         	3.767          	0.314
MS.791         	3.76           	0.268
MS.792         	3.752          	0.254
MS.793         	3.745          	0.26
MS.794         	3.737          	0.24
MS.795         	3.73           	0.262
MS.796         	3.722          	0.252
MS.797         	3.715          	0.262
MS.798         	3.707          	0.264
MS.799         	3.7            	0.296
MS.800         	3.692          	0.244
MS.801         	3.685          	0.308
MS.802         	3.678          	0.248
MS.803         	3.67           	0.25
MS.804         	3.662          	0.326
MS.805         	3.655          	0.272
MS.806         	3.647          	0.258
MS.807         	3.64           	0.272
MS.808         	3.632          	0.276
MS.809         	3.625          	0.25
MS.810         	3.62           	0.282
MS.811         	3.612          	0.272
MS.812         	3.605          	0.258
MS.813         	3.597          	0.318
MS.814         	3.59           	0.282
MS.815         	3.582          	0.254
MS.816         	3.575          	0.276
MS.817         	3.567          	0.33
MS.818         	3.562          	0.288
MS.819         	3.555          	0.262
MS.820         	3.547          	0.254
MS.821         	3.54           	0.276
MS.822         	3.533          	0.286
MS.823         	3.525          	0.272
MS.824         	3.52           	0.294
MS.825         	3.512          	0.244
MS.826         	3.505          	0.274
MS.827         	3.497          	0.278
MS.828         	3.49           	0.236
MS.829         	3.485          	0.268
MS.830         	3.477          	0.266
MS.831         	3.47           	0.322
MS.832         	3.462          	0.278
MS.833         	3.457          	0.266
MS.834         	3.45           	0.268
MS.835         	3.442          	0.272
MS.836         	3.435          	0.242
MS.837         	3.43           	0.266
MS.838         	3.422          	0.26
MS.839         	3.415          	0.316
MS.840         	3.408          	0.23
MS.841         	3.402          	0.246
MS.842         	3.395          	0.248
MS.843         	3.387          	0.302
MS.844         	3.38           	0.25
MS.845         	3.375          	0.276
MS.846         	3.367          	0.222
MS.847         	3.36           	0.24
MS.848         	3.355          	0.216
MS.849         	3.347          	0.28
MS.850         	3.34           	0.296
MS.851         	3.335          	0.296
MS.852         	3.327          	0.28
MS.853         	3.32           	0.258
MS.854         	3.315          	0.24
MS.855         	3.307          	0.256
MS.856         	3.3            	0.207
MS.857         	3.295          	0.234
MS.858         	3.287          	0.22
MS.859         	3.28           	0.296
MS.860         	3.275          	0.272
MS.861         	3.267          	0.24
MS.862         	3.262          	0.284
MS.863         	3.255          	0.276
MS.864         	3.247          	0.274
MS.865         	3.242          	0.268
MS.866         	3.235          	0.28
MS.867         	3.23           	0.304
MS.868         	3.222          	0.336
MS.869         	3.215          	0.254
MS.870         	3.21           	0.262
MS.871         	3.202          	0.24
MS.872         	3.197          	0.282
MS.873         	3.19           	0.276
MS.874         	3.185          	0.266
MS.875         	3.178          	0.282
MS.876         	3.172          	0.302
MS.877         	3.165          	0.232
MS.878         	3.16           	0.248
MS.879         	3.152          	0.264
MS.880         	3.145          	0.298
MS.881         	3.14           	0.268
MS.882         	3.132          	0.248
MS.883         	3.127          	0.286
MS.884         	3.12           	0.266
MS.885         	3.115          	0.252
MS.886         	3.107          	0.32
MS.887         	3.102          	0.3
MS.888         	3.097          	0.312
MS.889         	3.09           	0.218
MS.890         	3.085          	0.286
MS.891         	3.077          	0.282
MS.892         	3.072          	0.264
MS.893         	3.065          	0.294
DERIVED EXCITABILITY VARIABLES
Program = QTracP 9/10/2021
Threshold method = 6 (optimised for CAP, using data for present condition only)
SR method = 1 (using actual data values)
6.                 	0.000               	Peak response\(mV)
9.                 	33.9                	Temperature ( C)
17.                	29                  	Age (years)
18.                	1                   	Sex (M=1, F=2)

EXTRA VARIABLES

MScPeak(mV) = 5.43
MScS5(mA) = 4.04
MScS50(mA) = 7.16
MScS95(mA) = 8.6
MScNSteps = 0
MScSteps(%) = 0.0
MScStepMax(%) = 0.0
MScD50 = 52
MScSlope = 4.5
MScDuration(min) = 8.5
MSFTraces = 758
MSFPeakAmp(mV) = 5.6
MSFNUnits = 69
MSFMeanUnitAmp(uV) = 81.2
MSFHuntTime(m) = 3.41
MSFError(%) = 2.95
MSFNLarge = 19.84
MSFMedianAmp(%) = 1.23
MSFMedianAmp(mV) = 0.0691
MSFHalfAmpAmp(%) = 1.9
MSFHalfAmpAmp(mV) = 0.107
MSFLargestAmp(%) = 4.87
MSFLargestAmp(mV) = 0.273
MSFMeanRS(%) = 2
MSFSizeLimit(uV) = 16.2
MSFLimitType = 3
MSFSmallestAmp(uV) = 17.5
MSFOpts = 10106121

EXTRA WAVEFORMS


!MScan Model
!69
	1	5.28	1.05	2
	2	5.41	1.23	2
	3	5.44	0.31	2
	4	5.47	0.51	2
	5	5.51	0.63	2
	6	5.54	0.69	2
	7	5.57	0.72	2
	8	5.63	0.9	2
	9	5.69	0.94	2
	10	5.77	1.41	2
	11	5.83	0.69	2
	12	5.89	2.26	2
	13	5.96	1.99	2
	14	5.96	2.43	2
	15	6.1	2.5	2
	16	6.3	1.78	2
	17	6.37	1.16	2
	18	6.43	1.7	2
	19	6.47	1.92	2
	20	6.52	0.53	2
	21	6.52	0.36	2
	22	6.55	1.6	2
	23	6.58	2.25	2
	24	6.62	1.66	2
	25	6.62	1.2	2
	26	6.68	4.87	2
	27	6.73	0.72	2
	28	6.86	1.5	2
	29	6.89	0.59	2
	30	6.93	0.61	2
	31	6.95	0.46	2
	32	6.98	0.41	2
	33	7	0.42	2
	34	7.03	0.48	2
	35	7.06	0.53	2
	36	7.13	1.06	2
	37	7.21	1.78	2
	38	7.3	1.57	2
	39	7.37	1.95	2
	40	7.48	2.83	2
	41	7.56	2.34	2
	42	7.62	1.42	2
	43	7.66	1.9	2
	44	7.69	1.63	2
	45	7.72	1.23	2
	46	7.76	2.18	2
	47	7.8	2.56	2
	48	7.9	4.19	2
	49	8	3.38	2
	50	8.06	2.04	2
	51	8.08	0.74	2
	52	8.1	0.41	2
	53	8.13	0.77	2
	54	8.16	0.96	2
	55	8.18	0.85	2
	56	8.21	0.78	2
	57	8.26	1.27	2
	58	8.31	1.02	2
	59	8.37	1.16	2
	60	8.45	1.48	2
	61	8.51	1.04	2
	62	8.55	1.16	2
	63	8.61	1.14	2
	64	8.69	2.35	2
	65	8.96	1.86	2
	66	9.65	1.59	2
	67	11.18	1.97	2
	68	11.66	2.34	2
	69	12.57	2.06	2

