File:              	C:\Qtrac\Data\CKMC01021B.QZD
Name:              	DK.COP.NC.3.1
Protocol:          	MSCAN-R2
Date:              	21/10/20
Start time:        	09:06:59
Age:               	56
Sex:               	M
Temperature:       	38.4
S/R sites:         	RUlnar Wr-ADQ
NC/disease:        	NC
Operator:          	CK
Comments:          	CG
M-SCAN DATA (7.7-1.7m)
Scanpts: 1, 24, 621, 640
Stim. (mA)     	Amp. (mV)
MS.1           	25             	10.194
MS.2           	25             	10.208
MS.3           	25             	10.236
MS.4           	25             	10.199
MS.5           	25             	10.219
MS.6           	25             	10.277
MS.7           	25             	10.236
MS.8           	25             	10.274
MS.9           	25             	10.268
MS.10          	25             	10.242
MS.11          	25             	10.228
MS.12          	25             	10.246
MS.13          	25             	10.252
MS.14          	25             	10.303
MS.15          	25             	10.257
MS.16          	25             	10.295
MS.17          	25             	10.262
MS.18          	25             	10.271
MS.19          	25             	10.303
MS.20          	25             	10.275
MS.21          	25             	10.277
MS.22          	25             	10.246
MS.23          	25             	10.231
MS.24          	24.9           	10.255
MS.25          	24.85          	10.216
MS.26          	24.8           	10.245
MS.27          	24.75          	10.236
MS.28          	24.7           	10.239
MS.29          	24.65          	10.22
MS.30          	24.605         	10.22
MS.31          	24.555         	10.222
MS.32          	24.505         	10.231
MS.33          	24.455         	10.211
MS.34          	24.405         	10.229
MS.35          	24.36          	10.225
MS.36          	24.31          	10.21
MS.37          	24.26          	10.283
MS.38          	24.215         	10.19
MS.39          	24.165         	10.199
MS.40          	24.115         	10.15
MS.41          	24.07          	10.159
MS.42          	24.02          	10.152
MS.43          	23.97          	10.164
MS.44          	23.925         	10.109
MS.45          	23.875         	10.194
MS.46          	23.83          	10.164
MS.47          	23.78          	10.185
MS.48          	23.735         	10.136
MS.49          	23.685         	10.123
MS.50          	23.64          	10.147
MS.51          	23.59          	10.139
MS.52          	23.545         	10.144
MS.53          	23.495         	10.185
MS.54          	23.45          	10.153
MS.55          	23.405         	10.107
MS.56          	23.355         	10.152
MS.57          	23.31          	10.132
MS.58          	23.265         	10.13
MS.59          	23.215         	10.133
MS.60          	23.17          	10.126
MS.61          	23.125         	10.143
MS.62          	23.08          	10.118
MS.63          	23.03          	10.129
MS.64          	22.985         	10.098
MS.65          	22.94          	10.12
MS.66          	22.895         	10.17
MS.67          	22.85          	10.109
MS.68          	22.805         	10.123
MS.69          	22.755         	10.114
MS.70          	22.71          	10.106
MS.71          	22.665         	10.08
MS.72          	22.62          	10.12
MS.73          	22.575         	10.052
MS.74          	22.53          	10.081
MS.75          	22.485         	10.062
MS.76          	22.44          	10.085
MS.77          	22.395         	10.097
MS.78          	22.35          	10.063
MS.79          	22.305         	10.097
MS.80          	22.26          	10.062
MS.81          	22.215         	10.066
MS.82          	22.175         	10.049
MS.83          	22.13          	10.065
MS.84          	22.085         	10.045
MS.85          	22.04          	10.066
MS.86          	21.995         	10.022
MS.87          	21.95          	10.086
MS.88          	21.91          	10.085
MS.89          	21.865         	10.037
MS.90          	21.82          	10.039
MS.91          	21.775         	10.048
MS.92          	21.735         	10.138
MS.93          	21.69          	10.059
MS.94          	21.645         	10.027
MS.95          	21.605         	10.15
MS.96          	21.56          	10.066
MS.97          	21.52          	10.02
MS.98          	21.475         	10.075
MS.99          	21.43          	9.912
MS.100         	21.39          	9.962
MS.101         	21.345         	9.966
MS.102         	21.305         	10.037
MS.103         	21.26          	10.051
MS.104         	21.22          	10.01
MS.105         	21.175         	9.962
MS.106         	21.135         	9.938
MS.107         	21.09          	10.06
MS.108         	21.05          	9.889
MS.109         	21.005         	9.975
MS.110         	20.965         	9.967
MS.111         	20.925         	10.01
MS.112         	20.88          	9.993
MS.113         	20.84          	9.961
MS.114         	20.8           	9.904
MS.115         	20.755         	9.956
MS.116         	20.715         	9.883
MS.117         	20.675         	10.025
MS.118         	20.635         	9.93
MS.119         	20.59          	9.984
MS.120         	20.55          	9.895
MS.121         	20.51          	9.915
MS.122         	20.47          	9.906
MS.123         	20.425         	9.871
MS.124         	20.385         	9.834
MS.125         	20.345         	9.866
MS.126         	20.305         	9.813
MS.127         	20.265         	9.822
MS.128         	20.225         	9.865
MS.129         	20.185         	9.761
MS.130         	20.145         	9.781
MS.131         	20.105         	9.782
MS.132         	20.065         	9.763
MS.133         	20.025         	9.79
MS.134         	19.985         	9.804
MS.135         	19.945         	9.785
MS.136         	19.905         	9.648
MS.137         	19.865         	9.77
MS.138         	19.825         	9.767
MS.139         	19.785         	9.769
MS.140         	19.745         	9.772
MS.141         	19.705         	9.663
MS.142         	19.665         	9.752
MS.143         	19.625         	9.708
MS.144         	19.585         	9.666
MS.145         	19.55          	9.708
MS.146         	19.51          	9.663
MS.147         	19.47          	9.776
MS.148         	19.43          	9.721
MS.149         	19.39          	9.666
MS.150         	19.355         	9.66
MS.151         	19.315         	9.688
MS.152         	19.275         	9.72
MS.153         	19.24          	9.587
MS.154         	19.2           	9.601
MS.155         	19.16          	9.613
MS.156         	19.125         	9.546
MS.157         	19.085         	9.618
MS.158         	19.045         	9.564
MS.159         	19.01          	9.547
MS.160         	18.97          	9.416
MS.161         	18.93          	9.56
MS.162         	18.895         	9.515
MS.163         	18.855         	9.541
MS.164         	18.82          	9.468
MS.165         	18.78          	9.537
MS.166         	18.745         	9.552
MS.167         	18.705         	9.401
MS.168         	18.67          	9.476
MS.169         	18.63          	9.383
MS.170         	18.595         	9.438
MS.171         	18.555         	9.412
MS.172         	18.52          	9.441
MS.173         	18.485         	9.518
MS.174         	18.445         	9.479
MS.175         	18.41          	9.485
MS.176         	18.375         	9.393
MS.177         	18.335         	9.438
MS.178         	18.3           	9.366
MS.179         	18.265         	9.421
MS.180         	18.225         	9.451
MS.181         	18.19          	9.358
MS.182         	18.155         	9.421
MS.183         	18.115         	9.334
MS.184         	18.08          	9.436
MS.185         	18.045         	9.425
MS.186         	18.01          	9.47
MS.187         	17.975         	9.366
MS.188         	17.935         	9.373
MS.189         	17.9           	9.389
MS.190         	17.865         	9.413
MS.191         	17.83          	9.357
MS.192         	17.795         	9.395
MS.193         	17.76          	9.354
MS.194         	17.725         	9.343
MS.195         	17.69          	9.309
MS.196         	17.65          	9.346
MS.197         	17.615         	9.314
MS.198         	17.58          	9.264
MS.199         	17.545         	9.258
MS.200         	17.51          	9.294
MS.201         	17.475         	9.268
MS.202         	17.44          	9.193
MS.203         	17.405         	9.108
MS.204         	17.37          	9.259
MS.205         	17.34          	9.248
MS.206         	17.305         	9.114
MS.207         	17.27          	9.167
MS.208         	17.235         	9.148
MS.209         	17.2           	9.206
MS.210         	17.165         	9.171
MS.211         	17.13          	9.155
MS.212         	17.095         	9.155
MS.213         	17.06          	9.087
MS.214         	17.03          	9.154
MS.215         	16.995         	9.055
MS.216         	16.96          	9.079
MS.217         	16.925         	9.071
MS.218         	16.895         	9.111
MS.219         	16.86          	9.033
MS.220         	16.825         	9.045
MS.221         	16.79          	9.018
MS.222         	16.76          	8.922
MS.223         	16.725         	8.957
MS.224         	16.69          	8.882
MS.225         	16.66          	8.91
MS.226         	16.625         	8.913
MS.227         	16.59          	8.905
MS.228         	16.56          	8.849
MS.229         	16.525         	8.888
MS.230         	16.49          	8.894
MS.231         	16.46          	8.888
MS.232         	16.425         	8.679
MS.233         	16.395         	8.865
MS.234         	16.36          	8.807
MS.235         	16.33          	8.759
MS.236         	16.295         	8.765
MS.237         	16.265         	8.856
MS.238         	16.23          	8.791
MS.239         	16.2           	8.698
MS.240         	16.165         	8.755
MS.241         	16.135         	8.708
MS.242         	16.1           	8.478
MS.243         	16.07          	8.479
MS.244         	16.035         	8.376
MS.245         	16.005         	8.299
MS.246         	15.975         	8.582
MS.247         	15.94          	8.644
MS.248         	15.91          	8.354
MS.249         	15.875         	8.569
MS.250         	15.845         	8.385
MS.251         	15.815         	8.527
MS.252         	15.78          	8.315
MS.253         	15.75          	8.191
MS.254         	15.72          	8.473
MS.255         	15.69          	8.26
MS.256         	15.655         	8.24
MS.257         	15.625         	8.047
MS.258         	15.595         	8.257
MS.259         	15.565         	8.115
MS.260         	15.53          	8.118
MS.261         	15.5           	8.232
MS.262         	15.47          	8.171
MS.263         	15.44          	8.057
MS.264         	15.41          	7.875
MS.265         	15.375         	8.052
MS.266         	15.345         	7.799
MS.267         	15.315         	8.092
MS.268         	15.285         	8.058
MS.269         	15.255         	7.605
MS.270         	15.225         	8.084
MS.271         	15.195         	7.591
MS.272         	15.165         	7.59
MS.273         	15.135         	7.957
MS.274         	15.105         	7.835
MS.275         	15.07          	7.999
MS.276         	15.04          	7.558
MS.277         	15.01          	7.704
MS.278         	14.98          	7.813
MS.279         	14.95          	7.712
MS.280         	14.925         	7.71
MS.281         	14.895         	7.573
MS.282         	14.865         	7.509
MS.283         	14.835         	7.529
MS.284         	14.805         	7.541
MS.285         	14.775         	7.623
MS.286         	14.745         	7.622
MS.287         	14.715         	7.494
MS.288         	14.685         	7.61
MS.289         	14.655         	7.535
MS.290         	14.625         	7.649
MS.291         	14.6           	7.399
MS.292         	14.57          	7.687
MS.293         	14.54          	7.434
MS.294         	14.51          	7.51
MS.295         	14.48          	7.552
MS.296         	14.455         	7.495
MS.297         	14.425         	7.338
MS.298         	14.395         	7.03
MS.299         	14.365         	7.227
MS.300         	14.335         	6.993
MS.301         	14.31          	6.941
MS.302         	14.28          	6.892
MS.303         	14.25          	7.144
MS.304         	14.225         	7.298
MS.305         	14.195         	7.076
MS.306         	14.165         	7.207
MS.307         	14.14          	6.873
MS.308         	14.11          	6.604
MS.309         	14.08          	7.256
MS.310         	14.055         	6.523
MS.311         	14.025         	6.567
MS.312         	13.995         	6.676
MS.313         	13.97          	6.657
MS.314         	13.94          	6.345
MS.315         	13.915         	6.429
MS.316         	13.885         	6.949
MS.317         	13.86          	6.339
MS.318         	13.83          	6.477
MS.319         	13.805         	6.671
MS.320         	13.775         	6.232
MS.321         	13.75          	6.419
MS.322         	13.72          	6.12
MS.323         	13.695         	6.3
MS.324         	13.665         	6.432
MS.325         	13.64          	6.372
MS.326         	13.61          	6.038
MS.327         	13.585         	5.948
MS.328         	13.555         	6.163
MS.329         	13.53          	5.716
MS.330         	13.5           	6.154
MS.331         	13.475         	6.039
MS.332         	13.45          	5.916
MS.333         	13.42          	5.556
MS.334         	13.395         	5.931
MS.335         	13.37          	5.725
MS.336         	13.34          	5.453
MS.337         	13.315         	6.067
MS.338         	13.29          	5.29
MS.339         	13.26          	5.237
MS.340         	13.235         	5.342
MS.341         	13.21          	5.272
MS.342         	13.18          	5.394
MS.343         	13.155         	4.828
MS.344         	13.13          	4.659
MS.345         	13.105         	4.913
MS.346         	13.075         	4.805
MS.347         	13.05          	4.901
MS.348         	13.025         	4.454
MS.349         	13             	4.712
MS.350         	12.975         	5.338
MS.351         	12.945         	4.897
MS.352         	12.92          	4.457
MS.353         	12.895         	4.904
MS.354         	12.87          	4.491
MS.355         	12.845         	4.503
MS.356         	12.82          	4.623
MS.357         	12.795         	4.596
MS.358         	12.765         	3.957
MS.359         	12.74          	4.292
MS.360         	12.715         	4.277
MS.361         	12.69          	3.923
MS.362         	12.665         	3.716
MS.363         	12.64          	3.342
MS.364         	12.615         	3.954
MS.365         	12.59          	3.474
MS.366         	12.565         	3.592
MS.367         	12.54          	3.484
MS.368         	12.515         	3.087
MS.369         	12.49          	3.311
MS.370         	12.465         	3.279
MS.371         	12.44          	2.985
MS.372         	12.415         	3.506
MS.373         	12.39          	2.931
MS.374         	12.365         	2.78
MS.375         	12.34          	3.204
MS.376         	12.315         	2.534
MS.377         	12.29          	2.946
MS.378         	12.265         	2.483
MS.379         	12.24          	2.782
MS.380         	12.22          	2.745
MS.381         	12.195         	2.785
MS.382         	12.17          	2.525
MS.383         	12.145         	2.936
MS.384         	12.12          	2.553
MS.385         	12.095         	2.357
MS.386         	12.07          	2.373
MS.387         	12.05          	2.425
MS.388         	12.025         	2.199
MS.389         	12             	2.243
MS.390         	11.975         	2.301
MS.391         	11.95          	2.008
MS.392         	11.93          	2.007
MS.393         	11.905         	2.026
MS.394         	11.88          	2.095
MS.395         	11.855         	2.06
MS.396         	11.835         	1.997
MS.397         	11.81          	2.042
MS.398         	11.785         	1.982
MS.399         	11.76          	1.929
MS.400         	11.74          	2.01
MS.401         	11.715         	1.797
MS.402         	11.69          	1.903
MS.403         	11.67          	2.028
MS.404         	11.645         	1.926
MS.405         	11.62          	1.872
MS.406         	11.6           	1.941
MS.407         	11.575         	1.859
MS.408         	11.55          	1.643
MS.409         	11.53          	1.552
MS.410         	11.505         	1.669
MS.411         	11.485         	1.83
MS.412         	11.46          	1.63
MS.413         	11.435         	1.355
MS.414         	11.415         	1.86
MS.415         	11.39          	1.465
MS.416         	11.37          	1.697
MS.417         	11.345         	1.683
MS.418         	11.325         	1.604
MS.419         	11.3           	1.654
MS.420         	11.28          	1.408
MS.421         	11.255         	1.636
MS.422         	11.235         	1.402
MS.423         	11.21          	1.338
MS.424         	11.19          	1.335
MS.425         	11.165         	1.363
MS.426         	11.145         	1.492
MS.427         	11.12          	1.247
MS.428         	11.1           	1.404
MS.429         	11.075         	1.445
MS.430         	11.055         	1.486
MS.431         	11.035         	1.161
MS.432         	11.01          	1.123
MS.433         	10.99          	1.138
MS.434         	10.965         	1.411
MS.435         	10.945         	1.057
MS.436         	10.925         	1.157
MS.437         	10.9           	1.204
MS.438         	10.88          	1.024
MS.439         	10.86          	1.065
MS.440         	10.835         	1.027
MS.441         	10.815         	0.938
MS.442         	10.795         	1.062
MS.443         	10.77          	1.083
MS.444         	10.75          	0.946
MS.445         	10.73          	1.036
MS.446         	10.705         	1.01
MS.447         	10.685         	1.199
MS.448         	10.665         	0.868
MS.449         	10.645         	0.833
MS.450         	10.62          	0.768
MS.451         	10.6           	0.813
MS.452         	10.58          	0.764
MS.453         	10.56          	0.679
MS.454         	10.535         	0.827
MS.455         	10.515         	0.578
MS.456         	10.495         	0.792
MS.457         	10.475         	0.604
MS.458         	10.455         	0.72
MS.459         	10.43          	0.728
MS.460         	10.41          	0.603
MS.461         	10.39          	0.598
MS.462         	10.37          	0.607
MS.463         	10.35          	0.589
MS.464         	10.33          	0.525
MS.465         	10.31          	0.586
MS.466         	10.285         	0.522
MS.467         	10.265         	0.525
MS.468         	10.245         	0.484
MS.469         	10.225         	0.504
MS.470         	10.205         	0.478
MS.471         	10.185         	0.499
MS.472         	10.165         	0.363
MS.473         	10.145         	0.423
MS.474         	10.125         	0.427
MS.475         	10.105         	0.351
MS.476         	10.085         	0.467
MS.477         	10.065         	0.325
MS.478         	10.045         	0.447
MS.479         	10.025         	0.311
MS.480         	10.005         	0.25
MS.481         	9.985          	0.371
MS.482         	9.965          	0.439
MS.483         	9.945          	0.294
MS.484         	9.925          	0.235
MS.485         	9.905          	0.385
MS.486         	9.885          	0.255
MS.487         	9.865          	0.259
MS.488         	9.845          	0.243
MS.489         	9.825          	0.186
MS.490         	9.805          	0.232
MS.491         	9.785          	0.197
MS.492         	9.765          	0.13
MS.493         	9.745          	0.194
MS.494         	9.725          	0.18
MS.495         	9.705          	0.209
MS.496         	9.69           	0.195
MS.497         	9.67           	0.153
MS.498         	9.65           	0.122
MS.499         	9.63           	0.151
MS.500         	9.61           	0.174
MS.501         	9.59           	0.127
MS.502         	9.57           	0.18
MS.503         	9.555          	0.125
MS.504         	9.535          	0.139
MS.505         	9.515          	0.139
MS.506         	9.495          	0.208
MS.507         	9.475          	0.145
MS.508         	9.46           	0.117
MS.509         	9.44           	0.134
MS.510         	9.42           	0.137
MS.511         	9.4            	0.121
MS.512         	9.385          	0.107
MS.513         	9.365          	0.124
MS.514         	9.345          	0.079
MS.515         	9.325          	0.122
MS.516         	9.31           	0.111
MS.517         	9.29           	0.122
MS.518         	9.27           	0.119
MS.519         	9.25           	0.079
MS.520         	9.235          	0.095
MS.521         	9.215          	0.099
MS.522         	9.195          	0.121
MS.523         	9.18           	0.104
MS.524         	9.16           	0.117
MS.525         	9.14           	0.108
MS.526         	9.125          	0.101
MS.527         	9.105          	0.105
MS.528         	9.085          	0.101
MS.529         	9.07           	0.073
MS.530         	9.05           	0.064
MS.531         	9.035          	0.087
MS.532         	9.015          	0.052
MS.533         	8.995          	0.09
MS.534         	8.98           	0.066
MS.535         	8.96           	0.078
MS.536         	8.945          	0.058
MS.537         	8.925          	0.064
MS.538         	8.905          	0.061
MS.539         	8.89           	0.099
MS.540         	8.87           	0.058
MS.541         	8.855          	0.085
MS.542         	8.835          	0.067
MS.543         	8.82           	0.049
MS.544         	8.8            	0.082
MS.545         	8.785          	0.049
MS.546         	8.765          	0.049
MS.547         	8.75           	0.06
MS.548         	8.73           	0.09
MS.549         	8.715          	0.102
MS.550         	8.695          	0.061
MS.551         	8.68           	0.046
MS.552         	8.66           	0.058
MS.553         	8.645          	0.063
MS.554         	8.625          	0.056
MS.555         	8.61           	0.053
MS.556         	8.59           	0.047
MS.557         	8.575          	0.044
MS.558         	8.56           	0.053
MS.559         	8.54           	0.07
MS.560         	8.525          	0.07
MS.561         	8.505          	0.044
MS.562         	8.49           	0.041
MS.563         	8.475          	0.047
MS.564         	8.455          	0.061
MS.565         	8.44           	0.047
MS.566         	8.42           	0.058
MS.567         	8.405          	0.05
MS.568         	8.39           	0.037
MS.569         	8.37           	0.066
MS.570         	8.355          	0.063
MS.571         	8.34           	0.046
MS.572         	8.32           	0.063
MS.573         	8.305          	0.06
MS.574         	8.29           	0.056
MS.575         	8.27           	0.049
MS.576         	8.255          	0.052
MS.577         	8.24           	0.049
MS.578         	8.22           	0.06
MS.579         	8.205          	0.05
MS.580         	8.19           	0.041
MS.581         	8.175          	0.044
MS.582         	8.155          	0.049
MS.583         	8.14           	0.047
MS.584         	8.125          	0.05
MS.585         	8.11           	0.046
MS.586         	8.09           	0.052
MS.587         	8.075          	0.031
MS.588         	8.06           	0.05
MS.589         	8.045          	0.044
MS.590         	8.025          	0.063
MS.591         	8.01           	0.046
MS.592         	7.995          	0.047
MS.593         	7.98           	0.052
MS.594         	7.965          	0.05
MS.595         	7.95           	0.053
MS.596         	7.93           	0.041
MS.597         	7.915          	0.041
MS.598         	7.9            	0.047
MS.599         	7.885          	0.053
MS.600         	7.87           	0.05
MS.601         	7.855          	0.056
MS.602         	7.835          	0.061
MS.603         	7.82           	0.047
MS.604         	7.805          	0.06
MS.605         	7.79           	0.063
MS.606         	7.775          	0.05
MS.607         	7.76           	0.044
MS.608         	7.745          	0.043
MS.609         	7.73           	0.05
MS.610         	7.715          	0.043
MS.611         	7.695          	0.04
MS.612         	7.68           	0.053
MS.613         	7.665          	0.056
MS.614         	7.65           	0.04
MS.615         	7.635          	0.052
MS.616         	7.62           	0.032
MS.617         	7.605          	0.049
MS.618         	7.59           	0.047
MS.619         	7.575          	0.041
MS.620         	7.56           	0.04
MS.621         	7.545          	0.053
MS.622         	7.53           	0.05
MS.623         	7.515          	0.058
MS.624         	7.5            	0.049
MS.625         	7.485          	0.046
MS.626         	7.47           	0.043
MS.627         	7.455          	0.04
MS.628         	7.44           	0.044
MS.629         	7.425          	0.046
MS.630         	7.41           	0.046
MS.631         	7.395          	0.046
MS.632         	7.38           	0.04
MS.633         	7.365          	0.046
MS.634         	7.35           	0.053
MS.635         	7.335          	0.031
MS.636         	7.32           	0.047
MS.637         	7.305          	0.044
MS.638         	7.295          	0.046
MS.639         	7.28           	0.049
MS.640         	7.265          	0.034
DERIVED EXCITABILITY VARIABLES
Program = QTracP 6/7/2018
Threshold method = 6 (optimised for CAP, using data for present condition only)
SR method = 1 (using actual data values)
6.                 	0.000               	Peak response\(mV)
9.                 	38.4                	Temperature ( C)
17.                	56                  	Age (years)
18.                	1                   	Sex (M=1, F=2)

EXTRA VARIABLES

MScPeak(mV) = 10.21
MScS5(mA) = 10.26
MScS50(mA) = 13.04
MScS95(mA) = 19.58
MScNSteps = 2
MScSteps(%) = 6.3
MScStepMax(%) = 3.2
MSFPeakAmp(mV) = 10.2
MSFNUnits = 103
MSFMeanUnitAmp(uV) = 99.1
MSFHuntTime(m) = 3.11
MSFError(%) = 3.11
MSFNLarge = 24.67
MSFMedianAmp(%) = 0.73
MSFMedianAmp(mV) = 0.0745
MSFHalfAmpAmp(%) = 1.29
MSFHalfAmpAmp(mV) = 0.131
MSFLargestAmp(%) = 3.77
MSFLargestAmp(mV) = 0.385
MSFMeanRS(%) = 2.01
MSFOpts = 10106121
MScDuration(min) = 6
MSFTraces = 640
MSFSizeLimit(uV) = 25.5
MSFLimitType = 1
MSFSmallestAmp(uV) = 26.7

EXTRA WAVEFORMS


!MScan Model
!103
	1	8.91	0.34	2
	2	9.43	0.47	2
	3	9.67	0.37	2
	4	9.78	0.45	2
	5	9.83	0.29	2
	6	9.9	0.47	2
	7	10.03	0.78	2
	8	10.13	0.46	2
	9	10.21	0.49	2
	10	10.26	0.43	2
	11	10.31	0.42	2
	12	10.38	0.62	2
	13	10.45	0.53	2
	14	10.51	0.57	2
	15	10.57	0.76	2
	16	10.62	0.35	2
	17	10.69	0.9	2
	18	10.82	1.2	2
	19	10.93	0.75	2
	20	11	1.18	2
	21	11.15	1.42	2
	22	11.29	1.22	2
	23	11.48	1.63	2
	24	11.57	0.94	2
	25	11.63	0.59	2
	26	11.74	1.15	2
	27	11.85	0.77	2.2
	28	11.89	0.56	2
	29	11.92	0.39	2
	30	11.95	0.42	2
	31	11.98	0.39	2
	32	12	0.65	2
	33	12.05	1.13	2
	34	12.16	1.73	2
	35	12.28	2.48	2
	36	12.34	1.05	2
	37	12.4	1.3	2
	38	12.47	1.92	2
	39	12.52	1.3	2
	40	12.55	0.57	2
	41	12.57	0.66	2
	42	12.59	0.96	2
	43	12.62	0.95	2
	44	12.64	0.94	2
	45	12.67	1.02	2
	46	12.7	0.81	2
	47	12.73	0.93	2
	48	12.75	3.76	2
	49	12.76	1.05	2
	50	13.06	3.02	2
	51	13.16	2.44	2
	52	13.2	0.65	2
	53	13.24	0.76	2
	54	13.27	1.22	2
	55	13.38	3.77	2
	56	13.5	1.77	2
	57	13.58	1.29	2
	58	13.67	1.45	2
	59	13.88	2.65	2
	60	14.02	1.96	2
	61	14.14	1.71	2
	62	14.3	2.29	2
	63	14.39	1.34	2
	64	14.46	0.82	2
	65	14.53	2.54	2
	66	15.18	2.37	2.4
	67	15.44	2.15	2
	68	15.52	0.73	2
	69	15.6	0.73	2
	70	15.67	0.57	2
	71	15.73	0.56	2
	72	15.95	1.45	2
	73	16.08	1.31	2
	74	16.23	0.61	2
	75	16.43	1.36	2
	76	16.53	0.62	2
	77	16.61	0.34	2
	78	16.67	0.33	2
	79	16.72	0.34	2
	80	16.84	0.46	2
	81	16.89	0.3	2
	82	17.01	0.56	2
	83	17.19	0.54	2
	84	17.32	0.33	2
	85	17.41	0.38	2
	86	17.55	0.6	2
	87	17.72	0.49	2
	88	17.9	0.4	2
	89	18.71	1.07	2
	90	18.89	0.26	2
	91	19	0.37	2
	92	19.09	0.29	2
	93	19.23	0.42	2
	94	19.68	0.95	2
	95	20.03	0.59	2
	96	20.22	0.41	2
	97	20.37	0.36	2
	98	20.46	0.3	2
	99	20.62	0.38	2
	100	21.42	0.93	2
	101	22.53	0.73	2
	102	23.84	0.58	2
	103	24.39	0.61	2

