File:              	C:\Qtrac\Data\CKMC01005B.QZD
Name:              	DK.COP.NC.1.2
Protocol:          	MSCAN-R2
Date:              	5/10/20
Start time:        	14:30:30
Age:               	58
Sex:               	M
Temperature:       	38.4
S/R sites:         	RUln Wr-ADQ
NC/disease:        	NC
Operator:          	CK
Comments:          	MScan2 CK
M-SCAN DATA (6.4-1.4m)
Scanpts: 1, 23, 521, 541
Stim. (mA)     	Amp. (mV)
MS.1           	26             	7.12
MS.2           	26             	7.101
MS.3           	26             	7.099
MS.4           	26             	7.116
MS.5           	26             	7.12
MS.6           	26             	7.108
MS.7           	26             	7.107
MS.8           	26             	7.104
MS.9           	26             	7.103
MS.10          	26             	7.134
MS.11          	26             	7.084
MS.12          	26             	7.115
MS.13          	26             	7.128
MS.14          	26             	7.137
MS.15          	26             	7.122
MS.16          	26             	7.096
MS.17          	26             	7.084
MS.18          	26             	7.128
MS.19          	26             	7.147
MS.20          	26             	7.108
MS.21          	26             	7.101
MS.22          	26             	7.118
MS.23          	26             	7.094
MS.24          	25.895         	7.1
MS.25          	25.845         	7.063
MS.26          	25.795         	7.108
MS.27          	25.74          	7.07
MS.28          	25.69          	7.109
MS.29          	25.64          	7.111
MS.30          	25.585         	7.114
MS.31          	25.535         	7.12
MS.32          	25.485         	7.117
MS.33          	25.435         	7.104
MS.34          	25.385         	7.09
MS.35          	25.335         	7.142
MS.36          	25.28          	7.141
MS.37          	25.23          	7.175
MS.38          	25.18          	7.158
MS.39          	25.13          	7.162
MS.40          	25.08          	7.162
MS.41          	25.03          	7.159
MS.42          	24.98          	7.158
MS.43          	24.93          	7.156
MS.44          	24.88          	7.132
MS.45          	24.83          	7.139
MS.46          	24.78          	7.115
MS.47          	24.73          	7.125
MS.48          	24.68          	7.144
MS.49          	24.635         	7.155
MS.50          	24.585         	7.115
MS.51          	24.535         	7.13
MS.52          	24.485         	7.114
MS.53          	24.435         	7.104
MS.54          	24.39          	7.121
MS.55          	24.34          	7.101
MS.56          	24.29          	7.108
MS.57          	24.24          	7.117
MS.58          	24.195         	7.125
MS.59          	24.145         	7.085
MS.60          	24.095         	7.129
MS.61          	24.05          	7.095
MS.62          	24             	7.062
MS.63          	23.955         	7.108
MS.64          	23.905         	7.113
MS.65          	23.855         	7.04
MS.66          	23.81          	7.072
MS.67          	23.76          	7.105
MS.68          	23.715         	7.101
MS.69          	23.665         	7.114
MS.70          	23.62          	7.12
MS.71          	23.575         	7.111
MS.72          	23.525         	7.074
MS.73          	23.48          	7.086
MS.74          	23.43          	7.101
MS.75          	23.385         	7.103
MS.76          	23.34          	7.078
MS.77          	23.29          	7.126
MS.78          	23.245         	7.141
MS.79          	23.2           	7.115
MS.80          	23.15          	7.109
MS.81          	23.105         	7.073
MS.82          	23.06          	7.117
MS.83          	23.015         	7.045
MS.84          	22.97          	7.095
MS.85          	22.92          	7.101
MS.86          	22.875         	7.09
MS.87          	22.83          	7.12
MS.88          	22.785         	7.145
MS.89          	22.74          	7.128
MS.90          	22.695         	7.126
MS.91          	22.65          	7.135
MS.92          	22.605         	7.121
MS.93          	22.56          	7.034
MS.94          	22.515         	7.104
MS.95          	22.47          	7.058
MS.96          	22.425         	7.165
MS.97          	22.38          	7.133
MS.98          	22.335         	7.143
MS.99          	22.29          	7.077
MS.100         	22.245         	7.004
MS.101         	22.2           	7.043
MS.102         	22.155         	7.034
MS.103         	22.11          	7.023
MS.104         	22.065         	7.015
MS.105         	22.025         	6.959
MS.106         	21.98          	7.008
MS.107         	21.935         	7.059
MS.108         	21.89          	6.969
MS.109         	21.85          	7.094
MS.110         	21.805         	7.007
MS.111         	21.76          	7.066
MS.112         	21.715         	7.042
MS.113         	21.675         	6.976
MS.114         	21.63          	6.978
MS.115         	21.585         	6.981
MS.116         	21.545         	6.955
MS.117         	21.5           	6.987
MS.118         	21.46          	7.054
MS.119         	21.415         	6.996
MS.120         	21.37          	6.991
MS.121         	21.33          	6.967
MS.122         	21.285         	6.965
MS.123         	21.245         	6.957
MS.124         	21.2           	6.986
MS.125         	21.16          	6.961
MS.126         	21.115         	6.942
MS.127         	21.075         	6.988
MS.128         	21.035         	6.977
MS.129         	20.99          	6.981
MS.130         	20.95          	6.995
MS.131         	20.905         	7.001
MS.132         	20.865         	6.968
MS.133         	20.825         	6.996
MS.134         	20.78          	7.004
MS.135         	20.74          	6.97
MS.136         	20.7           	7.01
MS.137         	20.66          	6.978
MS.138         	20.615         	6.978
MS.139         	20.575         	7.054
MS.140         	20.535         	6.954
MS.141         	20.495         	7.01
MS.142         	20.45          	6.96
MS.143         	20.41          	6.988
MS.144         	20.37          	6.937
MS.145         	20.33          	6.969
MS.146         	20.29          	6.999
MS.147         	20.25          	6.973
MS.148         	20.21          	6.982
MS.149         	20.17          	6.965
MS.150         	20.13          	6.931
MS.151         	20.085         	6.985
MS.152         	20.045         	6.937
MS.153         	20.005         	6.962
MS.154         	19.965         	6.941
MS.155         	19.925         	6.96
MS.156         	19.89          	6.978
MS.157         	19.85          	6.996
MS.158         	19.81          	7.009
MS.159         	19.77          	6.886
MS.160         	19.73          	6.896
MS.161         	19.69          	6.951
MS.162         	19.65          	6.793
MS.163         	19.61          	6.865
MS.164         	19.57          	6.855
MS.165         	19.535         	6.877
MS.166         	19.495         	6.849
MS.167         	19.455         	6.76
MS.168         	19.415         	6.729
MS.169         	19.375         	6.783
MS.170         	19.34          	6.737
MS.171         	19.3           	6.835
MS.172         	19.26          	6.786
MS.173         	19.225         	6.713
MS.174         	19.185         	6.765
MS.175         	19.145         	6.705
MS.176         	19.11          	6.631
MS.177         	19.07          	6.619
MS.178         	19.03          	6.675
MS.179         	18.995         	6.597
MS.180         	18.955         	6.53
MS.181         	18.92          	6.629
MS.182         	18.88          	6.608
MS.183         	18.84          	6.546
MS.184         	18.805         	6.613
MS.185         	18.765         	6.642
MS.186         	18.73          	6.608
MS.187         	18.69          	6.639
MS.188         	18.655         	6.54
MS.189         	18.615         	6.502
MS.190         	18.58          	6.627
MS.191         	18.545         	6.606
MS.192         	18.505         	6.454
MS.193         	18.47          	6.561
MS.194         	18.43          	6.526
MS.195         	18.395         	6.385
MS.196         	18.36          	6.595
MS.197         	18.32          	6.492
MS.198         	18.285         	6.536
MS.199         	18.25          	6.324
MS.200         	18.21          	6.622
MS.201         	18.175         	6.383
MS.202         	18.14          	6.353
MS.203         	18.105         	6.297
MS.204         	18.065         	6.357
MS.205         	18.03          	6.387
MS.206         	17.995         	6.387
MS.207         	17.96          	6.37
MS.208         	17.925         	6.238
MS.209         	17.885         	6.404
MS.210         	17.85          	6.342
MS.211         	17.815         	6.348
MS.212         	17.78          	6.339
MS.213         	17.745         	6.374
MS.214         	17.71          	6.282
MS.215         	17.675         	6.271
MS.216         	17.64          	6.352
MS.217         	17.605         	6.426
MS.218         	17.57          	6.264
MS.219         	17.535         	6.276
MS.220         	17.5           	6.35
MS.221         	17.465         	6.264
MS.222         	17.43          	6.263
MS.223         	17.395         	6.265
MS.224         	17.36          	6.248
MS.225         	17.325         	6.271
MS.226         	17.29          	6.282
MS.227         	17.255         	6.226
MS.228         	17.22          	6.211
MS.229         	17.185         	6.283
MS.230         	17.15          	6.032
MS.231         	17.115         	6.072
MS.232         	17.085         	6.215
MS.233         	17.05          	6.165
MS.234         	17.015         	6.078
MS.235         	16.98          	6.042
MS.236         	16.945         	6.176
MS.237         	16.915         	6.179
MS.238         	16.88          	6.047
MS.239         	16.845         	6.088
MS.240         	16.81          	6.023
MS.241         	16.78          	6.08
MS.242         	16.745         	6.11
MS.243         	16.71          	6.036
MS.244         	16.68          	6.04
MS.245         	16.645         	6.072
MS.246         	16.61          	6.052
MS.247         	16.58          	6.057
MS.248         	16.545         	6.035
MS.249         	16.51          	5.966
MS.250         	16.48          	6.022
MS.251         	16.445         	6.003
MS.252         	16.415         	6.019
MS.253         	16.38          	5.958
MS.254         	16.35          	5.894
MS.255         	16.315         	5.79
MS.256         	16.285         	5.933
MS.257         	16.25          	5.975
MS.258         	16.22          	5.941
MS.259         	16.185         	5.85
MS.260         	16.155         	5.959
MS.261         	16.12          	5.859
MS.262         	16.09          	5.844
MS.263         	16.055         	5.758
MS.264         	16.025         	5.743
MS.265         	15.99          	5.502
MS.266         	15.96          	5.807
MS.267         	15.93          	5.422
MS.268         	15.895         	5.656
MS.269         	15.865         	5.637
MS.270         	15.835         	5.701
MS.271         	15.8           	5.493
MS.272         	15.77          	5.663
MS.273         	15.74          	5.449
MS.274         	15.705         	5.309
MS.275         	15.675         	5.352
MS.276         	15.645         	5.31
MS.277         	15.615         	5.458
MS.278         	15.58          	5.231
MS.279         	15.55          	5.367
MS.280         	15.52          	5.234
MS.281         	15.49          	5.292
MS.282         	15.455         	5.315
MS.283         	15.425         	5.344
MS.284         	15.395         	5.09
MS.285         	15.365         	5.248
MS.286         	15.335         	5.284
MS.287         	15.305         	5.289
MS.288         	15.275         	5.232
MS.289         	15.245         	5.251
MS.290         	15.21          	4.753
MS.291         	15.18          	5.093
MS.292         	15.15          	4.752
MS.293         	15.12          	4.504
MS.294         	15.09          	4.904
MS.295         	15.06          	4.866
MS.296         	15.03          	4.681
MS.297         	15             	4.644
MS.298         	14.97          	4.287
MS.299         	14.94          	4.594
MS.300         	14.91          	4.474
MS.301         	14.88          	4.438
MS.302         	14.85          	4.455
MS.303         	14.82          	4.102
MS.304         	14.79          	4.031
MS.305         	14.765         	4.031
MS.306         	14.735         	4.504
MS.307         	14.705         	4.219
MS.308         	14.675         	4.342
MS.309         	14.645         	4.152
MS.310         	14.615         	4.152
MS.311         	14.585         	3.964
MS.312         	14.555         	4.35
MS.313         	14.53          	4.122
MS.314         	14.5           	4.134
MS.315         	14.47          	3.954
MS.316         	14.44          	4.096
MS.317         	14.41          	4.089
MS.318         	14.385         	3.892
MS.319         	14.355         	3.928
MS.320         	14.325         	3.867
MS.321         	14.3           	3.768
MS.322         	14.27          	3.907
MS.323         	14.24          	3.844
MS.324         	14.21          	3.78
MS.325         	14.185         	3.803
MS.326         	14.155         	3.934
MS.327         	14.125         	3.784
MS.328         	14.1           	3.853
MS.329         	14.07          	3.873
MS.330         	14.045         	3.659
MS.331         	14.015         	3.726
MS.332         	13.985         	3.815
MS.333         	13.96          	3.792
MS.334         	13.93          	3.703
MS.335         	13.905         	3.508
MS.336         	13.875         	3.722
MS.337         	13.845         	2.875
MS.338         	13.82          	3.647
MS.339         	13.79          	3.615
MS.340         	13.765         	3.369
MS.341         	13.735         	3.409
MS.342         	13.71          	3.452
MS.343         	13.68          	2.797
MS.344         	13.655         	3.282
MS.345         	13.63          	2.876
MS.346         	13.6           	3.503
MS.347         	13.575         	2.752
MS.348         	13.545         	3.268
MS.349         	13.52          	2.851
MS.350         	13.49          	3.405
MS.351         	13.465         	2.812
MS.352         	13.44          	3.367
MS.353         	13.41          	3.173
MS.354         	13.385         	2.513
MS.355         	13.36          	2.809
MS.356         	13.33          	3.198
MS.357         	13.305         	2.923
MS.358         	13.28          	2.552
MS.359         	13.25          	2.758
MS.360         	13.225         	2.739
MS.361         	13.2           	2.521
MS.362         	13.17          	2.931
MS.363         	13.145         	2.161
MS.364         	13.12          	2.408
MS.365         	13.095         	2.466
MS.366         	13.065         	1.698
MS.367         	13.04          	1.971
MS.368         	13.015         	1.833
MS.369         	12.99          	2.117
MS.370         	12.965         	1.766
MS.371         	12.935         	2.323
MS.372         	12.91          	1.767
MS.373         	12.885         	1.768
MS.374         	12.86          	1.669
MS.375         	12.835         	1.894
MS.376         	12.81          	1.727
MS.377         	12.785         	1.682
MS.378         	12.755         	1.877
MS.379         	12.73          	1.755
MS.380         	12.705         	1.556
MS.381         	12.68          	1.657
MS.382         	12.655         	1.862
MS.383         	12.63          	1.735
MS.384         	12.605         	1.813
MS.385         	12.58          	1.791
MS.386         	12.555         	1.617
MS.387         	12.53          	1.643
MS.388         	12.505         	1.678
MS.389         	12.48          	1.207
MS.390         	12.455         	1.187
MS.391         	12.43          	1.647
MS.392         	12.405         	1.17
MS.393         	12.38          	1.014
MS.394         	12.355         	1.14
MS.395         	12.33          	1.154
MS.396         	12.305         	0.804
MS.397         	12.28          	1.047
MS.398         	12.255         	1.083
MS.399         	12.23          	1.377
MS.400         	12.21          	1.008
MS.401         	12.185         	0.9
MS.402         	12.16          	0.92
MS.403         	12.135         	1.08
MS.404         	12.11          	0.915
MS.405         	12.085         	0.969
MS.406         	12.06          	0.911
MS.407         	12.04          	0.853
MS.408         	12.015         	0.86
MS.409         	11.99          	0.748
MS.410         	11.965         	0.876
MS.411         	11.94          	0.8
MS.412         	11.92          	0.74
MS.413         	11.895         	0.76
MS.414         	11.87          	0.903
MS.415         	11.845         	0.671
MS.416         	11.825         	0.593
MS.417         	11.8           	0.733
MS.418         	11.775         	0.605
MS.419         	11.755         	0.669
MS.420         	11.73          	0.62
MS.421         	11.705         	0.553
MS.422         	11.685         	0.703
MS.423         	11.66          	0.726
MS.424         	11.635         	0.359
MS.425         	11.615         	0.527
MS.426         	11.59          	0.563
MS.427         	11.565         	0.403
MS.428         	11.545         	0.486
MS.429         	11.52          	0.518
MS.430         	11.495         	0.509
MS.431         	11.475         	0.449
MS.432         	11.45          	0.201
MS.433         	11.43          	0.363
MS.434         	11.405         	0.305
MS.435         	11.385         	0.469
MS.436         	11.36          	0.337
MS.437         	11.335         	0.287
MS.438         	11.315         	0.298
MS.439         	11.29          	0.175
MS.440         	11.27          	0.269
MS.441         	11.245         	0.214
MS.442         	11.225         	0.196
MS.443         	11.2           	0.142
MS.444         	11.18          	0.223
MS.445         	11.155         	0.159
MS.446         	11.135         	0.186
MS.447         	11.115         	0.156
MS.448         	11.09          	0.283
MS.449         	11.07          	0.188
MS.450         	11.045         	0.169
MS.451         	11.025         	0.172
MS.452         	11             	0.146
MS.453         	10.98          	0.104
MS.454         	10.96          	0.172
MS.455         	10.935         	0.153
MS.456         	10.915         	0.15
MS.457         	10.895         	0.151
MS.458         	10.87          	0.132
MS.459         	10.85          	0.107
MS.460         	10.83          	0.15
MS.461         	10.805         	0.104
MS.462         	10.785         	0.098
MS.463         	10.765         	0.103
MS.464         	10.74          	0.146
MS.465         	10.72          	0.099
MS.466         	10.7           	0.038
MS.467         	10.675         	0.099
MS.468         	10.655         	0.048
MS.469         	10.635         	0.085
MS.470         	10.615         	0.089
MS.471         	10.59          	0.093
MS.472         	10.57          	0.095
MS.473         	10.55          	0.079
MS.474         	10.53          	0.08
MS.475         	10.51          	0.035
MS.476         	10.485         	0.029
MS.477         	10.465         	0.089
MS.478         	10.445         	0.017
MS.479         	10.425         	0.074
MS.480         	10.405         	0.076
MS.481         	10.38          	-0.022
MS.482         	10.36          	0.085
MS.483         	10.34          	-0.023
MS.484         	10.32          	0.04
MS.485         	10.3           	-0.013
MS.486         	10.28          	-0.009
MS.487         	10.26          	0.075
MS.488         	10.24          	0.002
MS.489         	10.215         	-0.026
MS.490         	10.195         	-0.018
MS.491         	10.175         	-0.004
MS.492         	10.155         	-0.016
MS.493         	10.135         	-0.01
MS.494         	10.115         	-0.021
MS.495         	10.095         	-0.01
MS.496         	10.075         	-0.025
MS.497         	10.055         	-0.023
MS.498         	10.035         	-0.011
MS.499         	10.015         	-0.027
MS.500         	9.995          	-0.026
MS.501         	9.975          	0.051
MS.502         	9.955          	-0.02
MS.503         	9.935          	-0.015
MS.504         	9.915          	-0.026
MS.505         	9.895          	-0.024
MS.506         	9.875          	-0.025
MS.507         	9.855          	-0.022
MS.508         	9.835          	-0.02
MS.509         	9.815          	-0.025
MS.510         	9.795          	-0.022
MS.511         	9.78           	-0.027
MS.512         	9.76           	-0.026
MS.513         	9.74           	-0.026
MS.514         	9.72           	-0.027
MS.515         	9.7            	-0.025
MS.516         	9.68           	-0.025
MS.517         	9.66           	-0.022
MS.518         	9.64           	-0.027
MS.519         	9.62           	-0.019
MS.520         	9.605          	-0.025
MS.521         	9.585          	-0.024
MS.522         	9.565          	-0.025
MS.523         	9.545          	-0.026
MS.524         	9.525          	-0.023
MS.525         	9.51           	-0.027
MS.526         	9.49           	-0.026
MS.527         	9.47           	-0.028
MS.528         	9.45           	-0.026
MS.529         	9.43           	-0.02
MS.530         	9.415          	-0.022
MS.531         	9.395          	-0.024
MS.532         	9.375          	-0.026
MS.533         	9.355          	-0.026
MS.534         	9.34           	-0.021
MS.535         	9.32           	-0.027
MS.536         	9.3            	-0.025
MS.537         	9.28           	-0.028
MS.538         	9.265          	-0.024
MS.539         	9.245          	-0.02
MS.540         	9.225          	-0.018
MS.541         	9.21           	-0.025
DERIVED EXCITABILITY VARIABLES
Program = QTracP 6/7/2018
Threshold method = 6 (optimised for CAP, using data for present condition only)
SR method = 1 (using actual data values)
6.                 	0.000               	Peak response\(mV)
9.                 	38.4                	Temperature ( C)
17.                	58                  	Age (years)
18.                	1                   	Sex (M=1, F=2)

EXTRA VARIABLES

MScPeak(mV) = 7.14
MScS5(mA) = 11.42
MScS50(mA) = 13.86
MScS95(mA) = 19.36
MScNSteps = 2
MScSteps(%) = 6
MScStepMax(%) = 3.4
MSFPeakAmp(mV) = 7.14
MSFNUnits = 70
MSFMeanUnitAmp(uV) = 101.9
MSFHuntTime(m) = 2.53
MSFError(%) = 5.36
MSFNLarge = 16.62
MSFMedianAmp(%) = 1.11
MSFMedianAmp(mV) = 0.0794
MSFHalfAmpAmp(%) = 1.65
MSFHalfAmpAmp(mV) = 0.118
MSFLargestAmp(%) = 7.46
MSFLargestAmp(mV) = 0.532
MSFMeanRS(%) = 2.04
MSFOpts = 10106121
MScDuration(min) = 5
MSFTraces = 541
MSFSizeLimit(uV) = 20.4
MSFLimitType = 3
MSFSmallestAmp(uV) = 23.7

EXTRA WAVEFORMS


!MScan Model
!70
	1	10.36	0.68	2
	2	10.56	0.6	2
	3	10.68	0.33	2
	4	10.81	0.36	2
	5	10.98	0.54	2
	6	11.2	1.01	2
	7	11.29	0.48	2
	8	11.36	0.75	2
	9	11.43	0.94	2
	10	11.53	1.14	2
	11	11.63	1.19	2
	12	11.73	1.19	2
	13	11.83	1.02	2
	14	11.87	0.47	2
	15	11.92	0.55	2
	16	12.01	1.11	2
	17	12.17	1.74	2
	18	12.32	2.72	2
	19	12.4	1.81	2
	20	12.48	1.09	2
	21	12.61	4.88	2.88
	22	12.9	3.21	2
	23	12.98	1.65	2
	24	13.05	2.03	2
	25	13.13	3.43	2
	26	13.26	3.36	2
	27	13.48	3.5	2
	28	13.64	7.46	2
	29	13.83	3.86	2
	30	14.21	1.77	2
	31	14.3	1.12	2
	32	14.39	0.71	2
	33	14.56	1.67	2
	34	14.77	2.7	2
	35	14.86	1.52	2
	36	14.93	1.17	2
	37	14.99	1.58	2
	38	15.05	1.59	2
	39	15.1	1.23	2
	40	15.17	1.44	1.9
	41	15.26	2.01	2
	42	15.4	2.84	2
	43	15.57	1.45	2
	44	15.68	1.15	2
	45	15.77	0.81	2
	46	15.85	1.07	2
	47	15.92	1.02	2
	48	16.02	1.4	2
	49	16.15	1.18	2
	50	16.26	0.83	2
	51	16.41	1.27	2
	52	16.71	1.21	2
	53	16.97	0.92	2
	54	17.14	0.65	2
	55	17.27	0.56	2
	56	17.51	1.08	2
	57	18.06	1.6	2
	58	18.34	1.01	2
	59	18.79	1.53	2
	60	18.97	0.94	2
	61	19.09	0.33	2
	62	19.18	0.45	2
	63	19.27	0.34	2
	64	19.36	0.51	2
	65	19.46	0.72	2
	66	19.55	0.45	2
	67	19.72	0.54	2
	68	20.21	1.1	2
	69	21.9	0.74	2
	70	22.36	0.71	2

