File:              	C:\Qtrac\Data\Daniel M Sørensen\MScan multicentre study\Data from centres\Newcastle\Processed data\SMC00221B.QZD
Name:              	UK.NEW.NC.5.1
Protocol:          	MSCAN-R2
Date:              	21/2/20
Start time:        	09:22:47
Age:               	40
Sex:               	F
Temperature:       	33.8
S/R sites:         	ADM
NC/disease:        	NC
Operator:          	SM
Comments:
M-SCAN DATA (7.8-2.2m)
Scanpts: 98, 106, 579, 601
Stim. (mA)     	Amp. (mV)
MS.1           	17.5           	7.168
MS.2           	17.5           	7.17
MS.3           	17.5           	7.094
MS.4           	17.5           	7.044
MS.5           	17.5           	7.114
MS.6           	17.5           	7.116
MS.7           	17.5           	7.09
MS.8           	17.5           	7.132
MS.9           	17.5           	7.118
MS.10          	17.5           	7.1
MS.11          	17.5           	7.09
MS.12          	17.5           	7.1
MS.13          	17.5           	7.08
MS.14          	17.5           	7.108
MS.15          	17.5           	7.106
MS.16          	17.5           	7.142
MS.17          	17.5           	7.154
MS.18          	17.5           	7.191
MS.19          	17.5           	7.128
MS.20          	17.5           	7.11
MS.21          	17.5           	7.082
MS.22          	17.5           	7.114
MS.23          	17.5           	7.082
MS.24          	17.43          	7.08
MS.25          	17.395         	7.033
MS.26          	17.36          	7.048
MS.27          	17.325         	7.05
MS.28          	17.29          	7.052
MS.29          	17.257         	7.088
MS.30          	17.222         	7.108
MS.31          	17.188         	7.098
MS.32          	17.153         	7.1
MS.33          	17.12          	7.1
MS.34          	17.085         	7.102
MS.35          	17.05          	7.08
MS.36          	17.017         	7.072
MS.37          	16.983         	7.092
MS.38          	16.95          	7.056
MS.39          	16.915         	7.062
MS.40          	16.88          	7.078
MS.41          	16.847         	7.082
MS.42          	16.812         	7.068
MS.43          	16.78          	7.072
MS.44          	16.747         	7.07
MS.45          	16.712         	7.072
MS.46          	16.68          	7.086
MS.47          	16.647         	7.128
MS.48          	16.612         	7.066
MS.49          	16.58          	7.068
MS.50          	16.547         	7.082
MS.51          	16.515         	7.112
MS.52          	16.48          	7.116
MS.53          	16.448         	7.124
MS.54          	16.415         	7.114
MS.55          	16.382         	7.08
MS.56          	16.35          	7.158
MS.57          	16.317         	7.166
MS.58          	16.285         	7.154
MS.59          	16.253         	7.142
MS.60          	16.22          	7.182
MS.61          	16.188         	7.203
MS.62          	16.155         	7.174
MS.63          	16.122         	7.17
MS.64          	16.09          	7.158
MS.65          	16.057         	7.148
MS.66          	16.025         	7.199
MS.67          	15.992         	7.235
MS.68          	15.962         	7.176
MS.69          	15.93          	7.146
MS.70          	15.898         	7.217
MS.71          	15.867         	7.195
MS.72          	15.835         	7.154
MS.73          	15.802         	7.136
MS.74          	15.773         	7.178
MS.75          	15.74          	7.172
MS.76          	15.707         	7.197
MS.77          	15.677         	7.187
MS.78          	15.645         	7.13
MS.79          	15.615         	7.182
MS.80          	15.582         	7.195
MS.81          	15.552         	7.193
MS.82          	15.52          	7.191
MS.83          	15.49          	7.17
MS.84          	15.46          	7.205
MS.85          	15.427         	7.249
MS.86          	15.398         	7.15
MS.87          	15.367         	7.193
MS.88          	15.335         	7.14
MS.89          	15.305         	7.223
MS.90          	15.275         	7.17
MS.91          	15.245         	7.245
MS.92          	15.212         	7.176
MS.93          	15.182         	7.162
MS.94          	15.152         	7.162
MS.95          	15.122         	7.162
MS.96          	15.092         	7.172
MS.97          	15.062         	7.146
MS.98          	15.032         	7.154
MS.99          	15.002         	7.189
MS.100         	14.972         	7.136
MS.101         	14.943         	7.136
MS.102         	14.912         	7.144
MS.103         	14.882         	7.134
MS.104         	14.852         	7.166
MS.105         	14.822         	7.152
MS.106         	14.792         	7.122
MS.107         	14.765         	7.128
MS.108         	14.735         	7.178
MS.109         	14.705         	7.209
MS.110         	14.675         	7.136
MS.111         	14.648         	7.176
MS.112         	14.617         	7.15
MS.113         	14.587         	7.168
MS.114         	14.56          	7.182
MS.115         	14.53          	7.168
MS.116         	14.5           	7.144
MS.117         	14.472         	7.187
MS.118         	14.443         	7.189
MS.119         	14.415         	7.239
MS.120         	14.385         	7.221
MS.121         	14.358         	7.245
MS.122         	14.327         	7.146
MS.123         	14.3           	7.18
MS.124         	14.27          	7.15
MS.125         	14.242         	7.15
MS.126         	14.212         	7.174
MS.127         	14.185         	7.176
MS.128         	14.157         	7.138
MS.129         	14.127         	7.136
MS.130         	14.1           	7.174
MS.131         	14.072         	7.233
MS.132         	14.045         	7.07
MS.133         	14.015         	7.094
MS.134         	13.987         	7.084
MS.135         	13.96          	7.082
MS.136         	13.932         	7.193
MS.137         	13.905         	7.191
MS.138         	13.877         	7.15
MS.139         	13.85          	7.102
MS.140         	13.82          	7.104
MS.141         	13.792         	7.044
MS.142         	13.765         	7.088
MS.143         	13.737         	7.132
MS.144         	13.71          	7.126
MS.145         	13.682         	7.098
MS.146         	13.655         	7.08
MS.147         	13.63          	7.003
MS.148         	13.602         	7.023
MS.149         	13.575         	7.104
MS.150         	13.547         	7.042
MS.151         	13.52          	7.035
MS.152         	13.492         	6.995
MS.153         	13.467         	6.995
MS.154         	13.44          	7.023
MS.155         	13.412         	6.969
MS.156         	13.385         	7.031
MS.157         	13.36          	7.068
MS.158         	13.332         	7.09
MS.159         	13.305         	7.027
MS.160         	13.28          	7.074
MS.161         	13.252         	6.967
MS.162         	13.225         	6.953
MS.163         	13.2           	6.951
MS.164         	13.172         	7.023
MS.165         	13.148         	6.977
MS.166         	13.12          	6.939
MS.167         	13.095         	6.983
MS.168         	13.068         	7.001
MS.169         	13.042         	6.979
MS.170         	13.015         	6.929
MS.171         	12.99          	6.864
MS.172         	12.965         	6.884
MS.173         	12.938         	6.999
MS.174         	12.912         	6.997
MS.175         	12.887         	6.935
MS.176         	12.86          	6.864
MS.177         	12.835         	6.892
MS.178         	12.81          	7.007
MS.179         	12.785         	6.884
MS.180         	12.757         	6.882
MS.181         	12.733         	6.806
MS.182         	12.707         	6.872
MS.183         	12.682         	6.921
MS.184         	12.657         	6.884
MS.185         	12.632         	6.844
MS.186         	12.608         	6.852
MS.187         	12.58          	6.882
MS.188         	12.555         	6.834
MS.189         	12.53          	6.953
MS.190         	12.505         	6.758
MS.191         	12.48          	6.822
MS.192         	12.455         	6.788
MS.193         	12.43          	6.719
MS.194         	12.405         	6.695
MS.195         	12.382         	6.719
MS.196         	12.358         	6.673
MS.197         	12.332         	6.671
MS.198         	12.307         	6.653
MS.199         	12.282         	6.689
MS.200         	12.257         	6.53
MS.201         	12.233         	6.474
MS.202         	12.21          	6.623
MS.203         	12.185         	6.59
MS.204         	12.16          	6.512
MS.205         	12.135         	6.3
MS.206         	12.113         	6.542
MS.207         	12.087         	6.393
MS.208         	12.062         	6.417
MS.209         	12.04          	6.294
MS.210         	12.015         	6.133
MS.211         	11.992         	6.194
MS.212         	11.967         	6.113
MS.213         	11.943         	6.288
MS.214         	11.92          	6.218
MS.215         	11.895         	6.073
MS.216         	11.872         	6.018
MS.217         	11.847         	5.988
MS.218         	11.825         	5.855
MS.219         	11.8           	5.851
MS.220         	11.778         	5.986
MS.221         	11.755         	5.704
MS.222         	11.73          	5.827
MS.223         	11.707         	6.004
MS.224         	11.682         	5.722
MS.225         	11.66          	5.481
MS.226         	11.637         	5.291
MS.227         	11.615         	5.513
MS.228         	11.59          	5.418
MS.229         	11.568         	5.158
MS.230         	11.545         	5.406
MS.231         	11.523         	5.366
MS.232         	11.497         	5.122
MS.233         	11.475         	5.233
MS.234         	11.452         	5.132
MS.235         	11.43          	5.043
MS.236         	11.407         	4.931
MS.237         	11.385         	4.935
MS.238         	11.36          	4.991
MS.239         	11.337         	4.81
MS.240         	11.315         	5.035
MS.241         	11.292         	4.959
MS.242         	11.27          	4.822
MS.243         	11.247         	4.81
MS.244         	11.225         	4.759
MS.245         	11.202         	4.719
MS.246         	11.18          	4.548
MS.247         	11.157         	4.556
MS.248         	11.135         	4.504
MS.249         	11.115         	4.564
MS.250         	11.092         	4.494
MS.251         	11.07          	4.592
MS.252         	11.047         	4.433
MS.253         	11.025         	4.508
MS.254         	11.002         	4.477
MS.255         	10.983         	4.524
MS.256         	10.96          	4.3
MS.257         	10.938         	4.298
MS.258         	10.915         	4.463
MS.259         	10.895         	4.32
MS.260         	10.872         	4.121
MS.261         	10.85          	4.369
MS.262         	10.827         	4.202
MS.263         	10.807         	4.149
MS.264         	10.785         	4.339
MS.265         	10.765         	4.117
MS.266         	10.742         	4.248
MS.267         	10.72          	4.069
MS.268         	10.7           	4.079
MS.269         	10.677         	3.905
MS.270         	10.657         	3.903
MS.271         	10.635         	3.974
MS.272         	10.615         	3.946
MS.273         	10.592         	3.879
MS.274         	10.573         	3.843
MS.275         	10.55          	3.877
MS.276         	10.53          	4.022
MS.277         	10.507         	3.95
MS.278         	10.488         	3.662
MS.279         	10.467         	3.97
MS.280         	10.445         	3.74
MS.281         	10.425         	3.672
MS.282         	10.405         	3.726
MS.283         	10.382         	3.658
MS.284         	10.363         	3.503
MS.285         	10.342         	3.519
MS.286         	10.32          	3.482
MS.287         	10.3           	3.541
MS.288         	10.28          	3.317
MS.289         	10.26          	3.376
MS.290         	10.24          	3.392
MS.291         	10.217         	3.346
MS.292         	10.198         	3.255
MS.293         	10.177         	3.213
MS.294         	10.157         	3.14
MS.295         	10.137         	3.285
MS.296         	10.117         	3.221
MS.297         	10.097         	3.172
MS.298         	10.077         	2.979
MS.299         	10.057         	3.092
MS.300         	10.035         	3.011
MS.301         	10.015         	3.11
MS.302         	9.995          	3.023
MS.303         	9.975          	3.037
MS.304         	9.955          	2.796
MS.305         	9.938          	2.904
MS.306         	9.917          	2.78
MS.307         	9.898          	2.731
MS.308         	9.877          	2.868
MS.309         	9.858          	2.516
MS.310         	9.837          	2.467
MS.311         	9.818          	2.552
MS.312         	9.797          	2.52
MS.313         	9.778          	2.524
MS.314         	9.76           	2.6
MS.315         	9.74           	2.413
MS.316         	9.72           	2.391
MS.317         	9.7            	2.433
MS.318         	9.682          	2.332
MS.319         	9.662          	2.383
MS.320         	9.642          	2.427
MS.321         	9.622          	2.28
MS.322         	9.605          	2.346
MS.323         	9.585          	2.212
MS.324         	9.565          	2.197
MS.325         	9.547          	2.141
MS.326         	9.528          	2.121
MS.327         	9.507          	2.079
MS.328         	9.49           	2.173
MS.329         	9.47           	2.054
MS.330         	9.452          	2.075
MS.331         	9.432          	2.111
MS.332         	9.415          	2.036
MS.333         	9.395          	2.183
MS.334         	9.377          	2.03
MS.335         	9.358          	1.992
MS.336         	9.34           	1.994
MS.337         	9.32           	1.936
MS.338         	9.302          	1.946
MS.339         	9.283          	1.678
MS.340         	9.265          	1.831
MS.341         	9.245          	1.936
MS.342         	9.227          	1.781
MS.343         	9.21           	1.73
MS.344         	9.19           	1.779
MS.345         	9.172          	1.674
MS.346         	9.155          	1.821
MS.347         	9.135          	1.698
MS.348         	9.117          	1.736
MS.349         	9.1            	1.581
MS.350         	9.08           	1.615
MS.351         	9.062          	1.742
MS.352         	9.045          	1.785
MS.353         	9.028          	1.672
MS.354         	9.01           	1.255
MS.355         	8.99           	1.178
MS.356         	8.972          	1.462
MS.357         	8.955          	1.396
MS.358         	8.938          	1.354
MS.359         	8.92           	1.412
MS.360         	8.903          	1.317
MS.361         	8.882          	1.219
MS.362         	8.865          	1.196
MS.363         	8.847          	1.068
MS.364         	8.83           	1.261
MS.365         	8.812          	1.074
MS.366         	8.795          	1.358
MS.367         	8.778          	1.104
MS.368         	8.76           	1.076
MS.369         	8.742          	1.15
MS.370         	8.725          	1.122
MS.371         	8.707          	1.225
MS.372         	8.69           	1.094
MS.373         	8.672          	1.148
MS.374         	8.655          	1.106
MS.375         	8.637          	1.047
MS.376         	8.62           	1.086
MS.377         	8.602          	1.039
MS.378         	8.587          	1.08
MS.379         	8.57           	1.051
MS.380         	8.552          	1.015
MS.381         	8.535          	1.084
MS.382         	8.517          	0.949
MS.383         	8.5            	1.005
MS.384         	8.485          	0.963
MS.385         	8.467          	0.939
MS.386         	8.45           	0.814
MS.387         	8.432          	0.959
MS.388         	8.417          	0.781
MS.389         	8.4            	0.868
MS.390         	8.382          	0.84
MS.391         	8.365          	0.81
MS.392         	8.35           	0.792
MS.393         	8.332          	0.874
MS.394         	8.315          	0.792
MS.395         	8.3            	0.784
MS.396         	8.283          	0.743
MS.397         	8.267          	0.888
MS.398         	8.25           	0.773
MS.399         	8.233          	0.647
MS.400         	8.217          	0.663
MS.401         	8.2            	0.705
MS.402         	8.185          	0.767
MS.403         	8.167          	0.82
MS.404         	8.153          	0.739
MS.405         	8.135          	0.689
MS.406         	8.12           	0.777
MS.407         	8.102          	0.691
MS.408         	8.087          	0.618
MS.409         	8.07           	0.57
MS.410         	8.055          	0.675
MS.411         	8.037          	0.62
MS.412         	8.023          	0.548
MS.413         	8.005          	0.602
MS.414         	7.99           	0.58
MS.415         	7.975          	0.497
MS.416         	7.957          	0.546
MS.417         	7.942          	0.661
MS.418         	7.927          	0.626
MS.419         	7.91           	0.588
MS.420         	7.895          	0.441
MS.421         	7.88           	0.612
MS.422         	7.862          	0.479
MS.423         	7.847          	0.538
MS.424         	7.832          	0.612
MS.425         	7.815          	0.552
MS.426         	7.8            	0.572
MS.427         	7.785          	0.481
MS.428         	7.77           	0.578
MS.429         	7.755          	0.54
MS.430         	7.737          	0.453
MS.431         	7.722          	0.506
MS.432         	7.707          	0.429
MS.433         	7.692          	0.564
MS.434         	7.677          	0.542
MS.435         	7.662          	0.437
MS.436         	7.645          	0.502
MS.437         	7.63           	0.518
MS.438         	7.615          	0.407
MS.439         	7.6            	0.439
MS.440         	7.585          	0.431
MS.441         	7.57           	0.437
MS.442         	7.555          	0.475
MS.443         	7.54           	0.516
MS.444         	7.525          	0.431
MS.445         	7.51           	0.471
MS.446         	7.495          	0.429
MS.447         	7.48           	0.445
MS.448         	7.465          	0.469
MS.449         	7.45           	0.429
MS.450         	7.435          	0.427
MS.451         	7.42           	0.419
MS.452         	7.405          	0.338
MS.453         	7.39           	0.328
MS.454         	7.375          	0.336
MS.455         	7.36           	0.338
MS.456         	7.347          	0.371
MS.457         	7.332          	0.322
MS.458         	7.317          	0.332
MS.459         	7.302          	0.322
MS.460         	7.287          	0.393
MS.461         	7.273          	0.304
MS.462         	7.257          	0.312
MS.463         	7.245          	0.322
MS.464         	7.23           	0.334
MS.465         	7.215          	0.29
MS.466         	7.2            	0.294
MS.467         	7.188          	0.348
MS.468         	7.172          	0.316
MS.469         	7.157          	0.232
MS.470         	7.142          	0.197
MS.471         	7.13           	0.197
MS.472         	7.115          	0.201
MS.473         	7.1            	0.203
MS.474         	7.087          	0.226
MS.475         	7.072          	0.216
MS.476         	7.057          	0.153
MS.477         	7.045          	0.161
MS.478         	7.03           	0.173
MS.479         	7.015          	0.169
MS.480         	7.003          	0.189
MS.481         	6.987          	0.173
MS.482         	6.975          	0.167
MS.483         	6.96           	0.137
MS.484         	6.945          	0.143
MS.485         	6.932          	0.151
MS.486         	6.918          	0.145
MS.487         	6.905          	0.113
MS.488         	6.89           	0.175
MS.489         	6.878          	0.115
MS.490         	6.862          	0.127
MS.491         	6.85           	0.105
MS.492         	6.835          	0.135
MS.493         	6.822          	0.109
MS.494         	6.807          	0.123
MS.495         	6.795          	0.099
MS.496         	6.782          	0.139
MS.497         	6.767          	0.129
MS.498         	6.755          	0.111
MS.499         	6.74           	0.099
MS.500         	6.727          	0.107
MS.501         	6.715          	0.075
MS.502         	6.7            	0.101
MS.503         	6.688          	0.101
MS.504         	6.675          	0.091
MS.505         	6.66           	0.054
MS.506         	6.648          	0.068
MS.507         	6.635          	0.107
MS.508         	6.62           	0.085
MS.509         	6.608          	0.066
MS.510         	6.595          	0.052
MS.511         	6.58           	0.101
MS.512         	6.567          	0.075
MS.513         	6.555          	0.052
MS.514         	6.543          	0.056
MS.515         	6.527          	0.052
MS.516         	6.515          	0.07
MS.517         	6.503          	0.054
MS.518         	6.49           	0.056
MS.519         	6.477          	0.066
MS.520         	6.462          	0.056
MS.521         	6.45           	0.058
MS.522         	6.438          	0.046
MS.523         	6.425          	0.05
MS.524         	6.412          	0.06
MS.525         	6.4            	0.046
MS.526         	6.387          	0.058
MS.527         	6.375          	0.048
MS.528         	6.36           	0.048
MS.529         	6.347          	0.054
MS.530         	6.335          	0.052
MS.531         	6.322          	0.073
MS.532         	6.31           	0.054
MS.533         	6.297          	0.048
MS.534         	6.285          	0.05
MS.535         	6.273          	0.048
MS.536         	6.26           	0.056
MS.537         	6.247          	0.046
MS.538         	6.235          	0.05
MS.539         	6.222          	0.05
MS.540         	6.21           	0.048
MS.541         	6.197          	0.05
MS.542         	6.185          	0.048
MS.543         	6.172          	0.05
MS.544         	6.16           	0.042
MS.545         	6.148          	0.05
MS.546         	6.135          	0.046
MS.547         	6.125          	0.048
MS.548         	6.112          	0.05
MS.549         	6.1            	0.052
MS.550         	6.088          	0.05
MS.551         	6.075          	0.046
MS.552         	6.062          	0.042
MS.553         	6.05           	0.046
MS.554         	6.037          	0.046
MS.555         	6.027          	0.048
MS.556         	6.015          	0.042
MS.557         	6.003          	0.048
MS.558         	5.99           	0.052
MS.559         	5.977          	0.05
MS.560         	5.967          	0.048
MS.561         	5.955          	0.048
MS.562         	5.942          	0.046
MS.563         	5.93           	0.048
MS.564         	5.92           	0.05
MS.565         	5.907          	0.044
MS.566         	5.895          	0.048
MS.567         	5.885          	0.048
MS.568         	5.872          	0.048
MS.569         	5.86           	0.046
MS.570         	5.847          	0.046
MS.571         	5.838          	0.042
MS.572         	5.825          	0.046
MS.573         	5.812          	0.048
MS.574         	5.802          	0.046
MS.575         	5.79           	0.048
MS.576         	5.78           	0.046
MS.577         	5.767          	0.05
MS.578         	5.755          	0.042
MS.579         	5.745          	0.046
MS.580         	5.733          	0.046
MS.581         	5.722          	0.042
MS.582         	5.71           	0.044
MS.583         	5.697          	0.046
MS.584         	5.688          	0.052
MS.585         	5.675          	0.05
MS.586         	5.665          	0.046
MS.587         	5.652          	0.048
MS.588         	5.642          	0.044
MS.589         	5.63           	0.046
MS.590         	5.62           	0.046
MS.591         	5.608          	0.048
MS.592         	5.597          	0.046
MS.593         	5.585          	0.042
MS.594         	5.575          	0.044
MS.595         	5.562          	0.05
MS.596         	5.552          	0.05
MS.597         	5.54           	0.044
MS.598         	5.53           	0.04
MS.599         	5.52           	0.05
MS.600         	5.507          	0.05
MS.601         	5.497          	0.044
DERIVED EXCITABILITY VARIABLES
Program = QTracP 9/10/2021
Threshold method = 6 (optimised for CAP, using data for present condition only)
SR method = 1 (using actual data values)
6.                 	0.000               	Peak response\(mV)
9.                 	33.8                	Temperature ( C)
17.                	40                  	Age (years)
18.                	2                   	Sex (M=1, F=2)

EXTRA VARIABLES

MScPeak(mV) = 7.07
MScS5(mA) = 7.34
MScS50(mA) = 10.32
MScS95(mA) = 12.4
MScNSteps = 1
MScSteps(%) = 2.7
MScStepMax(%) = 2.7
MScD50 = 53
MScSlope = 4.28
MScDuration(min) = 5.6
MSFTraces = 504
MSFPeakAmp(mV) = 7.1
MSFNUnits = 145
MSFMeanUnitAmp(uV) = 49
MSFHuntTime(m) = 2.71
MSFError(%) = 3.58
MSFNLarge = 51.11
MSFMedianAmp(%) = 0.631
MSFMedianAmp(mV) = 0.0448
MSFHalfAmpAmp(%) = 0.73
MSFHalfAmpAmp(mV) = 0.0519
MSFLargestAmp(%) = 1.64
MSFLargestAmp(mV) = 0.117
MSFMeanRS(%) = 2
MSFSizeLimit(uV) = 17.8
MSFLimitType = 1
MSFSmallestAmp(uV) = 19.1
MSFOpts = 10106121

EXTRA WAVEFORMS


!MScan Model
!145
	1	6.6	0.38	2
	2	6.7	0.28	2
	3	6.85	0.48	2
	4	6.93	0.27	2
	5	7.01	0.31	2
	6	7.04	0.31	2
	7	7.08	0.28	2
	8	7.14	0.5	2
	9	7.19	0.44	2
	10	7.25	0.41	2
	11	7.31	0.51	2
	12	7.36	0.4	2
	13	7.43	0.4	2
	14	7.55	0.96	2
	15	7.88	1.32	2
	16	8.05	1.05	2
	17	8.14	0.79	2
	18	8.25	1.16	2
	19	8.34	0.74	2
	20	8.38	0.52	2
	21	8.41	0.37	2
	22	8.43	0.32	2
	23	8.46	0.33	2
	24	8.49	0.37	2
	25	8.52	0.38	2
	26	8.55	0.38	2
	27	8.62	0.83	2
	28	8.64	0.9	2
	29	8.79	1.64	2
	30	8.88	1.56	2
	31	8.94	1.16	2
	32	9.04	1.19	2
	33	9.12	1.25	2
	34	9.19	1.59	2
	35	9.23	0.74	2
	36	9.26	0.68	2
	37	9.3	0.73	2
	38	9.34	0.53	2
	39	9.38	0.67	2
	40	9.42	0.66	2
	41	9.45	0.7	2
	42	9.48	0.57	2
	43	9.51	0.6	2
	44	9.54	0.56	2
	45	9.57	0.55	2
	46	9.61	0.5	2
	47	9.65	0.57	2
	48	9.68	0.52	2
	49	9.7	0.69	2
	50	9.73	0.75	2
	51	9.76	0.64	2
	52	9.78	0.52	2
	53	9.8	0.62	2
	54	9.83	1.28	2
	55	9.87	0.58	2
	56	9.89	0.51	2
	57	9.91	0.47	2
	58	9.93	0.56	2
	59	9.95	0.61	2
	60	9.98	0.64	2
	61	10	0.56	2
	62	10.02	0.55	2
	63	10.05	0.6	2
	64	10.07	0.63	2
	65	10.09	0.68	2
	66	10.12	0.62	2
	67	10.14	0.51	2
	68	10.16	0.46	2
	69	10.18	0.35	2
	70	10.19	0.39	2
	71	10.21	0.44	2
	72	10.23	0.45	2
	73	10.24	0.48	2
	74	10.27	0.6	2
	75	10.29	0.55	2
	76	10.31	0.5	2
	77	10.34	0.56	2
	78	10.36	0.59	2
	79	10.39	0.87	2
	80	10.43	0.7	2
	81	10.48	0.95	2
	82	10.53	1.23	2
	83	10.58	1.03	2
	84	10.66	1.49	2
	85	10.69	0.59	2
	86	10.73	0.51	2
	87	10.77	0.67	2
	88	10.81	0.79	2
	89	10.85	0.76	2
	90	10.9	0.9	2
	91	10.95	0.98	2
	92	11.01	0.83	2
	93	11.04	0.56	2
	94	11.07	0.71	2
	95	11.1	0.66	2
	96	11.13	0.59	2
	97	11.16	0.59	2.2
	98	11.19	0.58	2
	99	11.22	0.58	2
	100	11.24	0.51	2
	101	11.27	0.47	2
	102	11.3	0.57	2
	103	11.32	0.65	2
	104	11.35	0.74	2
	105	11.38	0.83	2
	106	11.41	0.86	2
	107	11.44	0.74	2
	108	11.47	0.66	2
	109	11.49	0.58	2
	110	11.51	0.64	2
	111	11.54	0.75	2
	112	11.56	0.79	2
	113	11.59	0.79	2
	114	11.61	0.78	2
	115	11.63	0.77	2
	116	11.66	0.77	2
	117	11.68	0.76	2
	118	11.71	0.9	2
	119	11.73	0.85	2
	120	11.76	0.65	2
	121	11.79	0.68	2
	122	11.82	0.82	2
	123	11.86	1.23	2
	124	11.9	1.33	2
	125	11.93	0.74	2
	126	11.95	0.47	2
	127	11.97	0.45	2
	128	11.99	0.39	2
	129	12.01	0.38	2
	130	12.04	0.45	2
	131	12.06	0.47	2
	132	12.09	0.73	2
	133	12.13	0.74	2
	134	12.16	0.61	2
	135	12.2	0.71	2
	136	12.24	0.78	2
	137	12.29	0.64	2
	138	12.33	0.62	2
	139	12.37	0.59	2
	140	12.43	0.58	2
	141	12.5	0.74	2
	142	12.6	0.73	2
	143	12.97	1.44	2
	144	13.43	1.32	2
	145	13.79	0.93	2

