File:              	C:\Qtrac\Data\Daniel M Sørensen\MScan multicentre study\Data from centres\Oslo\IronKey\Oslo_NC_first examination\SZC00528B.QZD
Name:              	NO.OSL.NC.14.1
Protocol:          	MSCAN-R2
Date:              	28/5/20
Start time:        	16:42:13
Age:               	28
Sex:               	F
Temperature:       	33.1
S/R sites:         	Ulnar Wr-APDM
NC/disease:        	NC14
Operator:          	SZ
Comments:          	Test1
M-SCAN DATA (9.6-4.3m)
Scanpts: 80, 87, 572, 577
Stim. (mA)     	Amp. (mV)
MS.1           	16.5           	7.998
MS.2           	16.5           	7.998
MS.3           	16.5           	7.974
MS.4           	16.5           	7.984
MS.5           	16.5           	7.98
MS.6           	16.5           	7.996
MS.7           	16.5           	8.006
MS.8           	16.5           	7.988
MS.9           	16.5           	7.996
MS.10          	16.5           	8
MS.11          	16.5           	7.998
MS.12          	16.5           	8.004
MS.13          	16.5           	7.992
MS.14          	16.5           	8.032
MS.15          	16.5           	8.006
MS.16          	16.5           	8.022
MS.17          	16.5           	8.014
MS.18          	16.5           	7.996
MS.19          	16.5           	8.014
MS.20          	16.5           	7.988
MS.21          	16.5           	7.996
MS.22          	16.5           	8.028
MS.23          	16.5           	8.032
MS.24          	16.435         	8.024
MS.25          	16.4           	8.028
MS.26          	16.368         	8.024
MS.27          	16.335         	8.014
MS.28          	16.302         	8.024
MS.29          	16.27          	8.036
MS.30          	16.237         	8.043
MS.31          	16.205         	8.041
MS.32          	16.172         	8.03
MS.33          	16.14          	8.034
MS.34          	16.108         	8.043
MS.35          	16.077         	8.024
MS.36          	16.045         	8.063
MS.37          	16.012         	8.03
MS.38          	15.98          	8.069
MS.39          	15.947         	8.063
MS.40          	15.917         	8.043
MS.41          	15.885         	8.057
MS.42          	15.852         	8.055
MS.43          	15.822         	8.075
MS.44          	15.79          	8.075
MS.45          	15.757         	8.063
MS.46          	15.727         	8.061
MS.47          	15.695         	8.061
MS.48          	15.665         	8.059
MS.49          	15.632         	8.067
MS.50          	15.602         	8.047
MS.51          	15.57          	8.069
MS.52          	15.54          	8.071
MS.53          	15.507         	8.081
MS.54          	15.477         	8.063
MS.55          	15.445         	8.093
MS.56          	15.415         	8.077
MS.57          	15.385         	8.075
MS.58          	15.352         	8.109
MS.59          	15.322         	8.091
MS.60          	15.292         	8.113
MS.61          	15.262         	8.093
MS.62          	15.233         	8.083
MS.63          	15.2           	8.127
MS.64          	15.17          	8.103
MS.65          	15.14          	8.091
MS.66          	15.11          	8.103
MS.67          	15.08          	8.139
MS.68          	15.05          	8.125
MS.69          	15.02          	8.115
MS.70          	14.99          	8.111
MS.71          	14.96          	8.119
MS.72          	14.93          	8.149
MS.73          	14.9           	8.109
MS.74          	14.87          	8.127
MS.75          	14.84          	8.129
MS.76          	14.81          	8.129
MS.77          	14.78          	8.161
MS.78          	14.752         	8.137
MS.79          	14.722         	8.131
MS.80          	14.693         	8.184
MS.81          	14.662         	8.169
MS.82          	14.635         	8.159
MS.83          	14.605         	8.159
MS.84          	14.575         	8.165
MS.85          	14.547         	8.165
MS.86          	14.517         	8.159
MS.87          	14.487         	8.184
MS.88          	14.46          	8.147
MS.89          	14.43          	8.137
MS.90          	14.403         	8.274
MS.91          	14.372         	8.145
MS.92          	14.345         	8.163
MS.93          	14.315         	8.083
MS.94          	14.287         	8.163
MS.95          	14.257         	8.21
MS.96          	14.23          	8.165
MS.97          	14.202         	8.105
MS.98          	14.172         	8.073
MS.99          	14.145         	8.129
MS.100         	14.117         	8.218
MS.101         	14.087         	8.258
MS.102         	14.06          	8.085
MS.103         	14.032         	8.125
MS.104         	14.005         	8.127
MS.105         	13.975         	8.119
MS.106         	13.947         	8.256
MS.107         	13.92          	7.962
MS.108         	13.892         	8.131
MS.109         	13.865         	8.107
MS.110         	13.837         	8.139
MS.111         	13.81          	8.115
MS.112         	13.782         	8.109
MS.113         	13.755         	8.065
MS.114         	13.727         	8.117
MS.115         	13.7           	8.073
MS.116         	13.672         	8.077
MS.117         	13.645         	8.141
MS.118         	13.617         	8.077
MS.119         	13.59          	7.958
MS.120         	13.562         	8.129
MS.121         	13.535         	8.089
MS.122         	13.51          	8.057
MS.123         	13.483         	7.958
MS.124         	13.455         	7.994
MS.125         	13.427         	8.002
MS.126         	13.403         	8.039
MS.127         	13.375         	7.988
MS.128         	13.347         	8.014
MS.129         	13.32          	7.916
MS.130         	13.295         	7.964
MS.131         	13.267         	8.004
MS.132         	13.242         	8.01
MS.133         	13.215         	7.95
MS.134         	13.188         	8.026
MS.135         	13.162         	7.98
MS.136         	13.135         	8.055
MS.137         	13.11          	7.865
MS.138         	13.082         	7.978
MS.139         	13.057         	7.791
MS.140         	13.032         	7.966
MS.141         	13.005         	7.984
MS.142         	12.98          	7.893
MS.143         	12.952         	7.863
MS.144         	12.927         	7.859
MS.145         	12.903         	7.793
MS.146         	12.875         	7.809
MS.147         	12.85          	7.898
MS.148         	12.825         	7.881
MS.149         	12.8           	7.847
MS.150         	12.773         	7.819
MS.151         	12.747         	7.636
MS.152         	12.722         	7.658
MS.153         	12.697         	7.869
MS.154         	12.672         	7.706
MS.155         	12.645         	7.819
MS.156         	12.62          	7.656
MS.157         	12.595         	7.69
MS.158         	12.57          	7.614
MS.159         	12.545         	7.702
MS.160         	12.52          	7.652
MS.161         	12.495         	7.571
MS.162         	12.47          	7.622
MS.163         	12.445         	7.674
MS.164         	12.42          	7.64
MS.165         	12.395         	7.648
MS.166         	12.37          	7.555
MS.167         	12.347         	7.456
MS.168         	12.322         	7.487
MS.169         	12.297         	7.424
MS.170         	12.273         	7.452
MS.171         	12.247         	7.475
MS.172         	12.222         	7.473
MS.173         	12.2           	7.176
MS.174         	12.175         	7.269
MS.175         	12.15          	7.289
MS.176         	12.125         	7.092
MS.177         	12.102         	7.156
MS.178         	12.077         	7.263
MS.179         	12.052         	7.12
MS.180         	12.03          	7.172
MS.181         	12.005         	7.078
MS.182         	11.983         	6.975
MS.183         	11.957         	7.142
MS.184         	11.932         	7.027
MS.185         	11.91          	6.927
MS.186         	11.885         	7.15
MS.187         	11.863         	6.687
MS.188         	11.837         	6.824
MS.189         	11.815         	6.691
MS.190         	11.79          	6.816
MS.191         	11.767         	6.941
MS.192         	11.745         	6.621
MS.193         	11.72          	6.788
MS.194         	11.697         	6.504
MS.195         	11.675         	6.431
MS.196         	11.65          	6.476
MS.197         	11.627         	6.034
MS.198         	11.605         	6.204
MS.199         	11.58          	6.516
MS.200         	11.557         	6.129
MS.201         	11.535         	5.976
MS.202         	11.512         	6.012
MS.203         	11.488         	6.002
MS.204         	11.465         	5.944
MS.205         	11.443         	5.966
MS.206         	11.42          	5.914
MS.207         	11.398         	6.006
MS.208         	11.375         	5.918
MS.209         	11.352         	6.036
MS.210         	11.33          	5.936
MS.211         	11.307         	5.91
MS.212         	11.282         	5.901
MS.213         	11.26          	5.879
MS.214         	11.238         	5.97
MS.215         	11.215         	5.706
MS.216         	11.195         	5.893
MS.217         	11.172         	5.787
MS.218         	11.15          	5.74
MS.219         	11.127         	5.831
MS.220         	11.105         	5.867
MS.221         	11.082         	5.831
MS.222         	11.06          	5.726
MS.223         	11.037         	5.533
MS.224         	11.015         	5.781
MS.225         	10.995         	5.591
MS.226         	10.972         	5.577
MS.227         	10.95          	5.521
MS.228         	10.927         	5.571
MS.229         	10.907         	5.458
MS.230         	10.885         	5.331
MS.231         	10.863         	5.672
MS.232         	10.84          	5.583
MS.233         	10.82          	5.265
MS.234         	10.797         	5.34
MS.235         	10.778         	5.344
MS.236         	10.755         	5.424
MS.237         	10.733         	5.213
MS.238         	10.712         	5.553
MS.239         	10.69          	5.376
MS.240         	10.67          	5.126
MS.241         	10.648         	5.301
MS.242         	10.627         	4.955
MS.243         	10.605         	4.927
MS.244         	10.585         	5.039
MS.245         	10.562         	4.995
MS.246         	10.542         	5.003
MS.247         	10.52          	4.945
MS.248         	10.5           	4.834
MS.249         	10.48          	4.997
MS.250         	10.457         	4.852
MS.251         	10.438         	4.794
MS.252         	10.415         	4.965
MS.253         	10.395         	4.737
MS.254         	10.375         	4.727
MS.255         	10.355         	4.759
MS.256         	10.332         	4.782
MS.257         	10.312         	4.665
MS.258         	10.292         	4.784
MS.259         	10.273         	4.709
MS.260         	10.25          	4.707
MS.261         	10.23          	4.594
MS.262         	10.21          	4.707
MS.263         	10.19          	4.568
MS.264         	10.17          	4.445
MS.265         	10.15          	4.403
MS.266         	10.127         	4.463
MS.267         	10.108         	4.431
MS.268         	10.087         	4.375
MS.269         	10.068         	4.308
MS.270         	10.047         	4.536
MS.271         	10.028         	4.367
MS.272         	10.007         	4.23
MS.273         	9.988          	4.236
MS.274         	9.967          	4.234
MS.275         	9.948          	4.23
MS.276         	9.927          	4.252
MS.277         	9.907          	4.208
MS.278         	9.887          	4.059
MS.279         	9.867          	4.107
MS.280         	9.85           	4.206
MS.281         	9.83           	4.125
MS.282         	9.81           	4.032
MS.283         	9.79           	4.117
MS.284         	9.77           	4.232
MS.285         	9.75           	4.079
MS.286         	9.733          	4.155
MS.287         	9.712          	4.153
MS.288         	9.693          	3.922
MS.289         	9.672          	3.964
MS.290         	9.655          	3.944
MS.291         	9.635          	3.889
MS.292         	9.615          	3.829
MS.293         	9.595          	3.803
MS.294         	9.577          	3.827
MS.295         	9.557          	3.839
MS.296         	9.537          	3.835
MS.297         	9.52           	3.819
MS.298         	9.5            	3.861
MS.299         	9.483          	3.652
MS.300         	9.462          	3.817
MS.301         	9.445          	3.684
MS.302         	9.425          	3.758
MS.303         	9.405          	3.724
MS.304         	9.387          	3.553
MS.305         	9.367          	3.599
MS.306         	9.35           	3.674
MS.307         	9.33           	3.581
MS.308         	9.312          	3.48
MS.309         	9.295          	3.571
MS.310         	9.275          	3.42
MS.311         	9.257          	3.48
MS.312         	9.238          	3.567
MS.313         	9.22           	3.644
MS.314         	9.202          	3.428
MS.315         	9.182          	3.438
MS.316         	9.165          	3.335
MS.317         	9.148          	3.265
MS.318         	9.127          	3.491
MS.319         	9.11           	3.297
MS.320         	9.092          	3.237
MS.321         	9.073          	3.217
MS.322         	9.055          	3.261
MS.323         	9.037          	3.194
MS.324         	9.02           	3.474
MS.325         	9              	3.319
MS.326         	8.983          	3.241
MS.327         	8.965          	3.255
MS.328         	8.948          	3.168
MS.329         	8.93           	3.221
MS.330         	8.912          	3.14
MS.331         	8.895          	3.168
MS.332         	8.875          	3.231
MS.333         	8.858          	3.142
MS.334         	8.84           	3.18
MS.335         	8.823          	3.108
MS.336         	8.805          	2.906
MS.337         	8.787          	3.128
MS.338         	8.77           	3.035
MS.339         	8.752          	2.892
MS.340         	8.735          	2.786
MS.341         	8.717          	3.09
MS.342         	8.7            	2.967
MS.343         	8.682          	2.711
MS.344         	8.665          	2.842
MS.345         	8.648          	2.749
MS.346         	8.63           	2.51
MS.347         	8.613          	3.019
MS.348         	8.597          	2.564
MS.349         	8.58           	2.556
MS.350         	8.562          	2.729
MS.351         	8.545          	2.723
MS.352         	8.528          	2.846
MS.353         	8.51           	2.904
MS.354         	8.495          	2.498
MS.355         	8.477          	2.534
MS.356         	8.46           	2.359
MS.357         	8.443          	2.431
MS.358         	8.427          	2.673
MS.359         	8.41           	2.453
MS.360         	8.392          	2.633
MS.361         	8.375          	2.731
MS.362         	8.36           	2.427
MS.363         	8.342          	2.403
MS.364         	8.325          	2.383
MS.365         	8.31           	2.431
MS.366         	8.292          	2.425
MS.367         	8.275          	2.385
MS.368         	8.26           	2.421
MS.369         	8.242          	2.385
MS.370         	8.227          	2.369
MS.371         	8.21           	2.389
MS.372         	8.193          	2.463
MS.373         	8.177          	2.447
MS.374         	8.16           	2.429
MS.375         	8.145          	2.403
MS.376         	8.127          	2.409
MS.377         	8.113          	2.383
MS.378         	8.095          	2.371
MS.379         	8.08           	2.397
MS.380         	8.062          	2.387
MS.381         	8.047          	2.403
MS.382         	8.033          	2.397
MS.383         	8.015          	2.421
MS.384         	8              	2.326
MS.385         	7.982          	2.383
MS.386         	7.967          	2.316
MS.387         	7.952          	2.413
MS.388         	7.935          	2.34
MS.389         	7.92           	2.365
MS.390         	7.905          	2.405
MS.391         	7.887          	2.314
MS.392         	7.872          	2.377
MS.393         	7.857          	2.294
MS.394         	7.84           	2.203
MS.395         	7.825          	2.135
MS.396         	7.81           	2.077
MS.397         	7.795          	2.264
MS.398         	7.777          	2.145
MS.399         	7.762          	2.103
MS.400         	7.747          	2.016
MS.401         	7.732          	1.974
MS.402         	7.717          	2.165
MS.403         	7.7            	1.978
MS.404         	7.685          	2.008
MS.405         	7.67           	2.091
MS.406         	7.655          	1.954
MS.407         	7.64           	1.833
MS.408         	7.625          	1.932
MS.409         	7.61           	1.984
MS.410         	7.595          	1.797
MS.411         	7.58           	1.732
MS.412         	7.562          	1.627
MS.413         	7.547          	1.541
MS.414         	7.532          	1.684
MS.415         	7.517          	1.77
MS.416         	7.503          	1.708
MS.417         	7.487          	1.827
MS.418         	7.472          	1.396
MS.419         	7.457          	1.492
MS.420         	7.442          	1.462
MS.421         	7.427          	1.267
MS.422         	7.415          	1.154
MS.423         	7.4            	1.122
MS.424         	7.385          	1.329
MS.425         	7.37           	1.241
MS.426         	7.355          	1.46
MS.427         	7.34           	1.402
MS.428         	7.325          	0.822
MS.429         	7.31           	0.808
MS.430         	7.295          	0.963
MS.431         	7.282          	0.651
MS.432         	7.267          	0.908
MS.433         	7.253          	0.697
MS.434         	7.237          	0.808
MS.435         	7.222          	0.699
MS.436         	7.21           	0.52
MS.437         	7.195          	0.721
MS.438         	7.18           	0.651
MS.439         	7.165          	0.765
MS.440         	7.152          	0.614
MS.441         	7.137          	0.894
MS.442         	7.122          	0.757
MS.443         	7.11           	0.749
MS.444         	7.095          	0.471
MS.445         	7.08           	0.512
MS.446         	7.067          	0.419
MS.447         	7.052          	0.447
MS.448         	7.037          	0.614
MS.449         	7.025          	0.598
MS.450         	7.01           	0.481
MS.451         	6.995          	0.381
MS.452         	6.983          	0.389
MS.453         	6.967          	0.377
MS.454         	6.955          	0.391
MS.455         	6.94           	0.391
MS.456         	6.927          	0.391
MS.457         	6.912          	0.437
MS.458         	6.9            	0.336
MS.459         	6.885          	0.389
MS.460         	6.872          	0.383
MS.461         	6.858          	0.266
MS.462         	6.845          	0.336
MS.463         	6.83           	0.34
MS.464         	6.817          	0.359
MS.465         	6.802          	0.264
MS.466         	6.79           	0.324
MS.467         	6.775          	0.282
MS.468         	6.762          	0.298
MS.469         	6.747          	0.26
MS.470         	6.735          	0.266
MS.471         	6.722          	0.266
MS.472         	6.707          	0.26
MS.473         	6.695          	0.264
MS.474         	6.682          	0.258
MS.475         	6.668          	0.266
MS.476         	6.655          	0.262
MS.477         	6.642          	0.268
MS.478         	6.628          	0.264
MS.479         	6.615          	0.268
MS.480         	6.602          	0.264
MS.481         	6.587          	0.268
MS.482         	6.575          	0.266
MS.483         	6.562          	0.173
MS.484         	6.55           	0.26
MS.485         	6.535          	0.167
MS.486         	6.523          	0.135
MS.487         	6.51           	0.117
MS.488         	6.497          	0.266
MS.489         	6.485          	0.214
MS.490         	6.47           	0.256
MS.491         	6.457          	0.135
MS.492         	6.445          	0.137
MS.493         	6.432          	0.121
MS.494         	6.42           	0.075
MS.495         	6.407          	0.075
MS.496         	6.395          	0.179
MS.497         	6.38           	0.137
MS.498         	6.367          	0.159
MS.499         	6.355          	0.079
MS.500         	6.342          	0.075
MS.501         	6.33           	0.115
MS.502         	6.317          	0.083
MS.503         	6.305          	0.123
MS.504         	6.293          	0.077
MS.505         	6.28           	0.095
MS.506         	6.267          	0.077
MS.507         	6.255          	0.093
MS.508         	6.242          	0.075
MS.509         	6.23           	0.077
MS.510         	6.217          	0.077
MS.511         	6.205          	0.081
MS.512         	6.192          	0.093
MS.513         	6.18           	0.077
MS.514         	6.168          	0.075
MS.515         	6.155          	0.125
MS.516         	6.142          	0.121
MS.517         	6.13           	0.079
MS.518         	6.117          	0.079
MS.519         	6.108          	0.073
MS.520         	6.095          	0.077
MS.521         	6.082          	0.079
MS.522         	6.07           	0.081
MS.523         	6.057          	0.075
MS.524         	6.045          	0.075
MS.525         	6.032          	0.077
MS.526         	6.023          	0.079
MS.527         	6.01           	0.036
MS.528         	5.997          	0.075
MS.529         	5.985          	0.036
MS.530         	5.972          	0.018
MS.531         	5.963          	0.075
MS.532         	5.95           	0.073
MS.533         	5.938          	0.077
MS.534         	5.925          	0.075
MS.535         	5.915          	0.077
MS.536         	5.902          	0.034
MS.537         	5.89           	0.079
MS.538         	5.88           	0.075
MS.539         	5.867          	0.079
MS.540         	5.855          	0.077
MS.541         	5.842          	0.077
MS.542         	5.832          	0.04
MS.543         	5.82           	0.018
MS.544         	5.807          	0.058
MS.545         	5.797          	0.016
MS.546         	5.785          	0.06
MS.547         	5.775          	0.036
MS.548         	5.762          	0.018
MS.549         	5.75           	0.016
MS.550         	5.74           	0.014
MS.551         	5.727          	0.016
MS.552         	5.717          	0.02
MS.553         	5.705          	0.016
MS.554         	5.692          	0.06
MS.555         	5.682          	0.014
MS.556         	5.67           	0.02
MS.557         	5.66           	0.02
MS.558         	5.648          	0.016
MS.559         	5.637          	0.018
MS.560         	5.625          	0.01
MS.561         	5.615          	0.018
MS.562         	5.602          	0.016
MS.563         	5.592          	0.02
MS.564         	5.58           	0.02
MS.565         	5.57           	0.02
MS.566         	5.557          	0.014
MS.567         	5.547          	0.036
MS.568         	5.537          	0.02
MS.569         	5.525          	0.016
MS.570         	5.515          	0.02
MS.571         	5.503          	0.018
MS.572         	5.492          	0.018
MS.573         	5.483          	0.018
MS.574         	5.47           	0.016
MS.575         	5.46           	0.016
MS.576         	5.447          	0.02
MS.577         	5.438          	0.018
MS.578         	5.427          	0.018
MS.579         	5.415          	0.016
MS.580         	5.405          	0.018
MS.581         	5.395          	0.018
MS.582         	5.382          	0.018
DERIVED EXCITABILITY VARIABLES
Program = QTracP 3/4/2020
Threshold method = 6 (optimised for CAP, using data for present condition only)
SR method = 1 (using actual data values)
6.                 	0.000               	Peak response\(mV)
9.                 	33.1                	Temperature ( C)
17.                	28                  	Age (years)
18.                	2                   	Sex (M=1, F=2)

EXTRA VARIABLES

MScPeak(mV) = 7.98
MScS5(mA) = 6.94
MScS50(mA) = 9.7
MScS95(mA) = 12.46
MScNSteps = 0
MScSteps(%) = 0.0
MScStepMax(%) = 0.0
MScD50 = 60
MScSlope = 2.6
MSFPeakAmp(mV) = 8.15
MSFNUnits = 120
MSFMeanUnitAmp(uV) = 67.9
MSFHuntTime(m) = 3.01
MSFError(%) = 3.78
MSFNLarge = 33.34
MSFMedianAmp(%) = 0.701
MSFMedianAmp(mV) = 0.0572
MSFHalfAmpAmp(%) = 0.963
MSFHalfAmpAmp(mV) = 0.0784
MSFLargestAmp(%) = 4.06
MSFLargestAmp(mV) = 0.331
MSFMeanRS(%) = 2
MSFOpts = 10106121
MScDuration(min) = 5.3
MSFTraces = 498
MSFSizeLimit(uV) = 20.4
MSFLimitType = 1
MSFSmallestAmp(uV) = 24.7

EXTRA WAVEFORMS


!MScan Model
!120
	1	5.85	0.48	2
	2	6.22	0.41	2
	3	6.38	0.36	2
	4	6.5	0.98	2
	5	6.69	0.85	2.1
	6	6.77	0.31	2
	7	6.83	0.36	2
	8	6.88	0.46	2
	9	6.92	0.39	2
	10	6.99	0.76	2
	11	7.05	0.94	2
	12	7.21	2.73	2
	13	7.24	0.49	2
	14	7.28	1.2	2
	15	7.31	1.69	2
	16	7.35	0.97	2
	17	7.4	2.58	2
	18	7.44	1.63	2
	19	7.47	0.79	2
	20	7.5	0.54	2
	21	7.54	1.89	2
	22	7.58	1.26	2
	23	7.61	0.75	2
	24	7.64	1.7	2
	25	7.66	0.67	2
	26	7.7	1.26	2
	27	7.74	0.58	2
	28	7.76	0.37	2
	29	7.79	0.55	2
	30	7.81	0.5	2
	31	7.85	0.79	2
	32	8.37	1.09	2
	33	8.65	4.06	2
	34	8.72	1.15	2
	35	8.76	0.96	2
	36	8.8	0.85	2
	37	8.85	0.96	2
	38	8.91	0.83	2
	39	9.08	1.54	2
	40	9.12	0.39	2
	41	9.16	0.52	2
	42	9.26	1.45	2
	43	9.35	1.34	2
	44	9.38	0.3	2
	45	9.41	0.34	2
	46	9.43	0.41	2
	47	9.48	0.71	2
	48	9.54	0.72	2
	49	9.57	0.4	2
	50	9.6	0.56	2
	51	9.63	0.54	2
	52	9.67	0.82	2
	53	9.83	1.65	2
	54	9.87	0.34	2
	55	9.91	0.39	2
	56	9.95	0.57	2
	57	9.99	0.44	2
	58	10.03	0.55	2
	59	10.06	0.36	2
	60	10.08	0.51	2
	61	10.11	0.55	2
	62	10.13	0.45	2
	63	10.15	0.36	2
	64	10.19	0.5	2
	65	10.21	0.32	2
	66	10.22	0.33	2
	67	10.26	0.72	2
	68	10.31	0.96	2
	69	10.35	0.52	2
	70	10.39	0.38	2
	71	10.42	0.46	2
	72	10.46	0.53	2
	73	10.51	0.64	2
	74	10.55	0.72	2
	75	10.58	0.58	2
	76	10.62	0.7	2
	77	10.66	1.07	2
	78	10.75	1.63	2
	79	10.88	2.16	2
	80	10.93	0.79	2
	81	10.99	0.93	2
	82	11.05	0.65	2
	83	11.11	0.83	2
	84	11.18	0.81	2
	85	11.27	0.7	2
	86	11.42	0.98	2
	87	11.5	1.22	2
	88	11.53	0.79	2
	89	11.56	0.58	2
	90	11.61	0.89	2
	91	11.63	1.02	2
	92	11.68	1.7	2
	93	11.73	1.21	2
	94	11.79	1.68	2
	95	11.81	0.7	2
	96	11.85	1.42	2
	97	11.9	1	2
	98	11.95	0.63	2
	99	12	0.75	2
	100	12.04	0.76	2
	101	12.08	0.71	2
	102	12.11	0.53	2
	103	12.14	0.39	2
	104	12.16	0.36	2
	105	12.19	0.34	2
	106	12.21	0.39	2
	107	12.24	0.51	2
	108	12.28	0.48	2
	109	12.31	0.48	2
	110	12.34	0.44	2
	111	12.38	0.55	2
	112	12.42	0.46	2
	113	12.47	0.4	2
	114	12.66	1.37	2
	115	12.78	0.85	2
	116	12.92	0.98	2
	117	13.14	1.07	2
	118	13.4	0.7	2
	119	13.55	0.4	2
	120	13.91	0.98	2

