File:              	C:\Qtrac\Data\Daniel M Sørensen\MScan multicentre study\Data from centres\Bucharest\TDLC00129B.QZD
Name:              	RO.BU.NC.1.2
Protocol:          	MSCAN-R2
Date:              	29/1/20
Start time:        	11:29:56
Age:               	30
Sex:               	M
Temperature:       	36.3
S/R sites:         	ADM
NC/disease:        	RONC1.2
Operator:          	TL
Comments:
M-SCAN DATA (10.2-2.9m)
Scanpts: 16, 22, 407, 422
Stim. (mA)     	Amp. (mV)
MS.1           	26             	8.377
MS.2           	26             	8.407
MS.3           	26             	8.365
MS.4           	26             	8.349
MS.5           	26             	8.363
MS.6           	26             	8.349
MS.7           	26             	8.349
MS.8           	26             	8.351
MS.9           	26             	8.365
MS.10          	26             	8.407
MS.11          	26             	8.381
MS.12          	26             	8.385
MS.13          	26             	8.411
MS.14          	26             	8.433
MS.15          	26             	8.449
MS.16          	26             	8.409
MS.17          	26             	8.427
MS.18          	26             	8.419
MS.19          	26             	8.431
MS.20          	26             	8.425
MS.21          	26             	8.441
MS.22          	26             	8.401
MS.23          	26             	8.407
MS.24          	25.895         	8.425
MS.25          	25.845         	8.423
MS.26          	25.792         	8.405
MS.27          	25.74          	8.373
MS.28          	25.69          	8.451
MS.29          	25.637         	8.421
MS.30          	25.587         	8.375
MS.31          	25.535         	8.335
MS.32          	25.485         	8.357
MS.33          	25.435         	8.395
MS.34          	25.382         	8.349
MS.35          	25.332         	8.349
MS.36          	25.282         	8.349
MS.37          	25.233         	8.329
MS.38          	25.18          	8.379
MS.39          	25.13          	8.387
MS.40          	25.08          	8.363
MS.41          	25.03          	8.369
MS.42          	24.98          	8.381
MS.43          	24.93          	8.383
MS.44          	24.88          	8.377
MS.45          	24.83          	8.119
MS.46          	24.782         	8.393
MS.47          	24.733         	8.373
MS.48          	24.682         	8.407
MS.49          	24.632         	8.397
MS.50          	24.585         	8.135
MS.51          	24.535         	8.133
MS.52          	24.485         	8.151
MS.53          	24.438         	8.359
MS.54          	24.387         	8.335
MS.55          	24.34          	8.274
MS.56          	24.29          	8.363
MS.57          	24.243         	8.055
MS.58          	24.192         	8.27
MS.59          	24.145         	8.371
MS.60          	24.097         	8.117
MS.61          	24.05          	8.026
MS.62          	24             	8.135
MS.63          	23.952         	8.091
MS.64          	23.905         	8.071
MS.65          	23.858         	8.085
MS.66          	23.81          	8.079
MS.67          	23.762         	7.748
MS.68          	23.715         	8.312
MS.69          	23.667         	8.351
MS.70          	23.62          	8.093
MS.71          	23.573         	7.887
MS.72          	23.525         	7.732
MS.73          	23.477         	8.049
MS.74          	23.432         	8.016
MS.75          	23.385         	7.674
MS.76          	23.337         	7.595
MS.77          	23.292         	7.527
MS.78          	23.245         	7.646
MS.79          	23.198         	7.755
MS.80          	23.153         	7.918
MS.81          	23.105         	7.787
MS.82          	23.06          	7.569
MS.83          	23.015         	7.533
MS.84          	22.967         	7.501
MS.85          	22.922         	7.456
MS.86          	22.875         	7.408
MS.87          	22.83          	7.593
MS.88          	22.785         	7.378
MS.89          	22.74          	7.545
MS.90          	22.695         	7.706
MS.91          	22.647         	7.189
MS.92          	22.602         	7.18
MS.93          	22.557         	7.191
MS.94          	22.512         	7.122
MS.95          	22.467         	7.162
MS.96          	22.422         	7.052
MS.97          	22.377         	7.116
MS.98          	22.332         	6.963
MS.99          	22.29          	7.106
MS.100         	22.245         	7.011
MS.101         	22.2           	6.866
MS.102         	22.155         	6.911
MS.103         	22.112         	6.79
MS.104         	22.067         	6.971
MS.105         	22.022         	6.84
MS.106         	21.98          	6.858
MS.107         	21.935         	6.808
MS.108         	21.892         	6.89
MS.109         	21.847         	6.625
MS.110         	21.805         	6.766
MS.111         	21.76          	6.683
MS.112         	21.717         	6.568
MS.113         	21.672         	6.755
MS.114         	21.63          	6.355
MS.115         	21.587         	6.377
MS.116         	21.545         	6.659
MS.117         	21.5           	6.395
MS.118         	21.458         	6.202
MS.119         	21.415         	6.5
MS.120         	21.372         	6.361
MS.121         	21.33          	6.248
MS.122         	21.288         	6.457
MS.123         	21.245         	6.476
MS.124         	21.202         	6.268
MS.125         	21.16          	6.276
MS.126         	21.118         	6.417
MS.127         	21.075         	6.292
MS.128         	21.032         	6.212
MS.129         	20.99          	6.079
MS.130         	20.95          	6.19
MS.131         	20.907         	6.139
MS.132         	20.865         	6.042
MS.133         	20.823         	6.079
MS.134         	20.782         	5.996
MS.135         	20.74          	5.952
MS.136         	20.7           	6.067
MS.137         	20.657         	5.763
MS.138         	20.618         	5.887
MS.139         	20.575         	5.837
MS.140         	20.535         	5.728
MS.141         	20.493         	5.65
MS.142         	20.452         	5.831
MS.143         	20.413         	5.752
MS.144         	20.37          	5.428
MS.145         	20.33          	5.593
MS.146         	20.29          	5.448
MS.147         	20.247         	5.777
MS.148         	20.208         	5.571
MS.149         	20.167         	5.513
MS.150         	20.127         	5.547
MS.151         	20.087         	5.374
MS.152         	20.047         	5.396
MS.153         	20.007         	5.287
MS.154         	19.967         	5.263
MS.155         	19.927         	5.442
MS.156         	19.887         	5.404
MS.157         	19.847         	5.17
MS.158         	19.807         	5.273
MS.159         	19.767         	5.088
MS.160         	19.73          	5.106
MS.161         	19.69          	5.011
MS.162         	19.65          	5.098
MS.163         	19.61          	4.939
MS.164         	19.573         	4.838
MS.165         	19.532         	4.963
MS.166         	19.493         	4.806
MS.167         	19.455         	5.029
MS.168         	19.415         	4.735
MS.169         	19.377         	4.572
MS.170         	19.337         	4.88
MS.171         	19.3           	4.788
MS.172         	19.26          	4.794
MS.173         	19.222         	4.852
MS.174         	19.185         	4.816
MS.175         	19.145         	4.206
MS.176         	19.108         	4.379
MS.177         	19.07          	4.482
MS.178         	19.032         	4.03
MS.179         	18.993         	4.546
MS.180         	18.955         	3.972
MS.181         	18.917         	4.014
MS.182         	18.88          	4.059
MS.183         	18.842         	4.294
MS.184         	18.805         	3.909
MS.185         	18.767         	4.125
MS.186         	18.73          	3.877
MS.187         	18.692         	3.823
MS.188         	18.655         	4.055
MS.189         	18.618         	4.002
MS.190         	18.58          	3.775
MS.191         	18.542         	3.865
MS.192         	18.505         	3.783
MS.193         	18.47          	3.773
MS.194         	18.432         	3.773
MS.195         	18.395         	3.646
MS.196         	18.358         	3.521
MS.197         	18.323         	3.74
MS.198         	18.285         	3.696
MS.199         	18.247         	3.644
MS.200         	18.212         	3.837
MS.201         	18.175         	3.662
MS.202         	18.14          	3.621
MS.203         	18.102         	3.525
MS.204         	18.067         	3.521
MS.205         	18.03          	3.619
MS.206         	17.995         	3.337
MS.207         	17.96          	3.382
MS.208         	17.922         	3.319
MS.209         	17.887         	3.15
MS.210         	17.852         	3.299
MS.211         	17.815         	3.041
MS.212         	17.78          	3.434
MS.213         	17.745         	3.466
MS.214         	17.71          	2.908
MS.215         	17.675         	3.225
MS.216         	17.637         	3.259
MS.217         	17.602         	3.452
MS.218         	17.567         	2.838
MS.219         	17.532         	2.784
MS.220         	17.497         	3.031
MS.221         	17.462         	2.393
MS.222         	17.427         	2.898
MS.223         	17.392         	2.548
MS.224         	17.358         	2.765
MS.225         	17.325         	2.917
MS.226         	17.29          	2.574
MS.227         	17.255         	2.647
MS.228         	17.22          	2.604
MS.229         	17.185         	2.461
MS.230         	17.153         	2.433
MS.231         	17.118         	2.191
MS.232         	17.083         	2.099
MS.233         	17.05          	2.159
MS.234         	17.015         	2.248
MS.235         	16.98          	2.052
MS.236         	16.948         	1.95
MS.237         	16.913         	1.964
MS.238         	16.88          	2.032
MS.239         	16.845         	2.058
MS.240         	16.812         	1.984
MS.241         	16.778         	1.708
MS.242         	16.745         	1.863
MS.243         	16.712         	1.889
MS.244         	16.677         	1.682
MS.245         	16.645         	1.813
MS.246         	16.612         	1.907
MS.247         	16.577         	1.678
MS.248         	16.545         	1.569
MS.249         	16.512         	1.71
MS.250         	16.48          	1.551
MS.251         	16.445         	1.69
MS.252         	16.413         	1.766
MS.253         	16.38          	1.684
MS.254         	16.347         	1.688
MS.255         	16.315         	1.317
MS.256         	16.282         	1.44
MS.257         	16.25          	1.515
MS.258         	16.217         	1.386
MS.259         	16.185         	1.416
MS.260         	16.153         	1.273
MS.261         	16.12          	1.454
MS.262         	16.087         	1.454
MS.263         	16.055         	1.339
MS.264         	16.025         	1.237
MS.265         	15.992         	1.146
MS.266         	15.96          	1.19
MS.267         	15.927         	1.293
MS.268         	15.898         	1.045
MS.269         	15.865         	1.063
MS.270         	15.832         	1.112
MS.271         	15.802         	0.739
MS.272         	15.77          	0.916
MS.273         	15.737         	1.122
MS.274         	15.707         	0.872
MS.275         	15.675         	1.18
MS.276         	15.645         	1.086
MS.277         	15.612         	1.074
MS.278         	15.582         	1.088
MS.279         	15.55          	0.981
MS.280         	15.52          	0.85
MS.281         	15.487         	1.033
MS.282         	15.457         	0.759
MS.283         	15.427         	0.848
MS.284         	15.395         	0.832
MS.285         	15.365         	0.864
MS.286         	15.335         	0.788
MS.287         	15.302         	0.747
MS.288         	15.273         	0.624
MS.289         	15.242         	0.659
MS.290         	15.212         	0.737
MS.291         	15.182         	0.739
MS.292         	15.152         	0.729
MS.293         	15.12          	0.614
MS.294         	15.09          	0.759
MS.295         	15.06          	0.413
MS.296         	15.03          	0.657
MS.297         	15             	0.592
MS.298         	14.97          	0.371
MS.299         	14.94          	0.272
MS.300         	14.91          	0.62
MS.301         	14.88          	0.489
MS.302         	14.852         	0.29
MS.303         	14.822         	0.538
MS.304         	14.792         	0.29
MS.305         	14.762         	0.24
MS.306         	14.733         	0.377
MS.307         	14.702         	0.254
MS.308         	14.675         	0.234
MS.309         	14.645         	0.572
MS.310         	14.615         	0.216
MS.311         	14.587         	0.576
MS.312         	14.557         	0.258
MS.313         	14.527         	0.163
MS.314         	14.5           	0.308
MS.315         	14.47          	0.191
MS.316         	14.443         	0.151
MS.317         	14.412         	0.3
MS.318         	14.382         	0.157
MS.319         	14.355         	0.163
MS.320         	14.325         	0.139
MS.321         	14.297         	0.163
MS.322         	14.27          	0.209
MS.323         	14.24          	0.218
MS.324         	14.212         	0.151
MS.325         	14.182         	0.137
MS.326         	14.155         	0.101
MS.327         	14.127         	0.091
MS.328         	14.1           	0.125
MS.329         	14.07          	0.105
MS.330         	14.042         	0.125
MS.331         	14.015         	0.127
MS.332         	13.987         	0.117
MS.333         	13.957         	0.097
MS.334         	13.93          	0.115
MS.335         	13.903         	0.133
MS.336         	13.875         	0.095
MS.337         	13.847         	0.095
MS.338         	13.82          	0.097
MS.339         	13.792         	0.121
MS.340         	13.765         	0.089
MS.341         	13.737         	0.111
MS.342         	13.71          	0.097
MS.343         	13.682         	0.091
MS.344         	13.655         	0.099
MS.345         	13.627         	0.095
MS.346         	13.6           	0.093
MS.347         	13.572         	0.087
MS.348         	13.545         	0.087
MS.349         	13.52          	0.097
MS.350         	13.492         	0.089
MS.351         	13.465         	0.091
MS.352         	13.438         	0.093
MS.353         	13.41          	0.083
MS.354         	13.385         	0.091
MS.355         	13.358         	0.091
MS.356         	13.33          	0.091
MS.357         	13.305         	0.095
MS.358         	13.278         	0.081
MS.359         	13.252         	0.099
MS.360         	13.225         	0.091
MS.361         	13.197         	0.091
MS.362         	13.172         	0.093
MS.363         	13.145         	0.091
MS.364         	13.12          	0.095
MS.365         	13.092         	0.087
MS.366         	13.068         	0.087
MS.367         	13.04          	0.085
MS.368         	13.015         	0.085
MS.369         	12.99          	0.089
MS.370         	12.962         	0.085
MS.371         	12.938         	0.095
MS.372         	12.91          	0.083
MS.373         	12.885         	0.087
MS.374         	12.86          	0.087
MS.375         	12.835         	0.085
MS.376         	12.807         	0.091
MS.377         	12.782         	0.089
MS.378         	12.757         	0.093
MS.379         	12.733         	0.089
MS.380         	12.705         	0.087
MS.381         	12.68          	0.077
MS.382         	12.655         	0.087
MS.383         	12.63          	0.087
MS.384         	12.605         	0.089
MS.385         	12.58          	0.085
MS.386         	12.555         	0.083
MS.387         	12.53          	0.103
MS.388         	12.505         	0.081
MS.389         	12.48          	0.079
MS.390         	12.455         	0.083
MS.391         	12.43          	0.087
MS.392         	12.405         	0.089
MS.393         	12.38          	0.083
MS.394         	12.355         	0.083
MS.395         	12.33          	0.085
MS.396         	12.305         	0.087
MS.397         	12.282         	0.095
MS.398         	12.257         	0.085
MS.399         	12.233         	0.081
MS.400         	12.207         	0.091
MS.401         	12.182         	0.085
MS.402         	12.16          	0.079
MS.403         	12.135         	0.083
MS.404         	12.11          	0.087
MS.405         	12.087         	0.077
MS.406         	12.062         	0.081
MS.407         	12.037         	0.089
MS.408         	12.015         	0.075
MS.409         	11.99          	0.089
MS.410         	11.967         	0.081
MS.411         	11.943         	0.083
MS.412         	11.917         	0.091
MS.413         	11.895         	0.089
MS.414         	11.87          	0.083
MS.415         	11.847         	0.083
MS.416         	11.822         	0.085
MS.417         	11.8           	0.081
MS.418         	11.778         	0.089
MS.419         	11.752         	0.089
MS.420         	11.73          	0.081
MS.421         	11.705         	0.089
MS.422         	11.682         	0.093
MS.423         	11.66          	0.081
MS.424         	11.635         	0.085
MS.425         	11.613         	0.089
MS.426         	11.59          	0.089
MS.427         	11.568         	0.089
MS.428         	11.542         	0.066
MS.429         	11.52          	0.091
MS.430         	11.497         	0.079
MS.431         	11.475         	0.093
MS.432         	11.45          	0.081
MS.433         	11.427         	0.093
MS.434         	11.405         	0.093
MS.435         	11.382         	0.089
MS.436         	11.36          	0.091
MS.437         	11.337         	0.093
MS.438         	11.315         	0.087
MS.439         	11.292         	0.099
MS.440         	11.27          	0.103
MS.441         	11.247         	0.091
MS.442         	11.225         	0.091
MS.443         	11.202         	0.083
MS.444         	11.18          	0.083
MS.445         	11.157         	0.085
MS.446         	11.135         	0.091
MS.447         	11.113         	0.093
MS.448         	11.09          	0.081
MS.449         	11.068         	0.079
MS.450         	11.047         	0.089
MS.451         	11.025         	0.093
MS.452         	11.002         	0.101
MS.453         	10.98          	0.079
MS.454         	10.957         	0.079
MS.455         	10.938         	0.089
MS.456         	10.915         	0.083
MS.457         	10.892         	0.081
MS.458         	10.87          	0.091
MS.459         	10.85          	0.097
MS.460         	10.827         	0.077
MS.461         	10.805         	0.095
MS.462         	10.785         	0.079
MS.463         	10.762         	0.077
MS.464         	10.742         	0.083
MS.465         	10.72          	0.095
MS.466         	10.698         	0.079
MS.467         	10.677         	0.097
MS.468         	10.655         	0.101
MS.469         	10.635         	0.095
MS.470         	10.613         	0.087
MS.471         	10.592         	0.099
MS.472         	10.57          	0.101
MS.473         	10.55          	0.087
MS.474         	10.528         	0.093
MS.475         	10.507         	0.083
MS.476         	10.488         	0.081
MS.477         	10.465         	0.095
MS.478         	10.445         	0.077
MS.479         	10.425         	0.091
MS.480         	10.403         	0.091
MS.481         	10.382         	0.089
MS.482         	10.363         	0.099
MS.483         	10.34          	0.087
MS.484         	10.32          	0.099
MS.485         	10.3           	0.107
MS.486         	10.28          	0.103
MS.487         	10.257         	0.089
MS.488         	10.238         	0.099
MS.489         	10.217         	0.091
MS.490         	10.198         	0.083
MS.491         	10.177         	0.081
MS.492         	10.157         	0.099
MS.493         	10.135         	0.089
MS.494         	10.115         	0.107
MS.495         	10.095         	0.087
MS.496         	10.075         	0.079
MS.497         	10.055         	0.103
MS.498         	10.035         	0.105
MS.499         	10.015         	0.101
MS.500         	9.995          	0.103
MS.501         	9.975          	0.109
MS.502         	9.955          	0.097
MS.503         	9.935          	0.097
MS.504         	9.915          	0.111
MS.505         	9.895          	0.095
MS.506         	9.875          	0.105
MS.507         	9.855          	0.099
MS.508         	9.837          	0.091
MS.509         	9.818          	0.105
MS.510         	9.797          	0.099
MS.511         	9.778          	0.109
MS.512         	9.757          	0.095
MS.513         	9.738          	0.105
MS.514         	9.72           	0.099
MS.515         	9.7            	0.115
MS.516         	9.68           	0.107
MS.517         	9.66           	0.099
MS.518         	9.642          	0.101
MS.519         	9.622          	0.101
MS.520         	9.602          	0.107
MS.521         	9.585          	0.099
MS.522         	9.565          	0.097
MS.523         	9.545          	0.113
MS.524         	9.528          	0.095
MS.525         	9.507          	0.099
MS.526         	9.488          	0.141
MS.527         	9.47           	0.127
MS.528         	9.45           	0.105
MS.529         	9.432          	0.139
MS.530         	9.412          	0.117
MS.531         	9.395          	0.107
MS.532         	9.375          	0.119
MS.533         	9.358          	0.111
MS.534         	9.337          	0.109
MS.535         	9.32           	0.117
MS.536         	9.3            	0.099
MS.537         	9.283          	0.113
MS.538         	9.262          	0.115
MS.539         	9.245          	0.083
MS.540         	9.227          	0.113
MS.541         	9.207          	0.115
MS.542         	9.19           	0.107
MS.543         	9.172          	0.123
MS.544         	9.153          	0.113
MS.545         	9.135          	0.107
MS.546         	9.117          	0.097
MS.547         	9.097          	0.083
MS.548         	9.08           	0.107
MS.549         	9.062          	0.109
MS.550         	9.045          	0.113
MS.551         	9.025          	0.097
MS.552         	9.007          	0.087
MS.553         	8.99           	0.109
MS.554         	8.972          	0.107
MS.555         	8.955          	0.107
MS.556         	8.935          	0.101
MS.557         	8.917          	0.107
MS.558         	8.9            	0.093
MS.559         	8.882          	0.097
MS.560         	8.865          	0.105
MS.561         	8.847          	0.109
MS.562         	8.83           	0.097
MS.563         	8.812          	0.099
MS.564         	8.795          	0.109
MS.565         	8.778          	0.107
MS.566         	8.76           	0.099
MS.567         	8.742          	0.105
MS.568         	8.725          	0.099
MS.569         	8.707          	0.103
MS.570         	8.69           	0.097
MS.571         	8.672          	0.105
MS.572         	8.655          	0.103
MS.573         	8.637          	0.097
MS.574         	8.62           	0.103
MS.575         	8.602          	0.099
MS.576         	8.585          	0.105
MS.577         	8.568          	0.073
MS.578         	8.552          	0.093
MS.579         	8.535          	0.099
MS.580         	8.517          	0.101
MS.581         	8.5            	0.105
MS.582         	8.483          	0.097
MS.583         	8.467          	0.105
MS.584         	8.45           	0.101
MS.585         	8.432          	0.109
MS.586         	8.415          	0.099
MS.587         	8.4            	0.093
MS.588         	8.382          	0.101
MS.589         	8.365          	0.085
MS.590         	8.347          	0.099
MS.591         	8.332          	0.097
MS.592         	8.315          	0.095
MS.593         	8.297          	0.099
MS.594         	8.283          	0.085
MS.595         	8.265          	0.087
MS.596         	8.25           	0.093
MS.597         	8.233          	0.093
MS.598         	8.215          	0.097
MS.599         	8.2            	0.095
MS.600         	8.182          	0.091
MS.601         	8.167          	0.095
MS.602         	8.15           	0.095
MS.603         	8.135          	0.097
MS.604         	8.117          	0.091
MS.605         	8.102          	0.091
MS.606         	8.085          	0.091
MS.607         	8.07           	0.097
MS.608         	8.052          	0.07
MS.609         	8.037          	0.089
MS.610         	8.02           	0.099
MS.611         	8.005          	0.113
MS.612         	7.99           	0.091
MS.613         	7.972          	0.097
MS.614         	7.957          	0.099
MS.615         	7.942          	0.087
MS.616         	7.925          	0.079
MS.617         	7.91           	0.093
MS.618         	7.895          	0.077
MS.619         	7.878          	0.083
MS.620         	7.862          	0.091
MS.621         	7.847          	0.085
MS.622         	7.83           	0.081
MS.623         	7.815          	0.087
MS.624         	7.8            	0.085
MS.625         	7.785          	0.093
MS.626         	7.767          	0.089
MS.627         	7.753          	0.093
MS.628         	7.737          	0.095
MS.629         	7.722          	0.079
MS.630         	7.707          	0.073
MS.631         	7.692          	0.081
MS.632         	7.675          	0.068
MS.633         	7.66           	0.089
MS.634         	7.645          	0.081
MS.635         	7.63           	0.079
MS.636         	7.615          	0.081
MS.637         	7.6            	0.085
MS.638         	7.585          	0.079
MS.639         	7.57           	0.085
MS.640         	7.555          	0.083
MS.641         	7.54           	0.077
MS.642         	7.525          	0.091
MS.643         	7.51           	0.075
MS.644         	7.495          	0.073
MS.645         	7.48           	0.079
MS.646         	7.465          	0.079
MS.647         	7.45           	0.083
MS.648         	7.435          	0.083
MS.649         	7.42           	0.075
MS.650         	7.405          	0.085
MS.651         	7.39           	0.075
MS.652         	7.375          	0.077
MS.653         	7.36           	0.077
MS.654         	7.345          	0.077
MS.655         	7.33           	0.077
MS.656         	7.315          	0.085
MS.657         	7.302          	0.077
MS.658         	7.287          	0.081
MS.659         	7.273          	0.081
MS.660         	7.257          	0.079
MS.661         	7.242          	0.077
MS.662         	7.23           	0.081
MS.663         	7.215          	0.064
MS.664         	7.2            	0.077
MS.665         	7.185          	0.077
MS.666         	7.172          	0.07
MS.667         	7.157          	0.06
MS.668         	7.142          	0.091
MS.669         	7.128          	0.077
MS.670         	7.115          	0.073
MS.671         	7.1            	0.075
MS.672         	7.085          	0.075
MS.673         	7.072          	0.073
MS.674         	7.057          	0.083
MS.675         	7.043          	0.077
MS.676         	7.03           	0.073
MS.677         	7.015          	0.083
MS.678         	7.003          	0.081
MS.679         	6.987          	0.083
MS.680         	6.972          	0.079
MS.681         	6.96           	0.081
MS.682         	6.945          	0.075
MS.683         	6.932          	0.077
MS.684         	6.918          	0.075
MS.685         	6.905          	0.083
MS.686         	6.89           	0.068
MS.687         	6.878          	0.081
MS.688         	6.862          	0.068
MS.689         	6.85           	0.075
MS.690         	6.835          	0.085
MS.691         	6.822          	0.081
MS.692         	6.807          	0.075
MS.693         	6.795          	0.066
MS.694         	6.78           	0.075
MS.695         	6.767          	0.07
MS.696         	6.753          	0.085
MS.697         	6.74           	0.083
MS.698         	6.727          	0.087
MS.699         	6.712          	0.07
MS.700         	6.7            	0.073
MS.701         	6.688          	0.083
MS.702         	6.672          	0.073
MS.703         	6.66           	0.075
MS.704         	6.648          	0.073
MS.705         	6.632          	0.075
MS.706         	6.62           	0.077
MS.707         	6.608          	0.06
MS.708         	6.592          	0.042
MS.709         	6.58           	0.07
MS.710         	6.567          	0.062
MS.711         	6.555          	0.079
MS.712         	6.54           	0.077
MS.713         	6.527          	0.075
MS.714         	6.515          	0.075
MS.715         	6.503          	0.079
MS.716         	6.49           	0.04
MS.717         	6.475          	0.075
MS.718         	6.462          	0.07
MS.719         	6.45           	0.068
MS.720         	6.438          	0.079
MS.721         	6.425          	0.07
MS.722         	6.412          	0.052
MS.723         	6.398          	0.044
MS.724         	6.385          	0.068
MS.725         	6.372          	0.046
MS.726         	6.36           	0.07
MS.727         	6.347          	0.07
MS.728         	6.335          	0.075
MS.729         	6.322          	0.081
MS.730         	6.31           	0.05
MS.731         	6.297          	0.064
MS.732         	6.285          	0.056
MS.733         	6.273          	0.052
MS.734         	6.26           	0.028
MS.735         	6.247          	0.052
MS.736         	6.235          	0.073
MS.737         	6.222          	0.073
MS.738         	6.21           	0.052
MS.739         	6.197          	0.06
MS.740         	6.185          	0.046
MS.741         	6.172          	0.048
MS.742         	6.16           	0.046
MS.743         	6.148          	0.064
MS.744         	6.135          	0.058
MS.745         	6.122          	0.052
MS.746         	6.11           	0.052
MS.747         	6.1            	0.056
MS.748         	6.088          	0.064
MS.749         	6.075          	0.06
MS.750         	6.062          	0.054
MS.751         	6.05           	0.054
MS.752         	6.037          	0.058
MS.753         	6.025          	0.046
MS.754         	6.015          	0.052
MS.755         	6.003          	0.06
MS.756         	5.99           	0.046
MS.757         	5.977          	0.054
MS.758         	5.965          	0.05
MS.759         	5.955          	0.062
MS.760         	5.942          	0.056
MS.761         	5.93           	0.042
MS.762         	5.918          	0.056
MS.763         	5.907          	0.052
MS.764         	5.895          	0.056
MS.765         	5.882          	0.056
MS.766         	5.872          	0.048
MS.767         	5.86           	0.054
MS.768         	5.847          	0.046
MS.769         	5.838          	0.048
DERIVED EXCITABILITY VARIABLES
Program = QTracP 3/4/2020
Threshold method = 6 (optimised for CAP, using data for present condition only)
SR method = 1 (using actual data values)
6.                 	0.000               	Peak response\(mV)
9.                 	36.3                	Temperature ( C)
17.                	30                  	Age (years)
18.                	1                   	Sex (M=1, F=2)

EXTRA VARIABLES

MScPeak(mV) = 8.34
MScS5(mA) = 14.82
MScS50(mA) = 18.95
MScS95(mA) = 23.61
MScNSteps = 1
MScSteps(%) = 2.2
MScStepMax(%) = 2.2
MScD50 = 55
MScSlope = 4.36
MSFPeakAmp(mV) = 8.34
MSFNUnits = 100
MSFMeanUnitAmp(uV) = 83.4
MSFHuntTime(m) = 2
MSFError(%) = 5.43
MSFNLarge = 23.42
MSFMedianAmp(%) = 0.718
MSFMedianAmp(mV) = 0.0599
MSFHalfAmpAmp(%) = 1.41
MSFHalfAmpAmp(mV) = 0.117
MSFLargestAmp(%) = 3.9
MSFLargestAmp(mV) = 0.325
MSFMeanRS(%) = 2
MSFOpts = 10106121
MScDuration(min) = 7.3
MSFTraces = 407
MSFSizeLimit(uV) = 20.8
MSFLimitType = 1
MSFSmallestAmp(uV) = 21.6

EXTRA WAVEFORMS


!MScan Model
!100
	1	13.92	0.32	2
	2	14.16	0.34	2
	3	14.41	0.9	2
	4	14.88	2.46	2
	5	14.96	0.79	2
	6	15.04	1.13	2
	7	15.18	1.37	2
	8	15.29	0.86	2
	9	15.37	0.55	2
	10	15.42	0.62	2
	11	15.47	0.72	2
	12	15.83	1.93	2
	13	15.93	0.72	2
	14	16.05	2.09	2
	15	16.2	1.34	2
	16	16.32	1.49	2
	17	16.43	1.11	2
	18	16.62	1.56	2
	19	16.72	1.03	2
	20	16.79	0.72	2
	21	16.84	0.42	2
	22	16.89	0.61	2
	23	16.93	0.65	2
	24	16.96	0.39	2
	25	16.98	0.27	2
	26	17	0.27	2
	27	17.02	0.29	2
	28	17.04	0.35	2
	29	17.06	0.41	2
	30	17.08	0.5	2
	31	17.1	0.5	2
	32	17.12	0.5	2
	33	17.2	1.82	2
	34	17.3	1.45	2
	35	17.42	2.6	2
	36	17.55	1.71	2
	37	17.84	3.82	2
	38	17.97	1.89	2
	39	18.06	0.99	2
	40	18.15	0.77	2
	41	18.35	1.55	2
	42	18.44	0.46	2
	43	18.55	0.92	2
	44	18.68	1.41	2
	45	18.83	1.62	2
	46	18.94	1.27	2
	47	19.02	1.61	2
	48	19.02	0.4	2
	49	19.11	1.8	2
	50	19.22	0.69	2
	51	19.46	3.9	2
	52	19.5	0.26	2
	53	19.58	0.5	2
	54	19.62	0.51	2
	55	19.66	0.53	2
	56	19.71	0.62	2
	57	19.76	0.52	2
	58	19.8	0.5	2
	59	19.86	0.6	2
	60	19.97	1.57	2
	61	20.08	1.04	2
	62	20.2	0.85	2
	63	20.32	1.09	2
	64	20.44	1.24	2
	65	20.49	0.45	2
	66	20.53	0.37	2
	67	20.56	0.52	2
	68	20.6	0.45	2
	69	20.64	0.39	2
	70	20.68	0.35	2
	71	20.71	0.32	2
	72	20.74	0.32	2
	73	20.77	0.32	2
	74	20.8	0.35	2
	75	20.83	0.37	2
	76	20.87	0.37	2
	77	20.94	0.8	2
	78	21	0.53	2
	79	21.07	0.58	2
	80	21.44	2.33	2
	81	21.56	0.7	2
	82	21.63	0.29	2
	83	21.7	0.85	2
	84	21.83	1.82	2
	85	21.98	0.95	2
	86	22.09	1.07	2
	87	22.18	0.54	2
	88	22.24	0.37	2
	89	22.3	0.26	2
	90	22.37	0.52	2
	91	22.43	0.54	2
	92	22.5	0.85	2
	93	22.56	0.92	2
	94	22.66	1.23	2
	95	22.81	1.34	2
	96	23.17	2.63	2
	97	23.42	3.64	2
	98	23.92	1.89	2
	99	24.23	2.25	2
	100	25.5	0.86	2

