File:              	C:\Qtrac\Data\Daniel M Sørensen\MScan multicentre study\Data from centres\Bucharest\Processed data\TDLC01230B.QZD
Name:              	RO.BU.NC.9.1
Protocol:          	MSCAN-R2
Date:              	30/12/20
Start time:        	11:07:15
Age:               	35
Sex:               	M
Temperature:       	36.3
S/R sites:         	ADM
NC/disease:        	NC9
Operator:          	TL
Comments:          	RO.NC.9.1.
M-SCAN DATA (12.8-2m)
Scanpts: 282, 291, 997, 1035
Stim. (mA)     	Amp. (mV)
MS.1           	22.5           	9.199
MS.2           	22.5           	9.201
MS.3           	22.5           	9.203
MS.4           	22.5           	9.201
MS.5           	22.5           	9.215
MS.6           	22.5           	9.239
MS.7           	22.5           	9.229
MS.8           	22.5           	9.227
MS.9           	22.5           	9.255
MS.10          	22.5           	9.237
MS.11          	22.5           	9.255
MS.12          	22.5           	9.251
MS.13          	22.5           	9.251
MS.14          	22.5           	9.253
MS.15          	22.5           	9.243
MS.16          	22.5           	9.225
MS.17          	22.5           	9.247
MS.18          	22.5           	9.249
MS.19          	22.5           	9.293
MS.20          	22.5           	9.269
MS.21          	22.5           	9.269
MS.22          	22.5           	9.271
MS.23          	22.5           	9.269
MS.24          	22.41          	9.287
MS.25          	22.365         	9.277
MS.26          	22.32          	9.277
MS.27          	22.275         	9.275
MS.28          	22.233         	9.271
MS.29          	22.188         	9.283
MS.30          	22.142         	9.265
MS.31          	22.097         	9.277
MS.32          	22.055         	9.279
MS.33          	22.01          	9.287
MS.34          	21.967         	9.277
MS.35          	21.922         	9.279
MS.36          	21.877         	9.279
MS.37          	21.835         	9.275
MS.38          	21.792         	9.261
MS.39          	21.747         	9.293
MS.40          	21.705         	9.285
MS.41          	21.66          	9.275
MS.42          	21.618         	9.277
MS.43          	21.575         	9.303
MS.44          	21.532         	9.305
MS.45          	21.487         	9.277
MS.46          	21.445         	9.293
MS.47          	21.403         	9.291
MS.48          	21.36          	9.285
MS.49          	21.317         	9.283
MS.50          	21.275         	9.287
MS.51          	21.233         	9.289
MS.52          	21.19          	9.297
MS.53          	21.147         	9.293
MS.54          	21.105         	9.291
MS.55          	21.062         	9.285
MS.56          	21.02          	9.287
MS.57          	20.98          	9.311
MS.58          	20.938         	9.305
MS.59          	20.895         	9.305
MS.60          	20.852         	9.289
MS.61          	20.812         	9.279
MS.62          	20.77          	9.275
MS.63          	20.727         	9.279
MS.64          	20.688         	9.291
MS.65          	20.645         	9.305
MS.66          	20.605         	9.307
MS.67          	20.562         	9.326
MS.68          	20.522         	9.299
MS.69          	20.483         	9.305
MS.70          	20.44          	9.307
MS.71          	20.4           	9.311
MS.72          	20.36          	9.297
MS.73          	20.317         	9.315
MS.74          	20.278         	9.303
MS.75          	20.237         	9.33
MS.76          	20.198         	9.346
MS.77          	20.155         	9.344
MS.78          	20.115         	9.34
MS.79          	20.075         	9.36
MS.80          	20.035         	9.35
MS.81          	19.995         	9.36
MS.82          	19.955         	9.364
MS.83          	19.915         	9.368
MS.84          	19.875         	9.374
MS.85          	19.837         	9.382
MS.86          	19.797         	9.418
MS.87          	19.757         	9.39
MS.88          	19.717         	9.42
MS.89          	19.677         	9.42
MS.90          	19.64          	9.424
MS.91          	19.6           	9.398
MS.92          	19.56          	9.434
MS.93          	19.522         	9.424
MS.94          	19.483         	9.418
MS.95          	19.442         	9.436
MS.96          	19.405         	9.422
MS.97          	19.365         	9.428
MS.98          	19.327         	9.424
MS.99          	19.288         	9.432
MS.100         	19.25          	9.432
MS.101         	19.212         	9.42
MS.102         	19.172         	9.428
MS.103         	19.135         	9.44
MS.104         	19.097         	9.436
MS.105         	19.057         	9.438
MS.106         	19.02          	9.44
MS.107         	18.983         	9.426
MS.108         	18.945         	9.446
MS.109         	18.907         	9.448
MS.110         	18.87          	9.456
MS.111         	18.83          	9.432
MS.112         	18.792         	9.44
MS.113         	18.755         	9.426
MS.114         	18.717         	9.448
MS.115         	18.68          	9.465
MS.116         	18.645         	9.452
MS.117         	18.608         	9.469
MS.118         	18.57          	9.45
MS.119         	18.532         	9.442
MS.120         	18.495         	9.454
MS.121         	18.458         	9.465
MS.122         	18.422         	9.465
MS.123         	18.385         	9.452
MS.124         	18.347         	9.467
MS.125         	18.31          	9.463
MS.126         	18.275         	9.458
MS.127         	18.237         	9.461
MS.128         	18.202         	9.477
MS.129         	18.165         	9.475
MS.130         	18.13          	9.452
MS.131         	18.092         	9.471
MS.132         	18.057         	9.454
MS.133         	18.02          	9.458
MS.134         	17.985         	9.479
MS.135         	17.948         	9.467
MS.136         	17.913         	9.479
MS.137         	17.878         	9.473
MS.138         	17.84          	9.471
MS.139         	17.805         	9.483
MS.140         	17.77          	9.481
MS.141         	17.735         	9.479
MS.142         	17.7           	9.491
MS.143         	17.663         	9.483
MS.144         	17.628         	9.454
MS.145         	17.592         	9.471
MS.146         	17.557         	9.491
MS.147         	17.522         	9.495
MS.148         	17.487         	9.497
MS.149         	17.452         	9.515
MS.150         	17.417         	9.497
MS.151         	17.382         	9.489
MS.152         	17.347         	9.487
MS.153         	17.315         	9.497
MS.154         	17.28          	9.485
MS.155         	17.245         	9.487
MS.156         	17.21          	9.489
MS.157         	17.175         	9.485
MS.158         	17.142         	9.493
MS.159         	17.108         	9.511
MS.160         	17.073         	9.487
MS.161         	17.04          	9.503
MS.162         	17.005         	9.505
MS.163         	16.97          	9.507
MS.164         	16.938         	9.517
MS.165         	16.903         	9.503
MS.166         	16.87          	9.495
MS.167         	16.835         	9.507
MS.168         	16.802         	9.523
MS.169         	16.767         	9.529
MS.170         	16.735         	9.517
MS.171         	16.702         	9.539
MS.172         	16.667         	9.541
MS.173         	16.635         	9.521
MS.174         	16.602         	9.525
MS.175         	16.567         	9.529
MS.176         	16.535         	9.527
MS.177         	16.503         	9.515
MS.178         	16.47          	9.537
MS.179         	16.438         	9.533
MS.180         	16.405         	9.523
MS.181         	16.37          	9.543
MS.182         	16.337         	9.525
MS.183         	16.305         	9.541
MS.184         	16.272         	9.531
MS.185         	16.24          	9.529
MS.186         	16.208         	9.523
MS.187         	16.175         	9.531
MS.188         	16.142         	9.539
MS.189         	16.11          	9.531
MS.190         	16.08          	9.525
MS.191         	16.047         	9.541
MS.192         	16.015         	9.523
MS.193         	15.983         	9.529
MS.194         	15.95          	9.527
MS.195         	15.92          	9.509
MS.196         	15.887         	9.531
MS.197         	15.855         	9.539
MS.198         	15.822         	9.521
MS.199         	15.792         	9.517
MS.200         	15.76          	9.543
MS.201         	15.73          	9.529
MS.202         	15.697         	9.525
MS.203         	15.667         	9.545
MS.204         	15.635         	9.549
MS.205         	15.602         	9.543
MS.206         	15.572         	9.543
MS.207         	15.542         	9.541
MS.208         	15.51          	9.561
MS.209         	15.48          	9.543
MS.210         	15.447         	9.545
MS.211         	15.417         	9.527
MS.212         	15.387         	9.555
MS.213         	15.355         	9.555
MS.214         	15.325         	9.543
MS.215         	15.295         	9.537
MS.216         	15.265         	9.539
MS.217         	15.233         	9.537
MS.218         	15.202         	9.547
MS.219         	15.172         	9.527
MS.220         	15.142         	9.547
MS.221         	15.112         	9.529
MS.222         	15.082         	9.535
MS.223         	15.052         	9.529
MS.224         	15.023         	9.531
MS.225         	14.992         	9.557
MS.226         	14.962         	9.529
MS.227         	14.932         	9.545
MS.228         	14.902         	9.541
MS.229         	14.872         	9.541
MS.230         	14.842         	9.537
MS.231         	14.812         	9.535
MS.232         	14.782         	9.551
MS.233         	14.755         	9.535
MS.234         	14.725         	9.557
MS.235         	14.695         	9.537
MS.236         	14.665         	9.527
MS.237         	14.637         	9.541
MS.238         	14.608         	9.533
MS.239         	14.577         	9.549
MS.240         	14.55          	9.539
MS.241         	14.52          	9.545
MS.242         	14.49          	9.551
MS.243         	14.462         	9.541
MS.244         	14.432         	9.533
MS.245         	14.405         	9.553
MS.246         	14.375         	9.549
MS.247         	14.347         	9.567
MS.248         	14.318         	9.573
MS.249         	14.29          	9.565
MS.250         	14.26          	9.541
MS.251         	14.233         	9.547
MS.252         	14.205         	9.549
MS.253         	14.175         	9.563
MS.254         	14.148         	9.547
MS.255         	14.12          	9.571
MS.256         	14.09          	9.561
MS.257         	14.062         	9.561
MS.258         	14.035         	9.561
MS.259         	14.007         	9.539
MS.260         	13.977         	9.545
MS.261         	13.95          	9.541
MS.262         	13.922         	9.545
MS.263         	13.895         	9.553
MS.264         	13.867         	9.569
MS.265         	13.84          	9.529
MS.266         	13.812         	9.559
MS.267         	13.785         	9.547
MS.268         	13.757         	9.577
MS.269         	13.73          	9.563
MS.270         	13.702         	9.551
MS.271         	13.675         	9.557
MS.272         	13.648         	9.543
MS.273         	13.62          	9.557
MS.274         	13.592         	9.575
MS.275         	13.565         	9.563
MS.276         	13.537         	9.573
MS.277         	13.51          	9.559
MS.278         	13.485         	9.559
MS.279         	13.457         	9.559
MS.280         	13.43          	9.567
MS.281         	13.403         	9.571
MS.282         	13.377         	9.563
MS.283         	13.35          	9.559
MS.284         	13.322         	9.573
MS.285         	13.297         	9.569
MS.286         	13.27          	9.559
MS.287         	13.242         	9.549
MS.288         	13.217         	9.571
MS.289         	13.19          	9.593
MS.290         	13.165         	9.549
MS.291         	13.137         	9.581
MS.292         	13.112         	9.573
MS.293         	13.085         	9.581
MS.294         	13.06          	9.593
MS.295         	13.032         	9.602
MS.296         	13.007         	9.577
MS.297         	12.983         	9.577
MS.298         	12.955         	9.565
MS.299         	12.93          	9.577
MS.300         	12.903         	9.555
MS.301         	12.877         	9.565
MS.302         	12.852         	9.549
MS.303         	12.827         	9.553
MS.304         	12.8           	9.585
MS.305         	12.775         	9.573
MS.306         	12.75          	9.551
MS.307         	12.725         	9.539
MS.308         	12.7           	9.563
MS.309         	12.672         	9.559
MS.310         	12.648         	9.549
MS.311         	12.622         	9.545
MS.312         	12.597         	9.545
MS.313         	12.572         	9.549
MS.314         	12.547         	9.549
MS.315         	12.523         	9.565
MS.316         	12.497         	9.541
MS.317         	12.472         	9.545
MS.318         	12.447         	9.559
MS.319         	12.422         	9.535
MS.320         	12.398         	9.541
MS.321         	12.372         	9.549
MS.322         	12.347         	9.539
MS.323         	12.322         	9.551
MS.324         	12.3           	9.543
MS.325         	12.275         	9.547
MS.326         	12.25          	9.543
MS.327         	12.225         	9.543
MS.328         	12.2           	9.541
MS.329         	12.177         	9.527
MS.330         	12.153         	9.529
MS.331         	12.127         	9.543
MS.332         	12.102         	9.531
MS.333         	12.08          	9.547
MS.334         	12.055         	9.525
MS.335         	12.032         	9.535
MS.336         	12.007         	9.539
MS.337         	11.983         	9.535
MS.338         	11.96          	9.541
MS.339         	11.935         	9.519
MS.340         	11.912         	9.539
MS.341         	11.887         	9.527
MS.342         	11.865         	9.523
MS.343         	11.84          	9.529
MS.344         	11.818         	9.523
MS.345         	11.792         	9.531
MS.346         	11.77          	9.533
MS.347         	11.745         	9.535
MS.348         	11.722         	9.509
MS.349         	11.7           	9.481
MS.350         	11.675         	9.511
MS.351         	11.653         	9.529
MS.352         	11.63          	9.529
MS.353         	11.605         	9.477
MS.354         	11.582         	9.529
MS.355         	11.56          	9.509
MS.356         	11.537         	9.511
MS.357         	11.512         	9.491
MS.358         	11.49          	9.525
MS.359         	11.467         	9.515
MS.360         	11.445         	9.491
MS.361         	11.422         	9.511
MS.362         	11.4           	9.507
MS.363         	11.375         	9.495
MS.364         	11.352         	9.463
MS.365         	11.33          	9.517
MS.366         	11.307         	9.487
MS.367         	11.285         	9.491
MS.368         	11.262         	9.483
MS.369         	11.24          	9.483
MS.370         	11.217         	9.485
MS.371         	11.195         	9.446
MS.372         	11.172         	9.438
MS.373         	11.15          	9.461
MS.374         	11.127         	9.487
MS.375         	11.108         	9.485
MS.376         	11.085         	9.471
MS.377         	11.062         	9.467
MS.378         	11.04          	9.473
MS.379         	11.017         	9.456
MS.380         	10.995         	9.469
MS.381         	10.975         	9.471
MS.382         	10.952         	9.465
MS.383         	10.93          	9.467
MS.384         	10.907         	9.471
MS.385         	10.887         	9.487
MS.386         	10.865         	9.483
MS.387         	10.842         	9.493
MS.388         	10.82          	9.481
MS.389         	10.8           	9.501
MS.390         	10.778         	9.471
MS.391         	10.757         	9.477
MS.392         	10.735         	9.458
MS.393         	10.712         	9.463
MS.394         	10.693         	9.463
MS.395         	10.67          	9.36
MS.396         	10.65          	9.491
MS.397         	10.627         	9.499
MS.398         	10.608         	9.497
MS.399         	10.585         	9.471
MS.400         	10.565         	9.475
MS.401         	10.542         	9.452
MS.402         	10.523         	9.458
MS.403         	10.502         	9.426
MS.404         	10.48          	9.469
MS.405         	10.46          	9.477
MS.406         	10.438         	9.458
MS.407         	10.417         	9.418
MS.408         	10.398         	9.41
MS.409         	10.375         	9.36
MS.410         	10.355         	9.434
MS.411         	10.335         	9.311
MS.412         	10.315         	9.324
MS.413         	10.292         	9.338
MS.414         	10.273         	9.338
MS.415         	10.252         	9.257
MS.416         	10.233         	9.273
MS.417         	10.212         	9.243
MS.418         	10.19          	9.253
MS.419         	10.17          	9.209
MS.420         	10.15          	9.275
MS.421         	10.13          	9.279
MS.422         	10.11          	9.227
MS.423         	10.09          	9.205
MS.424         	10.07          	9.243
MS.425         	10.05          	9.207
MS.426         	10.03          	9.261
MS.427         	10.01          	9.213
MS.428         	9.99           	9.223
MS.429         	9.97           	9.201
MS.430         	9.95           	9.211
MS.431         	9.93           	9.211
MS.432         	9.91           	9.189
MS.433         	9.89           	9.174
MS.434         	9.87           	9.185
MS.435         	9.85           	9.187
MS.436         	9.83           	9.183
MS.437         	9.81           	9.183
MS.438         	9.792          	9.17
MS.439         	9.773          	9.136
MS.440         	9.752          	9.138
MS.441         	9.733          	9.158
MS.442         	9.712          	9.148
MS.443         	9.695          	9.177
MS.444         	9.675          	9.136
MS.445         	9.655          	9.183
MS.446         	9.635          	9.15
MS.447         	9.617          	9.094
MS.448         	9.597          	9.092
MS.449         	9.577          	9.102
MS.450         	9.56           	9.09
MS.451         	9.54           	9.086
MS.452         	9.52           	9.08
MS.453         	9.502          	9.054
MS.454         	9.483          	9.05
MS.455         	9.465          	8.919
MS.456         	9.445          	8.995
MS.457         	9.427          	9.06
MS.458         	9.407          	8.903
MS.459         	9.387          	8.971
MS.460         	9.37           	8.933
MS.461         	9.352          	8.945
MS.462         	9.332          	8.86
MS.463         	9.315          	8.901
MS.464         	9.295          	8.862
MS.465         	9.278          	8.911
MS.466         	9.257          	8.866
MS.467         	9.24           	8.866
MS.468         	9.222          	8.87
MS.469         	9.202          	8.846
MS.470         	9.185          	8.836
MS.471         	9.165          	8.774
MS.472         	9.148          	8.806
MS.473         	9.13           	8.822
MS.474         	9.113          	8.784
MS.475         	9.092          	8.639
MS.476         	9.075          	8.679
MS.477         	9.057          	8.741
MS.478         	9.037          	8.613
MS.479         	9.02           	8.768
MS.480         	9.002          	8.623
MS.481         	8.985          	8.665
MS.482         	8.967          	8.56
MS.483         	8.948          	8.574
MS.484         	8.93           	8.552
MS.485         	8.912          	8.568
MS.486         	8.895          	8.576
MS.487         	8.877          	8.498
MS.488         	8.86           	8.47
MS.489         	8.842          	8.562
MS.490         	8.825          	8.558
MS.491         	8.807          	8.534
MS.492         	8.79           	8.502
MS.493         	8.773          	8.391
MS.494         	8.755          	8.524
MS.495         	8.738          	8.536
MS.496         	8.72           	8.49
MS.497         	8.702          	8.49
MS.498         	8.685          	8.472
MS.499         	8.667          	8.429
MS.500         	8.65           	8.387
MS.501         	8.632          	8.286
MS.502         	8.615          	8.407
MS.503         	8.597          	8.443
MS.504         	8.58           	8.341
MS.505         	8.562          	8.351
MS.506         	8.547          	8.274
MS.507         	8.53           	8.353
MS.508         	8.512          	8.373
MS.509         	8.495          	8.242
MS.510         	8.477          	8.282
MS.511         	8.462          	8.19
MS.512         	8.445          	8.159
MS.513         	8.427          	8.284
MS.514         	8.41           	8.22
MS.515         	8.395          	8.182
MS.516         	8.377          	8.103
MS.517         	8.36           	8.242
MS.518         	8.342          	8.196
MS.519         	8.327          	8.196
MS.520         	8.31           	8.067
MS.521         	8.295          	8.069
MS.522         	8.278          	8.079
MS.523         	8.26           	8.036
MS.524         	8.245          	7.984
MS.525         	8.227          	7.984
MS.526         	8.212          	8.006
MS.527         	8.195          	7.962
MS.528         	8.177          	8.018
MS.529         	8.162          	8.028
MS.530         	8.145          	8.129
MS.531         	8.13           	7.898
MS.532         	8.113          	7.948
MS.533         	8.097          	7.94
MS.534         	8.08           	8.111
MS.535         	8.065          	7.992
MS.536         	8.047          	7.948
MS.537         	8.033          	7.94
MS.538         	8.017          	8.018
MS.539         	8              	8.039
MS.540         	7.985          	7.962
MS.541         	7.967          	7.817
MS.542         	7.952          	7.827
MS.543         	7.938          	7.71
MS.544         	7.92           	7.988
MS.545         	7.905          	7.855
MS.546         	7.89           	7.849
MS.547         	7.872          	7.809
MS.548         	7.857          	7.849
MS.549         	7.842          	7.871
MS.550         	7.827          	7.837
MS.551         	7.81           	7.744
MS.552         	7.795          	7.736
MS.553         	7.78           	7.708
MS.554         	7.765          	7.73
MS.555         	7.747          	7.601
MS.556         	7.732          	7.72
MS.557         	7.717          	7.668
MS.558         	7.702          	7.616
MS.559         	7.688          	7.718
MS.560         	7.672          	7.487
MS.561         	7.655          	7.704
MS.562         	7.64           	7.614
MS.563         	7.625          	7.499
MS.564         	7.61           	7.525
MS.565         	7.595          	7.517
MS.566         	7.58           	7.458
MS.567         	7.565          	7.442
MS.568         	7.55           	7.513
MS.569         	7.535          	7.414
MS.570         	7.52           	7.444
MS.571         	7.505          	7.412
MS.572         	7.49           	7.364
MS.573         	7.475          	7.386
MS.574         	7.46           	7.261
MS.575         	7.445          	7.495
MS.576         	7.43           	7.344
MS.577         	7.415          	7.362
MS.578         	7.4            	7.307
MS.579         	7.385          	7.221
MS.580         	7.37           	7.142
MS.581         	7.355          	7.209
MS.582         	7.342          	7.229
MS.583         	7.327          	7.209
MS.584         	7.312          	7.12
MS.585         	7.297          	7.18
MS.586         	7.282          	7.16
MS.587         	7.267          	7.09
MS.588         	7.253          	7.1
MS.589         	7.24           	7.033
MS.590         	7.225          	7.052
MS.591         	7.21           	7.118
MS.592         	7.195          	7.185
MS.593         	7.182          	6.991
MS.594         	7.168          	7.08
MS.595         	7.152          	7.054
MS.596         	7.137          	6.905
MS.597         	7.125          	7.007
MS.598         	7.11           	6.961
MS.599         	7.095          	7.058
MS.600         	7.082          	7.027
MS.601         	7.067          	6.935
MS.602         	7.052          	6.925
MS.603         	7.04           	6.927
MS.604         	7.025          	6.751
MS.605         	7.01           	6.927
MS.606         	6.997          	6.834
MS.607         	6.983          	6.661
MS.608         	6.97           	6.651
MS.609         	6.955          	6.633
MS.610         	6.942          	6.711
MS.611         	6.927          	6.816
MS.612         	6.912          	6.681
MS.613         	6.9            	6.864
MS.614         	6.885          	6.506
MS.615         	6.872          	6.556
MS.616         	6.858          	6.701
MS.617         	6.845          	6.576
MS.618         	6.832          	6.6
MS.619         	6.817          	6.57
MS.620         	6.805          	6.417
MS.621         	6.79           	6.453
MS.622         	6.777          	6.316
MS.623         	6.762          	6.502
MS.624         	6.75           	6.645
MS.625         	6.737          	6.441
MS.626         	6.722          	6.457
MS.627         	6.71           	6.445
MS.628         	6.695          	6.427
MS.629         	6.682          	6.602
MS.630         	6.67           	6.512
MS.631         	6.655          	6.185
MS.632         	6.642          	6.24
MS.633         	6.63           	6.441
MS.634         	6.615          	6.236
MS.635         	6.602          	6.244
MS.636         	6.59           	6.192
MS.637         	6.577          	6.077
MS.638         	6.562          	6.389
MS.639         	6.55           	6.147
MS.640         	6.537          	6.171
MS.641         	6.525          	6.04
MS.642         	6.51           	5.972
MS.643         	6.497          	6.19
MS.644         	6.485          	5.944
MS.645         	6.472          	6.083
MS.646         	6.46           	6.109
MS.647         	6.447          	6.089
MS.648         	6.432          	6.141
MS.649         	6.42           	5.875
MS.650         	6.407          	5.807
MS.651         	6.395          	5.869
MS.652         	6.382          	5.752
MS.653         	6.37           	5.809
MS.654         	6.358          	5.845
MS.655         	6.345          	5.956
MS.656         	6.332          	5.722
MS.657         	6.317          	5.775
MS.658         	6.305          	5.712
MS.659         	6.293          	5.617
MS.660         	6.28           	5.575
MS.661         	6.267          	5.801
MS.662         	6.255          	5.65
MS.663         	6.242          	5.483
MS.664         	6.23           	5.213
MS.665         	6.217          	5.398
MS.666         	6.205          	5.438
MS.667         	6.192          	5.535
MS.668         	6.18           	5.374
MS.669         	6.17           	5.342
MS.670         	6.157          	5.462
MS.671         	6.145          	5.241
MS.672         	6.132          	5.388
MS.673         	6.12           	5.078
MS.674         	6.108          	5.235
MS.675         	6.095          	4.947
MS.676         	6.082          	4.981
MS.677         	6.07           	4.87
MS.678         	6.06           	4.834
MS.679         	6.047          	4.838
MS.680         	6.035          	4.991
MS.681         	6.023          	5.261
MS.682         	6.01           	4.566
MS.683         	5.997          	4.488
MS.684         	5.987          	4.423
MS.685         	5.975          	4.465
MS.686         	5.963          	4.552
MS.687         	5.95           	4.552
MS.688         	5.94           	4.441
MS.689         	5.927          	4.484
MS.690         	5.915          	4.415
MS.691         	5.902          	4.208
MS.692         	5.892          	4.228
MS.693         	5.88           	4.252
MS.694         	5.867          	4.3
MS.695         	5.858          	4.208
MS.696         	5.845          	4.093
MS.697         	5.832          	3.793
MS.698         	5.82           	4.063
MS.699         	5.81           	4.055
MS.700         	5.797          	4.02
MS.701         	5.787          	4.109
MS.702         	5.775          	3.952
MS.703         	5.762          	3.877
MS.704         	5.753          	3.885
MS.705         	5.74           	3.714
MS.706         	5.73           	3.855
MS.707         	5.717          	3.873
MS.708         	5.705          	4.004
MS.709         	5.695          	3.704
MS.710         	5.682          	3.962
MS.711         	5.672          	3.734
MS.712         	5.66           	4.103
MS.713         	5.65           	3.692
MS.714         	5.637          	3.652
MS.715         	5.628          	3.567
MS.716         	5.615          	3.444
MS.717         	5.605          	3.418
MS.718         	5.592          	3.241
MS.719         	5.582          	3.178
MS.720         	5.57           	3.124
MS.721         	5.56           	3.072
MS.722         	5.547          	3.198
MS.723         	5.537          	3.057
MS.724         	5.527          	2.771
MS.725         	5.515          	3.108
MS.726         	5.505          	2.826
MS.727         	5.492          	3.072
MS.728         	5.483          	3.08
MS.729         	5.472          	2.691
MS.730         	5.46           	2.717
MS.731         	5.45           	2.687
MS.732         	5.438          	2.771
MS.733         	5.427          	2.61
MS.734         	5.418          	2.437
MS.735         	5.405          	2.389
MS.736         	5.395          	2.578
MS.737         	5.385          	2.753
MS.738         	5.372          	2.389
MS.739         	5.362          	2.399
MS.740         	5.352          	2.371
MS.741         	5.342          	2.214
MS.742         	5.33           	2.373
MS.743         	5.32           	2.286
MS.744         	5.31           	2.199
MS.745         	5.3            	2.264
MS.746         	5.287          	2.135
MS.747         	5.277          	2.075
MS.748         	5.267          	2.111
MS.749         	5.257          	2.242
MS.750         	5.245          	1.946
MS.751         	5.235          	2.199
MS.752         	5.225          	1.968
MS.753         	5.215          	1.97
MS.754         	5.205          	1.974
MS.755         	5.195          	1.956
MS.756         	5.182          	1.962
MS.757         	5.172          	1.843
MS.758         	5.162          	1.797
MS.759         	5.152          	1.805
MS.760         	5.142          	1.805
MS.761         	5.132          	1.845
MS.762         	5.122          	1.817
MS.763         	5.112          	1.65
MS.764         	5.102          	1.77
MS.765         	5.09           	1.609
MS.766         	5.08           	1.583
MS.767         	5.07           	1.613
MS.768         	5.06           	1.638
MS.769         	5.05           	1.664
MS.770         	5.04           	1.537
MS.771         	5.03           	1.623
MS.772         	5.02           	1.446
MS.773         	5.01           	1.412
MS.774         	5              	1.313
MS.775         	4.99           	1.287
MS.776         	4.98           	1.217
MS.777         	4.97           	1.384
MS.778         	4.96           	1.319
MS.779         	4.95           	1.444
MS.780         	4.94           	1.317
MS.781         	4.93           	1.275
MS.782         	4.92           	1.384
MS.783         	4.91           	1.343
MS.784         	4.902          	1.382
MS.785         	4.892          	1.343
MS.786         	4.882          	1.271
MS.787         	4.872          	1.18
MS.788         	4.862          	1.283
MS.789         	4.852          	1.307
MS.790         	4.842          	1.251
MS.791         	4.832          	1.392
MS.792         	4.822          	1.267
MS.793         	4.815          	1.186
MS.794         	4.805          	1.261
MS.795         	4.795          	1.466
MS.796         	4.785          	1.049
MS.797         	4.775          	1.448
MS.798         	4.765          	1.084
MS.799         	4.757          	1.122
MS.800         	4.747          	0.953
MS.801         	4.737          	1.076
MS.802         	4.727          	1.166
MS.803         	4.717          	1.082
MS.804         	4.71           	1.112
MS.805         	4.7            	0.981
MS.806         	4.69           	0.884
MS.807         	4.68           	0.882
MS.808         	4.673          	0.989
MS.809         	4.662          	1.017
MS.810         	4.652          	1.027
MS.811         	4.642          	0.983
MS.812         	4.635          	1.086
MS.813         	4.625          	0.836
MS.814         	4.615          	0.826
MS.815         	4.608          	0.92
MS.816         	4.597          	0.618
MS.817         	4.588          	0.489
MS.818         	4.58           	0.697
MS.819         	4.57           	0.735
MS.820         	4.56           	0.58
MS.821         	4.552          	0.663
MS.822         	4.543          	0.786
MS.823         	4.532          	0.649
MS.824         	4.525          	0.562
MS.825         	4.515          	0.602
MS.826         	4.507          	0.568
MS.827         	4.497          	0.357
MS.828         	4.487          	0.632
MS.829         	4.48           	0.365
MS.830         	4.47           	0.371
MS.831         	4.463          	0.334
MS.832         	4.452          	0.357
MS.833         	4.445          	0.314
MS.834         	4.435          	0.54
MS.835         	4.425          	0.568
MS.836         	4.418          	0.292
MS.837         	4.407          	0.504
MS.838         	4.4            	0.27
MS.839         	4.39           	0.214
MS.840         	4.382          	0.276
MS.841         	4.372          	0.268
MS.842         	4.365          	0.211
MS.843         	4.355          	0.226
MS.844         	4.347          	0.28
MS.845         	4.338          	0.222
MS.846         	4.33           	0.193
MS.847         	4.32           	0.27
MS.848         	4.312          	0.262
MS.849         	4.305          	0.201
MS.850         	4.295          	0.278
MS.851         	4.287          	0.334
MS.852         	4.277          	0.306
MS.853         	4.27           	0.59
MS.854         	4.26           	0.26
MS.855         	4.253          	0.365
MS.856         	4.245          	0.316
MS.857         	4.235          	0.236
MS.858         	4.227          	0.367
MS.859         	4.217          	0.457
MS.860         	4.21           	0.226
MS.861         	4.202          	0.272
MS.862         	4.193          	0.322
MS.863         	4.185          	0.242
MS.864         	4.177          	0.159
MS.865         	4.168          	0.207
MS.866         	4.16           	0.258
MS.867         	4.152          	0.22
MS.868         	4.142          	0.173
MS.869         	4.135          	0.232
MS.870         	4.128          	0.129
MS.871         	4.117          	0.141
MS.872         	4.11           	0.246
MS.873         	4.102          	0.141
MS.874         	4.095          	0.234
MS.875         	4.085          	0.143
MS.876         	4.077          	0.139
MS.877         	4.07           	0.163
MS.878         	4.062          	0.127
MS.879         	4.052          	0.171
MS.880         	4.045          	0.179
MS.881         	4.037          	0.177
MS.882         	4.03           	0.173
MS.883         	4.02           	0.137
MS.884         	4.012          	0.133
MS.885         	4.005          	0.133
MS.886         	3.997          	0.079
MS.887         	3.99           	0.125
MS.888         	3.98           	0.155
MS.889         	3.972          	0.083
MS.890         	3.965          	0.137
MS.891         	3.957          	0.058
MS.892         	3.95           	0.107
MS.893         	3.942          	0.113
MS.894         	3.932          	0.203
MS.895         	3.925          	0.064
MS.896         	3.918          	0.131
MS.897         	3.91           	0.107
MS.898         	3.902          	0.109
MS.899         	3.895          	0.133
MS.900         	3.887          	0.103
MS.901         	3.877          	0.093
MS.902         	3.87           	0.062
MS.903         	3.862          	0.101
MS.904         	3.855          	0.131
MS.905         	3.847          	0.062
MS.906         	3.84           	0.095
MS.907         	3.832          	0.113
MS.908         	3.825          	0.073
MS.909         	3.817          	0.077
MS.910         	3.81           	0.06
MS.911         	3.803          	0.091
MS.912         	3.795          	0.075
MS.913         	3.787          	0.068
MS.914         	3.78           	0.068
MS.915         	3.772          	0.075
MS.916         	3.765          	0.075
MS.917         	3.757          	0.073
MS.918         	3.75           	0.068
MS.919         	3.742          	0.064
MS.920         	3.735          	0.077
MS.921         	3.727          	0.068
MS.922         	3.72           	0.062
MS.923         	3.712          	0.079
MS.924         	3.705          	0.06
MS.925         	3.697          	0.068
MS.926         	3.69           	0.075
MS.927         	3.682          	0.064
MS.928         	3.675          	0.075
MS.929         	3.668          	0.064
MS.930         	3.66           	0.066
MS.931         	3.652          	0.058
MS.932         	3.645          	0.068
MS.933         	3.637          	0.058
MS.934         	3.63           	0.058
MS.935         	3.625          	0.052
MS.936         	3.617          	0.056
MS.937         	3.61           	0.066
MS.938         	3.602          	0.054
MS.939         	3.595          	0.06
MS.940         	3.587          	0.064
MS.941         	3.58           	0.064
MS.942         	3.572          	0.058
MS.943         	3.565          	0.066
MS.944         	3.56           	0.054
MS.945         	3.553          	0.06
MS.946         	3.545          	0.056
MS.947         	3.537          	0.054
MS.948         	3.53           	0.052
MS.949         	3.523          	0.054
MS.950         	3.517          	0.054
MS.951         	3.51           	0.058
MS.952         	3.502          	0.058
MS.953         	3.495          	0.058
MS.954         	3.487          	0.054
MS.955         	3.482          	0.062
MS.956         	3.475          	0.056
MS.957         	3.467          	0.056
MS.958         	3.46           	0.062
MS.959         	3.455          	0.058
MS.960         	3.447          	0.06
MS.961         	3.44           	0.052
MS.962         	3.432          	0.062
MS.963         	3.428          	0.066
MS.964         	3.42           	0.062
MS.965         	3.412          	0.06
MS.966         	3.405          	0.064
MS.967         	3.4            	0.064
MS.968         	3.392          	0.064
MS.969         	3.385          	0.062
MS.970         	3.38           	0.06
MS.971         	3.372          	0.068
MS.972         	3.365          	0.073
MS.973         	3.357          	0.064
MS.974         	3.352          	0.066
MS.975         	3.345          	0.066
MS.976         	3.337          	0.064
MS.977         	3.332          	0.066
MS.978         	3.325          	0.066
MS.979         	3.317          	0.07
MS.980         	3.312          	0.062
MS.981         	3.305          	0.06
MS.982         	3.297          	0.056
MS.983         	3.293          	0.066
MS.984         	3.285          	0.066
MS.985         	3.28           	0.064
MS.986         	3.273          	0.062
MS.987         	3.265          	0.062
MS.988         	3.26           	0.06
MS.989         	3.252          	0.06
MS.990         	3.247          	0.06
MS.991         	3.24           	0.06
MS.992         	3.232          	0.066
MS.993         	3.227          	0.058
MS.994         	3.22           	0.066
MS.995         	3.215          	0.062
MS.996         	3.207          	0.06
MS.997         	3.2            	0.058
MS.998         	3.195          	0.064
MS.999         	3.188          	0.06
MS.1000        	3.182          	0.062
MS.1001        	3.175          	0.062
MS.1002        	3.17           	0.058
MS.1003        	3.162          	0.058
MS.1004        	3.158          	0.06
MS.1005        	3.15           	0.056
MS.1006        	3.145          	0.06
MS.1007        	3.138          	0.058
MS.1008        	3.132          	0.056
MS.1009        	3.125          	0.058
MS.1010        	3.12           	0.056
MS.1011        	3.112          	0.056
MS.1012        	3.107          	0.06
MS.1013        	3.1            	0.062
MS.1014        	3.095          	0.056
MS.1015        	3.087          	0.06
MS.1016        	3.082          	0.06
MS.1017        	3.075          	0.06
MS.1018        	3.07           	0.062
MS.1019        	3.062          	0.06
MS.1020        	3.057          	0.058
MS.1021        	3.05           	0.056
MS.1022        	3.045          	0.056
MS.1023        	3.04           	0.06
MS.1024        	3.033          	0.054
MS.1025        	3.027          	0.054
MS.1026        	3.02           	0.056
MS.1027        	3.015          	0.054
MS.1028        	3.007          	0.06
MS.1029        	3.002          	0.056
MS.1030        	2.997          	0.052
MS.1031        	2.99           	0.054
MS.1032        	2.985          	0.05
MS.1033        	2.98           	0.054
MS.1034        	2.972          	0.054
MS.1035        	2.967          	0.056
MS.1036        	2.96           	0.058
MS.1037        	2.955          	0.052
MS.1038        	2.95           	0.05
MS.1039        	2.942          	0.052
MS.1040        	2.938          	0.062
MS.1041        	2.932          	0.056
MS.1042        	2.925          	0.054
MS.1043        	2.92           	0.054
MS.1044        	2.915          	0.058
MS.1045        	2.908          	0.052
MS.1046        	2.902          	0.056
MS.1047        	2.898          	0.056
MS.1048        	2.89           	0.06
MS.1049        	2.885          	0.052
MS.1050        	2.88           	0.054
MS.1051        	2.872          	0.056
MS.1052        	2.867          	0.054
MS.1053        	2.862          	0.054
MS.1054        	2.857          	0.05
MS.1055        	2.85           	0.056
MS.1056        	2.845          	0.052
MS.1057        	2.84           	0.054
MS.1058        	2.832          	0.054
MS.1059        	2.827          	0.052
MS.1060        	2.822          	0.05
MS.1061        	2.817          	0.052
MS.1062        	2.81           	0.054
MS.1063        	2.805          	0.048
MS.1064        	2.8            	0.05
MS.1065        	2.795          	0.052
MS.1066        	2.787          	0.048
MS.1067        	2.783          	0.046
MS.1068        	2.777          	0.054
MS.1069        	2.773          	0.05
MS.1070        	2.767          	0.048
MS.1071        	2.76           	0.05
MS.1072        	2.755          	0.054
MS.1073        	2.75           	0.048
MS.1074        	2.745          	0.052
MS.1075        	2.74           	0.046
MS.1076        	2.732          	0.048
MS.1077        	2.727          	0.052
MS.1078        	2.722          	0.042
MS.1079        	2.717          	0.05
MS.1080        	2.712          	0.046
MS.1081        	2.705          	0.054
MS.1082        	2.7            	0.048
MS.1083        	2.695          	0.05
MS.1084        	2.69           	0.05
MS.1085        	2.685          	0.052
MS.1086        	2.68           	0.052
MS.1087        	2.675          	0.046
MS.1088        	2.668          	0.05
MS.1089        	2.662          	0.05
MS.1090        	2.658          	0.06
MS.1091        	2.652          	0.052
MS.1092        	2.648          	0.05
MS.1093        	2.642          	0.05
MS.1094        	2.638          	0.054
MS.1095        	2.632          	0.042
MS.1096        	2.625          	0.048
MS.1097        	2.62           	0.05
MS.1098        	2.615          	0.056
MS.1099        	2.61           	0.048
MS.1100        	2.605          	0.042
MS.1101        	2.6            	0.046
MS.1102        	2.595          	0.038
MS.1103        	2.59           	0.044
MS.1104        	2.585          	0.046
MS.1105        	2.58           	0.044
MS.1106        	2.575          	0.046
MS.1107        	2.57           	0.036
MS.1108        	2.565          	0.044
MS.1109        	2.557          	0.046
MS.1110        	2.553          	0.042
MS.1111        	2.547          	0.042
MS.1112        	2.543          	0.048
MS.1113        	2.537          	0.046
MS.1114        	2.533          	0.048
MS.1115        	2.527          	0.04
MS.1116        	2.523          	0.05
MS.1117        	2.517          	0.056
MS.1118        	2.513          	0.048
MS.1119        	2.507          	0.046
MS.1120        	2.503          	0.056
MS.1121        	2.497          	0.048
MS.1122        	2.492          	0.044
MS.1123        	2.487          	0.044
MS.1124        	2.482          	0.052
MS.1125        	2.477          	0.05
MS.1126        	2.472          	0.052
MS.1127        	2.467          	0.044
MS.1128        	2.462          	0.052
MS.1129        	2.457          	0.048
DERIVED EXCITABILITY VARIABLES
Program = QTracP 3/4/2020
Threshold method = 6 (optimised for CAP, using data for present condition only)
SR method = 1 (using actual data values)
6.                 	0.000               	Peak response\(mV)
9.                 	36.3                	Temperature ( C)
17.                	35                  	Age (years)
18.                	1                   	Sex (M=1, F=2)

EXTRA VARIABLES

MScPeak(mV) = 9.19
MScS5(mA) = 4.41
MScS50(mA) = 6.01
MScS95(mA) = 9.05
MScNSteps = 2
MScSteps(%) = 5.4
MScStepMax(%) = 2.9
MScD50 = 71
MScSlope = 3.57
MSFPeakAmp(mV) = 9.51
MSFNUnits = 148
MSFMeanUnitAmp(uV) = 64.3
MSFHuntTime(m) = 5.11
MSFError(%) = 3.14
MSFNLarge = 37.35
MSFMedianAmp(%) = 0.531
MSFMedianAmp(mV) = 0.0505
MSFHalfAmpAmp(%) = 0.793
MSFHalfAmpAmp(mV) = 0.0754
MSFLargestAmp(%) = 2.91
MSFLargestAmp(mV) = 0.277
MSFMeanRS(%) = 2.01
MSFOpts = 10106121
MScDuration(min) = 10.8
MSFTraces = 754
MSFSizeLimit(uV) = 23.8
MSFLimitType = 1
MSFSmallestAmp(uV) = 24.1

EXTRA WAVEFORMS


!MScan Model
!148
	1	3.84	0.31	2
	2	3.98	0.43	2
	3	4	0.51	2
	4	4.14	0.69	2
	5	4.41	1.28	2
	6	4.47	0.7	2
	7	4.5	0.81	2
	8	4.52	0.84	2
	9	4.58	1.34	2
	10	4.6	0.58	2
	11	4.61	0.53	2.4
	12	4.68	2.24	2
	13	4.79	2.2	2
	14	4.96	1.28	2
	15	5	0.7	2
	16	5.01	0.54	2
	17	5.03	0.42	2
	18	5.05	0.39	2
	19	5.06	0.48	2
	20	5.08	0.71	2
	21	5.1	0.55	2
	22	5.12	0.48	2
	23	5.13	0.35	2
	24	5.14	0.33	2
	25	5.16	0.25	2
	26	5.17	0.28	2
	27	5.18	0.38	2
	28	5.2	0.32	2
	29	5.21	0.54	2
	30	5.23	0.64	2
	31	5.26	0.54	2
	32	5.28	0.54	2
	33	5.29	0.59	2
	34	5.32	0.55	2
	35	5.35	1.21	2
	36	5.39	1.03	2
	37	5.42	1.33	2
	38	5.44	1.01	2
	39	5.47	0.9	2
	40	5.5	1.48	2
	41	5.53	1.38	2
	42	5.55	0.54	2
	43	5.56	0.32	2
	44	5.57	0.4	2
	45	5.57	0.27	2
	46	5.58	0.28	2
	47	5.58	0.28	2
	48	5.59	0.28	2
	49	5.59	0.28	2
	50	5.6	0.44	2
	51	5.61	0.39	2
	52	5.61	0.26	2
	53	5.61	0.72	2
	54	5.62	0.79	2
	55	5.63	0.94	2
	56	5.72	2.35	2.2
	57	5.76	0.67	2
	58	5.79	0.64	2
	59	5.82	0.76	2
	60	5.83	0.48	2
	61	5.85	0.35	2
	62	5.86	0.47	2
	63	5.91	1.89	2
	64	5.96	1.45	2
	65	6	2.04	2
	66	6.04	1.32	2
	67	6.06	1.12	2
	68	6.07	0.29	2
	69	6.08	0.26	2
	70	6.08	0.25	2
	71	6.09	0.47	2
	72	6.1	0.26	2
	73	6.11	0.39	2
	74	6.19	2.91	2
	75	6.23	1.27	2
	76	6.25	0.67	2
	77	6.28	0.56	2
	78	6.3	0.84	2
	79	6.34	0.8	2
	80	6.36	0.61	2
	81	6.39	0.44	2
	82	6.41	0.39	2
	83	6.43	0.58	2
	84	6.49	1.46	2
	85	6.54	0.27	2
	86	6.58	1.08	2
	87	6.64	1.26	2
	88	6.76	1.49	2
	89	6.88	1.6	2
	90	6.97	1.27	2
	91	7.01	0.37	2
	92	7.02	0.4	2
	93	7.07	0.99	2
	94	7.13	0.77	2
	95	7.24	1.11	2
	96	7.3	0.35	2
	97	7.32	0.3	2
	98	7.35	0.37	2
	99	7.37	0.44	2
	100	7.4	0.47	2
	101	7.45	0.71	2
	102	7.48	0.31	2
	103	7.54	0.45	2
	104	7.56	0.32	2
	105	7.6	0.55	2
	106	7.65	0.74	2
	107	7.71	0.67	2
	108	7.73	0.4	2
	109	7.76	0.4	2
	110	7.87	1.11	2
	111	7.99	1.05	2
	112	8.23	1.11	2
	113	8.27	0.43	2
	114	8.31	0.36	2
	115	8.33	0.28	2
	116	8.4	0.79	2
	117	8.47	0.56	2
	118	8.51	0.35	2
	119	8.57	0.55	2
	120	8.65	0.71	2
	121	8.79	0.97	2
	122	8.88	0.34	2
	123	8.92	0.29	2
	124	8.95	0.34	2
	125	8.99	0.3	2
	126	9.02	0.35	2
	127	9.05	0.3	2
	128	9.08	0.35	2
	129	9.12	0.31	2
	130	9.17	0.61	2
	131	9.27	0.68	2
	132	9.31	0.33	2
	133	9.38	0.43	2
	134	9.42	0.31	2
	135	9.46	0.32	2
	136	9.5	0.29	2
	137	9.55	0.48	2
	138	9.63	0.5	2
	139	9.73	0.29	2
	140	9.96	0.55	2
	141	10.17	0.5	2
	142	10.25	0.41	2
	143	10.31	0.47	2
	144	10.36	0.4	2
	145	10.44	0.55	2
	146	10.52	0.36	2
	147	11.68	0.54	2
	148	12.17	0.27	2

