File:              	C:\Qtrac\Data\Daniel M Sørensen\MScan multicentre study\Data from centres\Antalya\Processed data\TR.NC.ANT.4.1- NCC00315K.QZD
Name:              	TR.NC.ANT.4.1
Protocol:          	MSCAN-R2
Date:              	15/3/20
Start time:        	19:41:09
Age:               	22
Sex:               	f
Temperature:       	31
S/R sites:         	ADM
NC/disease:        	NC
Operator:          	ab
Comments:          	left ADM
M-SCAN DATA (5.3-1.2m)
Scanpts: 66, 69, 441, 447
Stim. (mA)     	Amp. (mV)
MS.1           	15             	6.574
MS.2           	15             	6.576
MS.3           	15             	6.574
MS.4           	15             	6.582
MS.5           	15             	6.6
MS.6           	15             	6.608
MS.7           	15             	6.596
MS.8           	15             	6.61
MS.9           	15             	6.556
MS.10          	15             	6.588
MS.11          	15             	6.594
MS.12          	15             	6.586
MS.13          	15             	6.615
MS.14          	15             	6.619
MS.15          	15             	6.598
MS.16          	15             	6.635
MS.17          	15             	6.621
MS.18          	15             	6.635
MS.19          	15             	6.643
MS.20          	15             	6.633
MS.21          	15             	6.695
MS.22          	15             	6.623
MS.23          	14.94          	6.625
MS.24          	14.91          	6.615
MS.25          	14.88          	6.604
MS.26          	14.85          	6.582
MS.27          	14.82          	6.59
MS.28          	14.792         	6.578
MS.29          	14.762         	6.584
MS.30          	14.733         	6.6
MS.31          	14.702         	6.594
MS.32          	14.672         	6.615
MS.33          	14.645         	6.629
MS.34          	14.615         	6.61
MS.35          	14.585         	6.612
MS.36          	14.557         	6.641
MS.37          	14.527         	6.629
MS.38          	14.497         	6.647
MS.39          	14.47          	6.649
MS.40          	14.44          	6.606
MS.41          	14.412         	6.633
MS.42          	14.382         	6.596
MS.43          	14.355         	6.612
MS.44          	14.325         	6.612
MS.45          	14.297         	6.633
MS.46          	14.267         	6.617
MS.47          	14.24          	6.625
MS.48          	14.212         	6.59
MS.49          	14.182         	6.641
MS.50          	14.155         	6.657
MS.51          	14.127         	6.637
MS.52          	14.097         	6.604
MS.53          	14.07          	6.643
MS.54          	14.042         	6.633
MS.55          	14.015         	6.655
MS.56          	13.985         	6.598
MS.57          	13.957         	6.663
MS.58          	13.93          	6.657
MS.59          	13.903         	6.572
MS.60          	13.875         	6.617
MS.61          	13.847         	6.582
MS.62          	13.82          	6.58
MS.63          	13.792         	6.627
MS.64          	13.765         	6.631
MS.65          	13.737         	6.661
MS.66          	13.71          	6.641
MS.67          	13.682         	6.647
MS.68          	13.655         	6.651
MS.69          	13.627         	6.651
MS.70          	13.6           	6.659
MS.71          	13.572         	6.683
MS.72          	13.545         	6.629
MS.73          	13.517         	6.653
MS.74          	13.492         	6.675
MS.75          	13.465         	6.647
MS.76          	13.438         	6.653
MS.77          	13.41          	6.673
MS.78          	13.385         	6.625
MS.79          	13.358         	6.703
MS.80          	13.33          	6.768
MS.81          	13.305         	6.758
MS.82          	13.278         	6.764
MS.83          	13.25          	6.691
MS.84          	13.225         	6.671
MS.85          	13.197         	6.617
MS.86          	13.172         	6.619
MS.87          	13.145         	6.619
MS.88          	13.12          	6.663
MS.89          	13.092         	6.661
MS.90          	13.068         	6.645
MS.91          	13.04          	6.661
MS.92          	13.015         	6.548
MS.93          	12.987         	6.625
MS.94          	12.962         	6.57
MS.95          	12.938         	6.58
MS.96          	12.91          	6.671
MS.97          	12.885         	6.548
MS.98          	12.86          	6.538
MS.99          	12.832         	6.602
MS.100         	12.807         	6.6
MS.101         	12.782         	6.598
MS.102         	12.757         	6.556
MS.103         	12.73          	6.645
MS.104         	12.705         	6.637
MS.105         	12.68          	6.554
MS.106         	12.655         	6.566
MS.107         	12.63          	6.621
MS.108         	12.605         	6.526
MS.109         	12.58          	6.407
MS.110         	12.555         	6.48
MS.111         	12.53          	6.445
MS.112         	12.505         	6.506
MS.113         	12.48          	6.451
MS.114         	12.455         	6.566
MS.115         	12.43          	6.51
MS.116         	12.405         	6.421
MS.117         	12.38          	6.578
MS.118         	12.355         	6.498
MS.119         	12.33          	6.451
MS.120         	12.305         	6.425
MS.121         	12.28          	6.482
MS.122         	12.257         	6.532
MS.123         	12.233         	6.421
MS.124         	12.207         	6.492
MS.125         	12.182         	6.439
MS.126         	12.157         	6.391
MS.127         	12.135         	6.437
MS.128         	12.11          	6.447
MS.129         	12.085         	6.496
MS.130         	12.062         	6.407
MS.131         	12.037         	6.397
MS.132         	12.012         	6.345
MS.133         	11.99          	6.449
MS.134         	11.965         	6.409
MS.135         	11.943         	6.417
MS.136         	11.917         	6.312
MS.137         	11.895         	6.25
MS.138         	11.87          	6.292
MS.139         	11.847         	6.286
MS.140         	11.822         	6.302
MS.141         	11.8           	6.256
MS.142         	11.775         	6.234
MS.143         	11.752         	6.32
MS.144         	11.73          	6.121
MS.145         	11.705         	6.26
MS.146         	11.682         	5.994
MS.147         	11.657         	6.075
MS.148         	11.635         	6.032
MS.149         	11.613         	6.131
MS.150         	11.59          	6.024
MS.151         	11.565         	6.047
MS.152         	11.542         	6.002
MS.153         	11.52          	5.996
MS.154         	11.497         	6.089
MS.155         	11.472         	6.059
MS.156         	11.45          	5.791
MS.157         	11.427         	5.843
MS.158         	11.405         	5.926
MS.159         	11.382         	5.771
MS.160         	11.36          	5.928
MS.161         	11.337         	5.773
MS.162         	11.315         	5.99
MS.163         	11.292         	5.869
MS.164         	11.27          	5.849
MS.165         	11.247         	5.769
MS.166         	11.225         	5.624
MS.167         	11.202         	5.813
MS.168         	11.18          	5.867
MS.169         	11.157         	5.67
MS.170         	11.135         	5.75
MS.171         	11.113         	5.362
MS.172         	11.09          	5.553
MS.173         	11.068         	5.438
MS.174         	11.045         	5.487
MS.175         	11.023         	5.501
MS.176         	11.002         	5.394
MS.177         	10.98          	5.102
MS.178         	10.957         	5.213
MS.179         	10.935         	5.168
MS.180         	10.915         	5.188
MS.181         	10.892         	5.144
MS.182         	10.87          	5.325
MS.183         	10.847         	5.176
MS.184         	10.827         	4.991
MS.185         	10.805         	4.981
MS.186         	10.785         	5.031
MS.187         	10.762         	4.979
MS.188         	10.74          	4.963
MS.189         	10.72          	5.017
MS.190         	10.698         	4.824
MS.191         	10.677         	4.643
MS.192         	10.655         	4.701
MS.193         	10.635         	4.804
MS.194         	10.613         	4.622
MS.195         	10.592         	4.747
MS.196         	10.57          	4.512
MS.197         	10.55          	4.784
MS.198         	10.528         	4.639
MS.199         	10.507         	4.606
MS.200         	10.485         	4.49
MS.201         	10.465         	4.705
MS.202         	10.445         	4.397
MS.203         	10.422         	4.568
MS.204         	10.403         	4.548
MS.205         	10.382         	4.502
MS.206         	10.36          	4.421
MS.207         	10.34          	4.363
MS.208         	10.32          	4.373
MS.209         	10.3           	4.274
MS.210         	10.278         	4.423
MS.211         	10.257         	4.347
MS.212         	10.238         	4.252
MS.213         	10.217         	4.248
MS.214         	10.198         	4.153
MS.215         	10.175         	4.143
MS.216         	10.155         	4.208
MS.217         	10.135         	3.95
MS.218         	10.115         	4.195
MS.219         	10.095         	4.195
MS.220         	10.075         	3.863
MS.221         	10.055         	4.034
MS.222         	10.035         	3.726
MS.223         	10.015         	3.623
MS.224         	9.995          	3.819
MS.225         	9.975          	3.72
MS.226         	9.955          	3.744
MS.227         	9.935          	3.662
MS.228         	9.915          	3.686
MS.229         	9.895          	3.422
MS.230         	9.875          	3.221
MS.231         	9.855          	3.337
MS.232         	9.835          	3.152
MS.233         	9.818          	3.71
MS.234         	9.797          	3.623
MS.235         	9.778          	3.682
MS.236         	9.757          	3.601
MS.237         	9.738          	3.362
MS.238         	9.717          	3.416
MS.239         	9.7            	3.088
MS.240         	9.68           	3.251
MS.241         	9.66           	3.154
MS.242         	9.64           	3.128
MS.243         	9.622          	3.17
MS.244         	9.602          	2.776
MS.245         	9.582          	2.773
MS.246         	9.565          	3.245
MS.247         	9.545          	3.082
MS.248         	9.525          	2.822
MS.249         	9.507          	2.616
MS.250         	9.488          	2.637
MS.251         	9.47           	2.626
MS.252         	9.45           	2.596
MS.253         	9.432          	2.63
MS.254         	9.412          	2.455
MS.255         	9.395          	2.582
MS.256         	9.375          	2.693
MS.257         	9.358          	2.417
MS.258         	9.337          	2.522
MS.259         	9.32           	2.193
MS.260         	9.3            	2.407
MS.261         	9.283          	2.33
MS.262         	9.262          	2.363
MS.263         	9.245          	2.232
MS.264         	9.225          	2.226
MS.265         	9.207          	2.117
MS.266         	9.19           	2.371
MS.267         	9.17           	2.05
MS.268         	9.153          	2.167
MS.269         	9.135          	1.897
MS.270         	9.115          	1.859
MS.271         	9.097          	1.94
MS.272         	9.08           	1.919
MS.273         	9.062          	1.875
MS.274         	9.042          	1.781
MS.275         	9.025          	1.589
MS.276         	9.007          	1.682
MS.277         	8.99           	1.716
MS.278         	8.972          	1.708
MS.279         	8.952          	1.553
MS.280         	8.935          	1.547
MS.281         	8.917          	1.635
MS.282         	8.9            	1.531
MS.283         	8.882          	1.215
MS.284         	8.865          	1.432
MS.285         	8.847          	1.519
MS.286         	8.83           	1.428
MS.287         	8.812          	1.358
MS.288         	8.795          	1.329
MS.289         	8.775          	1.482
MS.290         	8.757          	1.237
MS.291         	8.74           	1.166
MS.292         	8.722          	1.247
MS.293         	8.707          	1.001
MS.294         	8.69           	1.245
MS.295         	8.672          	1.118
MS.296         	8.655          	1.049
MS.297         	8.637          	1.108
MS.298         	8.62           	1.082
MS.299         	8.602          	0.981
MS.300         	8.585          	0.965
MS.301         	8.568          	0.888
MS.302         	8.55           	1.063
MS.303         	8.535          	1.074
MS.304         	8.517          	0.955
MS.305         	8.5            	0.977
MS.306         	8.483          	0.898
MS.307         	8.465          	0.908
MS.308         	8.45           	0.87
MS.309         	8.432          	0.92
MS.310         	8.415          	0.906
MS.311         	8.398          	0.761
MS.312         	8.382          	0.84
MS.313         	8.365          	0.876
MS.314         	8.347          	0.765
MS.315         	8.332          	0.816
MS.316         	8.315          	0.896
MS.317         	8.297          	0.888
MS.318         	8.283          	0.81
MS.319         	8.265          	0.721
MS.320         	8.247          	0.858
MS.321         	8.233          	0.846
MS.322         	8.215          	0.828
MS.323         	8.2            	0.8
MS.324         	8.182          	0.749
MS.325         	8.167          	0.691
MS.326         	8.15           	0.751
MS.327         	8.135          	0.777
MS.328         	8.117          	0.645
MS.329         	8.102          	0.685
MS.330         	8.085          	0.687
MS.331         	8.07           	0.681
MS.332         	8.052          	0.685
MS.333         	8.037          	0.717
MS.334         	8.02           	0.709
MS.335         	8.005          	0.828
MS.336         	7.99           	0.616
MS.337         	7.972          	0.62
MS.338         	7.957          	0.612
MS.339         	7.94           	0.643
MS.340         	7.925          	0.649
MS.341         	7.91           	0.645
MS.342         	7.892          	0.582
MS.343         	7.878          	0.586
MS.344         	7.862          	0.6
MS.345         	7.847          	0.465
MS.346         	7.83           	0.61
MS.347         	7.815          	0.562
MS.348         	7.8            	0.512
MS.349         	7.785          	0.443
MS.350         	7.767          	0.489
MS.351         	7.753          	0.413
MS.352         	7.737          	0.365
MS.353         	7.722          	0.447
MS.354         	7.707          	0.475
MS.355         	7.69           	0.399
MS.356         	7.675          	0.393
MS.357         	7.66           	0.365
MS.358         	7.645          	0.33
MS.359         	7.63           	0.397
MS.360         	7.615          	0.336
MS.361         	7.6            	0.338
MS.362         	7.585          	0.367
MS.363         	7.57           	0.31
MS.364         	7.555          	0.298
MS.365         	7.537          	0.326
MS.366         	7.523          	0.284
MS.367         	7.507          	0.262
MS.368         	7.492          	0.298
MS.369         	7.477          	0.272
MS.370         	7.462          	0.28
MS.371         	7.447          	0.286
MS.372         	7.435          	0.183
MS.373         	7.42           	0.246
MS.374         	7.405          	0.218
MS.375         	7.39           	0.244
MS.376         	7.375          	0.234
MS.377         	7.36           	0.179
MS.378         	7.345          	0.173
MS.379         	7.33           	0.244
MS.380         	7.315          	0.24
MS.381         	7.302          	0.216
MS.382         	7.287          	0.214
MS.383         	7.273          	0.216
MS.384         	7.257          	0.135
MS.385         	7.242          	0.207
MS.386         	7.227          	0.159
MS.387         	7.215          	0.214
MS.388         	7.2            	0.187
MS.389         	7.185          	0.216
MS.390         	7.17           	0.163
MS.391         	7.157          	0.216
MS.392         	7.142          	0.171
MS.393         	7.128          	0.165
MS.394         	7.115          	0.228
MS.395         	7.1            	0.087
MS.396         	7.085          	0.026
MS.397         	7.072          	0.169
MS.398         	7.057          	0.032
MS.399         	7.043          	0.038
MS.400         	7.03           	0.187
MS.401         	7.015          	0.024
MS.402         	7              	0.024
MS.403         	6.987          	0.022
MS.404         	6.972          	0.06
MS.405         	6.96           	0.04
MS.406         	6.945          	0.046
MS.407         	6.932          	0.052
MS.408         	6.918          	0.026
MS.409         	6.902          	0.054
MS.410         	6.89           	0.01
MS.411         	6.875          	0.028
MS.412         	6.862          	0.056
MS.413         	6.847          	0.05
MS.414         	6.835          	0.024
MS.415         	6.822          	0.028
MS.416         	6.807          	0.028
MS.417         	6.795          	0.032
MS.418         	6.78           	0.044
MS.419         	6.767          	0.032
MS.420         	6.753          	0.028
MS.421         	6.74           	0.036
MS.422         	6.727          	0.032
MS.423         	6.712          	0.032
MS.424         	6.7            	0.024
MS.425         	6.685          	0.028
MS.426         	6.672          	0.024
MS.427         	6.66           	0.022
MS.428         	6.645          	0.024
MS.429         	6.632          	0.02
MS.430         	6.62           	0.002
MS.431         	6.608          	0.02
MS.432         	6.592          	0.03
MS.433         	6.58           	0.018
MS.434         	6.567          	0.018
MS.435         	6.555          	0.006
MS.436         	6.54           	0.014
MS.437         	6.527          	0.012
MS.438         	6.515          	0.016
MS.439         	6.503          	0.002
MS.440         	6.487          	0.018
MS.441         	6.475          	0.022
MS.442         	6.462          	0.012
MS.443         	6.45           	0.01
MS.444         	6.438          	0.002
MS.445         	6.425          	0.01
MS.446         	6.41           	0.006
MS.447         	6.398          	0.014
MS.448         	6.385          	0.02
MS.449         	6.372          	0.012
MS.450         	6.36           	0.002
MS.451         	6.347          	0.002
MS.452         	6.335          	0.008
MS.453         	6.322          	-0.002
MS.454         	6.31           	0.008
DERIVED EXCITABILITY VARIABLES
Program = QTracP 3/4/2020
Threshold method = 6 (optimised for CAP, using data for present condition only)
SR method = 1 (using actual data values)
6.                 	0.000               	Peak response\(mV)
9.                 	31                  	Temperature ( C)
17.                	22                  	Age (years)
18.                	2                   	Sex (M=1, F=2)

EXTRA VARIABLES

MScPeak(mV) = 6.6
MScS5(mA) = 7.58
MScS50(mA) = 9.83
MScS95(mA) = 11.82
MScNSteps = 3
MScSteps(%) = 8.8
MScStepMax(%) = 3.9
MScD50 = 45
MScSlope = 5.75
MSFPeakAmp(mV) = 6.64
MSFNUnits = 114
MSFMeanUnitAmp(uV) = 58.2
MSFHuntTime(m) = 2.01
MSFError(%) = 4.82
MSFNLarge = 33.19
MSFMedianAmp(%) = 0.768
MSFMedianAmp(mV) = 0.051
MSFHalfAmpAmp(%) = 1.06
MSFHalfAmpAmp(mV) = 0.0703
MSFLargestAmp(%) = 3.77
MSFLargestAmp(mV) = 0.251
MSFMeanRS(%) = 1.98
MSFOpts = 10106121
MScDuration(min) = 4.1
MSFTraces = 382
MSFSizeLimit(uV) = 16.6
MSFLimitType = 1
MSFSmallestAmp(uV) = 18.2

EXTRA WAVEFORMS


!MScan Model
!114
	1	6.74	0.31	2
	2	7.02	0.64	2
	3	7.02	1.57	2
	4	7.08	0.46	2
	5	7.41	0.52	2
	6	7.46	0.33	2
	7	7.49	0.28	2
	8	7.55	0.49	2
	9	7.58	0.27	2
	10	7.62	0.31	2
	11	7.64	0.3	2
	12	7.67	0.38	2
	13	7.7	0.35	2
	14	7.73	0.33	2
	15	7.76	0.4	2
	16	7.77	1.11	2
	17	7.79	0.38	2
	18	7.81	0.31	2
	19	7.83	0.28	2
	20	7.86	0.39	2
	21	8.09	1.46	2
	22	8.19	0.64	2
	23	8.37	1.36	2
	24	8.43	0.74	2
	25	8.48	0.32	2
	26	8.53	0.7	2
	27	8.59	0.94	2
	28	8.62	0.47	2
	29	8.65	0.61	2
	30	8.69	0.8	2
	31	8.74	1.14	2
	32	8.78	1.01	2
	33	8.82	1.07	2
	34	8.85	1.08	2
	35	8.88	0.79	2
	36	8.91	0.6	2
	37	8.94	0.73	2
	38	8.95	0.45	2
	39	8.97	0.45	2
	40	8.98	0.5	2
	41	9	0.54	2
	42	9.01	0.52	2
	43	9.03	0.48	2
	44	9.05	0.47	2
	45	9.06	0.45	2
	46	9.07	0.45	2
	47	9.09	0.53	2
	48	9.1	0.58	2
	49	9.12	0.7	2
	50	9.15	1.05	2
	51	9.18	0.91	2
	52	9.2	0.78	2
	53	9.23	0.9	2
	54	9.27	1.51	2
	55	9.31	1.13	2
	56	9.35	0.94	2
	57	9.38	0.99	2
	58	9.42	1.42	1.9
	59	9.47	1.61	2
	60	9.52	1.43	2
	61	9.55	0.93	1.6
	62	9.58	1.42	2
	63	9.64	3.29	2
	64	9.76	2.81	2
	65	9.93	3.77	1.6
	66	9.96	0.31	2
	67	9.99	1.06	2
	68	10.01	1.12	2
	69	10.04	0.84	2
	70	10.06	0.87	2
	71	10.09	0.77	2
	72	10.11	0.82	2
	73	10.16	1.57	2
	74	10.2	1.07	2
	75	10.22	0.52	2
	76	10.25	0.56	2
	77	10.27	0.62	2
	78	10.3	0.55	2
	79	10.32	0.59	2
	80	10.39	1.24	2
	81	10.52	2.05	2
	82	10.57	1.02	2
	83	10.62	1.09	2
	84	10.64	0.47	2
	85	10.66	0.38	2
	86	10.69	0.33	2
	87	10.71	0.57	2
	88	10.73	0.69	2
	89	10.77	1.02	2
	90	10.81	0.78	2
	91	10.85	0.98	2
	92	10.9	1.19	2
	93	10.94	1.15	2
	94	10.97	0.74	2
	95	11	0.59	2
	96	11.02	0.8	2
	97	11.05	0.91	2
	98	11.1	1.53	2
	99	11.15	1.37	2
	100	11.23	1.54	2
	101	11.35	1.82	2
	102	11.45	1.2	2
	103	11.54	0.87	2
	104	11.61	1.34	2
	105	11.67	0.76	2
	106	11.72	0.54	2
	107	11.78	0.77	2
	108	11.84	0.88	2
	109	11.89	0.71	2
	110	11.95	0.52	2
	111	12.08	1.07	2
	112	12.49	1.18	2
	113	12.64	0.71	2
	114	13.02	1.07	2

