File:              	C:\Qtrac\Data\Daniel M Sørensen\MScan multicentre study\Data from centres\Antalya\Processed data\TR.NC.ANT.3.2- NCC00326C.QZD
Name:              	TR.NC.ANT.3.2
Protocol:          	MSCAN-R2
Date:              	26/3/20
Start time:        	16:51:46
Age:               	37
Sex:               	f
Temperature:       	31
S/R sites:         	ADM
NC/disease:        	NC
Operator:          	ab
Comments:          	left ADM
M-SCAN DATA (8-0.6m)
Scanpts: 14, 20, 734, 743
Stim. (mA)     	Amp. (mV)
MS.1           	12             	10.393
MS.2           	12             	10.411
MS.3           	12             	10.371
MS.4           	12             	10.395
MS.5           	12             	10.377
MS.6           	12             	10.393
MS.7           	12             	10.415
MS.8           	12             	10.367
MS.9           	12             	10.393
MS.10          	12             	10.399
MS.11          	12             	10.407
MS.12          	12             	10.385
MS.13          	12             	10.377
MS.14          	12             	10.385
MS.15          	12             	10.395
MS.16          	12             	10.383
MS.17          	12             	10.407
MS.18          	12             	10.371
MS.19          	12             	10.407
MS.20          	12             	10.387
MS.21          	12             	10.411
MS.22          	12             	10.367
MS.23          	12             	10.371
MS.24          	11.952         	10.381
MS.25          	11.927         	10.375
MS.26          	11.905         	10.411
MS.27          	11.88          	10.387
MS.28          	11.858         	10.401
MS.29          	11.832         	10.409
MS.30          	11.81          	10.391
MS.31          	11.785         	10.381
MS.32          	11.762         	10.389
MS.33          	11.74          	10.409
MS.34          	11.715         	10.379
MS.35          	11.693         	10.377
MS.36          	11.667         	10.373
MS.37          	11.645         	10.385
MS.38          	11.622         	10.387
MS.39          	11.6           	10.373
MS.40          	11.575         	10.391
MS.41          	11.552         	10.393
MS.42          	11.53          	10.375
MS.43          	11.507         	10.379
MS.44          	11.483         	10.403
MS.45          	11.46          	10.367
MS.46          	11.438         	10.381
MS.47          	11.415         	10.375
MS.48          	11.392         	10.379
MS.49          	11.37          	10.389
MS.50          	11.347         	10.371
MS.51          	11.325         	10.385
MS.52          	11.3           	10.367
MS.53          	11.278         	10.381
MS.54          	11.255         	10.371
MS.55          	11.233         	10.327
MS.56          	11.21          	10.423
MS.57          	11.188         	10.399
MS.58          	11.167         	10.407
MS.59          	11.145         	10.425
MS.60          	11.122         	10.395
MS.61          	11.1           	10.405
MS.62          	11.077         	10.331
MS.63          	11.055         	10.373
MS.64          	11.032         	10.377
MS.65          	11.01          	10.351
MS.66          	10.99          	10.403
MS.67          	10.967         	10.333
MS.68          	10.945         	10.369
MS.69          	10.922         	10.385
MS.70          	10.903         	10.349
MS.71          	10.88          	10.351
MS.72          	10.858         	10.347
MS.73          	10.837         	10.294
MS.74          	10.815         	10.391
MS.75          	10.792         	10.397
MS.76          	10.773         	10.369
MS.77          	10.75          	10.337
MS.78          	10.727         	10.389
MS.79          	10.707         	10.312
MS.80          	10.685         	10.373
MS.81          	10.665         	10.304
MS.82          	10.642         	10.321
MS.83          	10.622         	10.302
MS.84          	10.6           	10.302
MS.85          	10.58          	10.292
MS.86          	10.557         	10.22
MS.87          	10.537         	10.292
MS.88          	10.515         	10.264
MS.89          	10.495         	10.256
MS.90          	10.475         	10.248
MS.91          	10.452         	10.196
MS.92          	10.432         	10.182
MS.93          	10.412         	10.192
MS.94          	10.39          	10.184
MS.95          	10.37          	10.242
MS.96          	10.35          	10.204
MS.97          	10.327         	10.125
MS.98          	10.307         	10.194
MS.99          	10.287         	10.234
MS.100         	10.267         	10.178
MS.101         	10.245         	10.192
MS.102         	10.225         	10.216
MS.103         	10.205         	10.159
MS.104         	10.185         	10.188
MS.105         	10.165         	10.184
MS.106         	10.145         	10.153
MS.107         	10.125         	10.101
MS.108         	10.102         	10.127
MS.109         	10.082         	10.192
MS.110         	10.062         	10.065
MS.111         	10.042         	10.099
MS.112         	10.023         	10.155
MS.113         	10.002         	10.155
MS.114         	9.983          	10.081
MS.115         	9.962          	10.012
MS.116         	9.943          	10.089
MS.117         	9.922          	10.071
MS.118         	9.903          	10.111
MS.119         	9.885          	10.024
MS.120         	9.865          	10.053
MS.121         	9.845          	10.012
MS.122         	9.825          	10.079
MS.123         	9.805          	10.041
MS.124         	9.785          	9.952
MS.125         	9.765          	10.075
MS.126         	9.747          	10.026
MS.127         	9.727          	10.024
MS.128         	9.707          	10.065
MS.129         	9.688          	10.053
MS.130         	9.67           	10.033
MS.131         	9.65           	10.069
MS.132         	9.63           	10.053
MS.133         	9.61           	10.029
MS.134         	9.592          	10.057
MS.135         	9.573          	10.012
MS.136         	9.552          	10.077
MS.137         	9.535          	10.016
MS.138         	9.515          	10
MS.139         	9.497          	10.057
MS.140         	9.477          	9.996
MS.141         	9.457          	10.055
MS.142         	9.44           	10.024
MS.143         	9.42           	10.053
MS.144         	9.403          	10.059
MS.145         	9.382          	9.998
MS.146         	9.365          	10.029
MS.147         	9.345          	10.045
MS.148         	9.327          	10.057
MS.149         	9.307          	10.004
MS.150         	9.29           	9.982
MS.151         	9.27           	10
MS.152         	9.252          	10.018
MS.153         	9.235          	9.948
MS.154         	9.215          	10.01
MS.155         	9.198          	10.016
MS.156         	9.18           	9.988
MS.157         	9.16           	9.992
MS.158         	9.142          	9.988
MS.159         	9.125          	9.994
MS.160         	9.105          	9.956
MS.161         	9.087          	9.942
MS.162         	9.07           	10.029
MS.163         	9.052          	10.039
MS.164         	9.033          	9.954
MS.165         	9.015          	9.936
MS.166         	8.997          	9.966
MS.167         	8.98           	9.992
MS.168         	8.96           	9.92
MS.169         	8.943          	9.916
MS.170         	8.925          	9.881
MS.171         	8.908          	10.002
MS.172         	8.89           	9.962
MS.173         	8.872          	9.877
MS.174         	8.855          	9.855
MS.175         	8.837          	9.906
MS.176         	8.82           	9.938
MS.177         	8.802          	9.843
MS.178         	8.783          	9.875
MS.179         	8.765          	9.93
MS.180         	8.747          	9.855
MS.181         	8.73           	9.873
MS.182         	8.715          	9.89
MS.183         	8.698          	9.857
MS.184         	8.68           	9.922
MS.185         	8.662          	9.815
MS.186         	8.645          	9.805
MS.187         	8.627          	9.9
MS.188         	8.61           	9.904
MS.189         	8.592          	9.831
MS.190         	8.575          	9.815
MS.191         	8.557          	9.827
MS.192         	8.54           	9.759
MS.193         	8.525          	9.815
MS.194         	8.507          	9.813
MS.195         	8.49           	9.74
MS.196         	8.472          	9.795
MS.197         	8.455          	9.757
MS.198         	8.44           	9.704
MS.199         	8.422          	9.779
MS.200         	8.405          	9.644
MS.201         	8.39           	9.781
MS.202         	8.372          	9.614
MS.203         	8.355          	9.654
MS.204         	8.337          	9.682
MS.205         	8.323          	9.587
MS.206         	8.305          	9.638
MS.207         	8.29           	9.642
MS.208         	8.273          	9.527
MS.209         	8.255          	9.618
MS.210         	8.24           	9.495
MS.211         	8.222          	9.461
MS.212         	8.207          	9.42
MS.213         	8.19           	9.313
MS.214         	8.172          	9.382
MS.215         	8.158          	9.346
MS.216         	8.14           	9.307
MS.217         	8.125          	9.33
MS.218         	8.108          	9.239
MS.219         	8.092          	9.048
MS.220         	8.075          	9.197
MS.221         	8.06           	9.106
MS.222         	8.045          	9.156
MS.223         	8.028          	9.193
MS.224         	8.012          	9.076
MS.225         	7.995          	9.074
MS.226         	7.98           	8.977
MS.227         	7.965          	8.868
MS.228         	7.947          	8.957
MS.229         	7.932          	8.641
MS.230         	7.915          	8.893
MS.231         	7.9            	8.824
MS.232         	7.885          	8.776
MS.233         	7.87           	8.6
MS.234         	7.852          	8.447
MS.235         	7.837          	8.238
MS.236         	7.822          	8.496
MS.237         	7.805          	8.401
MS.238         	7.79           	8.318
MS.239         	7.775          	8.276
MS.240         	7.76           	8.137
MS.241         	7.745          	8.053
MS.242         	7.727          	7.74
MS.243         	7.712          	7.891
MS.244         	7.697          	8.135
MS.245         	7.682          	7.914
MS.246         	7.668          	7.877
MS.247         	7.652          	7.652
MS.248         	7.635          	7.565
MS.249         	7.62           	7.648
MS.250         	7.605          	7.624
MS.251         	7.59           	7.37
MS.252         	7.575          	7.334
MS.253         	7.56           	7.334
MS.254         	7.545          	7.432
MS.255         	7.53           	7.382
MS.256         	7.515          	7.233
MS.257         	7.5            	7.285
MS.258         	7.485          	7.187
MS.259         	7.47           	7.164
MS.260         	7.455          	7.273
MS.261         	7.44           	7.078
MS.262         	7.425          	6.903
MS.263         	7.41           	6.888
MS.264         	7.395          	6.951
MS.265         	7.38           	6.834
MS.266         	7.365          	6.615
MS.267         	7.352          	6.796
MS.268         	7.337          	6.788
MS.269         	7.322          	6.985
MS.270         	7.307          	6.685
MS.271         	7.293          	6.508
MS.272         	7.277          	6.385
MS.273         	7.265          	6.435
MS.274         	7.25           	6.244
MS.275         	7.235          	6.363
MS.276         	7.22           	6.306
MS.277         	7.205          	6.204
MS.278         	7.192          	6.069
MS.279         	7.177          	6.099
MS.280         	7.162          	6.169
MS.281         	7.148          	6.026
MS.282         	7.135          	5.938
MS.283         	7.12           	6.175
MS.284         	7.105          	5.682
MS.285         	7.092          	5.613
MS.286         	7.077          	5.628
MS.287         	7.062          	5.682
MS.288         	7.05           	5.45
MS.289         	7.035          	5.426
MS.290         	7.02           	5.124
MS.291         	7.007          	5.41
MS.292         	6.992          	5.46
MS.293         	6.98           	5.146
MS.294         	6.965          	5.09
MS.295         	6.95           	5.108
MS.296         	6.938          	5.307
MS.297         	6.922          	5.279
MS.298         	6.91           	5.172
MS.299         	6.895          	5.068
MS.300         	6.882          	5.043
MS.301         	6.867          	5.116
MS.302         	6.855          	5.364
MS.303         	6.84           	5.003
MS.304         	6.827          	4.892
MS.305         	6.812          	4.844
MS.306         	6.8            	4.709
MS.307         	6.787          	4.862
MS.308         	6.773          	4.711
MS.309         	6.76           	4.556
MS.310         	6.745          	4.655
MS.311         	6.733          	4.786
MS.312         	6.72           	4.459
MS.313         	6.705          	4.475
MS.314         	6.692          	4.492
MS.315         	6.677          	4.598
MS.316         	6.665          	4.407
MS.317         	6.652          	4.459
MS.318         	6.637          	4.224
MS.319         	6.625          	4.31
MS.320         	6.612          	4.282
MS.321         	6.6            	4.204
MS.322         	6.585          	4.105
MS.323         	6.572          	4.01
MS.324         	6.56           	4.264
MS.325         	6.547          	3.863
MS.326         	6.532          	4.04
MS.327         	6.52           	3.99
MS.328         	6.507          	3.96
MS.329         	6.495          	3.962
MS.330         	6.48           	3.722
MS.331         	6.467          	3.758
MS.332         	6.455          	3.748
MS.333         	6.442          	3.736
MS.334         	6.43           	3.662
MS.335         	6.418          	3.581
MS.336         	6.405          	3.491
MS.337         	6.39           	3.583
MS.338         	6.378          	3.495
MS.339         	6.365          	3.517
MS.340         	6.352          	3.497
MS.341         	6.34           	3.432
MS.342         	6.327          	3.315
MS.343         	6.315          	3.497
MS.344         	6.302          	3.372
MS.345         	6.29           	3.42
MS.346         	6.277          	3.289
MS.347         	6.265          	3.325
MS.348         	6.253          	3.235
MS.349         	6.24           	3.269
MS.350         	6.227          	3.196
MS.351         	6.215          	3.17
MS.352         	6.202          	3.092
MS.353         	6.19           	3.128
MS.354         	6.177          	3.064
MS.355         	6.165          	3.011
MS.356         	6.152          	2.743
MS.357         	6.14           	2.975
MS.358         	6.128          	2.769
MS.359         	6.115          	2.596
MS.360         	6.102          	2.822
MS.361         	6.092          	2.826
MS.362         	6.08           	2.695
MS.363         	6.067          	2.487
MS.364         	6.055          	2.564
MS.365         	6.043          	2.62
MS.366         	6.03           	2.552
MS.367         	6.02           	2.483
MS.368         	6.007          	2.614
MS.369         	5.995          	2.447
MS.370         	5.983          	2.405
MS.371         	5.97           	2.361
MS.372         	5.96           	2.389
MS.373         	5.947          	2.349
MS.374         	5.935          	2.24
MS.375         	5.922          	2.278
MS.376         	5.912          	2.276
MS.377         	5.9            	2.252
MS.378         	5.887          	2.266
MS.379         	5.875          	2.22
MS.380         	5.865          	2.183
MS.381         	5.852          	2.081
MS.382         	5.84           	2.117
MS.383         	5.83           	2.012
MS.384         	5.817          	2.016
MS.385         	5.805          	2.03
MS.386         	5.795          	2.191
MS.387         	5.782          	2
MS.388         	5.773          	2.175
MS.389         	5.76           	2.016
MS.390         	5.747          	2.123
MS.391         	5.737          	1.974
MS.392         	5.725          	1.845
MS.393         	5.715          	1.861
MS.394         	5.702          	1.829
MS.395         	5.69           	1.869
MS.396         	5.68           	1.744
MS.397         	5.668          	1.881
MS.398         	5.657          	1.825
MS.399         	5.645          	1.722
MS.400         	5.635          	1.752
MS.401         	5.622          	1.728
MS.402         	5.612          	1.674
MS.403         	5.6            	1.75
MS.404         	5.59           	1.585
MS.405         	5.577          	1.541
MS.406         	5.567          	1.499
MS.407         	5.555          	1.398
MS.408         	5.545          	1.682
MS.409         	5.535          	1.533
MS.410         	5.523          	1.561
MS.411         	5.512          	1.492
MS.412         	5.5            	1.519
MS.413         	5.49           	1.513
MS.414         	5.48           	1.559
MS.415         	5.467          	1.279
MS.416         	5.457          	1.434
MS.417         	5.445          	1.293
MS.418         	5.435          	1.275
MS.419         	5.425          	1.343
MS.420         	5.412          	1.44
MS.421         	5.402          	1.47
MS.422         	5.392          	1.557
MS.423         	5.38           	1.178
MS.424         	5.37           	1.432
MS.425         	5.36           	1.269
MS.426         	5.35           	1.227
MS.427         	5.338          	1.333
MS.428         	5.327          	1.366
MS.429         	5.318          	1.106
MS.430         	5.307          	1.206
MS.431         	5.295          	1.184
MS.432         	5.285          	0.939
MS.433         	5.275          	1.013
MS.434         	5.265          	0.929
MS.435         	5.253          	0.86
MS.436         	5.242          	0.777
MS.437         	5.233          	0.872
MS.438         	5.222          	0.79
MS.439         	5.213          	0.88
MS.440         	5.202          	0.947
MS.441         	5.19           	0.995
MS.442         	5.18           	0.765
MS.443         	5.17           	0.792
MS.444         	5.16           	0.792
MS.445         	5.15           	0.794
MS.446         	5.14           	0.733
MS.447         	5.13           	0.79
MS.448         	5.117          	0.667
MS.449         	5.108          	0.713
MS.450         	5.097          	0.638
MS.451         	5.088          	0.717
MS.452         	5.077          	0.657
MS.453         	5.068          	0.713
MS.454         	5.057          	0.723
MS.455         	5.047          	0.781
MS.456         	5.037          	0.622
MS.457         	5.027          	0.663
MS.458         	5.017          	0.552
MS.459         	5.007          	0.691
MS.460         	4.997          	0.588
MS.461         	4.987          	0.532
MS.462         	4.977          	0.538
MS.463         	4.967          	0.628
MS.464         	4.957          	0.592
MS.465         	4.947          	0.504
MS.466         	4.938          	0.596
MS.467         	4.927          	0.524
MS.468         	4.918          	0.508
MS.469         	4.907          	0.534
MS.470         	4.898          	0.508
MS.471         	4.887          	0.502
MS.472         	4.88           	0.528
MS.473         	4.87           	0.53
MS.474         	4.86           	0.542
MS.475         	4.85           	0.419
MS.476         	4.84           	0.548
MS.477         	4.83           	0.381
MS.478         	4.82           	0.548
MS.479         	4.81           	0.419
MS.480         	4.802          	0.431
MS.481         	4.793          	0.379
MS.482         	4.782          	0.401
MS.483         	4.773          	0.415
MS.484         	4.762          	0.346
MS.485         	4.753          	0.379
MS.486         	4.745          	0.445
MS.487         	4.735          	0.379
MS.488         	4.725          	0.421
MS.489         	4.715          	0.373
MS.490         	4.707          	0.385
MS.491         	4.697          	0.252
MS.492         	4.688          	0.352
MS.493         	4.677          	0.32
MS.494         	4.67           	0.25
MS.495         	4.66           	0.3
MS.496         	4.65           	0.27
MS.497         	4.64           	0.29
MS.498         	4.632          	0.254
MS.499         	4.622          	0.191
MS.500         	4.612          	0.185
MS.501         	4.605          	0.274
MS.502         	4.595          	0.181
MS.503         	4.585          	0.248
MS.504         	4.577          	0.115
MS.505         	4.568          	0.115
MS.506         	4.557          	0.193
MS.507         	4.55           	0.155
MS.508         	4.54           	0.242
MS.509         	4.53           	0.147
MS.510         	4.523          	0.203
MS.511         	4.512          	0.125
MS.512         	4.503          	0.161
MS.513         	4.495          	0.119
MS.514         	4.485          	0.129
MS.515         	4.477          	0.129
MS.516         	4.467          	0.143
MS.517         	4.46           	0.129
MS.518         	4.45           	0.125
MS.519         	4.44           	0.129
MS.520         	4.432          	0.115
MS.521         	4.423          	0.185
MS.522         	4.415          	0.119
MS.523         	4.405          	0.135
MS.524         	4.398          	0.115
MS.525         	4.387          	0.127
MS.526         	4.38           	0.123
MS.527         	4.37           	0.133
MS.528         	4.362          	0.107
MS.529         	4.352          	0.117
MS.530         	4.345          	0.117
MS.531         	4.335          	0.125
MS.532         	4.327          	0.133
MS.533         	4.318          	0.123
MS.534         	4.31           	0.121
MS.535         	4.3            	0.123
MS.536         	4.293          	0.123
MS.537         	4.285          	0.109
MS.538         	4.275          	0.123
MS.539         	4.267          	0.097
MS.540         	4.257          	0.105
MS.541         	4.25           	0.107
MS.542         	4.242          	0.115
MS.543         	4.233          	0.117
MS.544         	4.225          	0.097
MS.545         	4.215          	0.113
MS.546         	4.207          	0.103
MS.547         	4.2            	0.111
MS.548         	4.19           	0.095
MS.549         	4.182          	0.121
MS.550         	4.175          	0.087
MS.551         	4.165          	0.107
MS.552         	4.157          	0.109
MS.553         	4.15           	0.107
MS.554         	4.14           	0.093
MS.555         	4.132          	0.107
MS.556         	4.125          	0.101
MS.557         	4.115          	0.097
MS.558         	4.108          	0.093
MS.559         	4.1            	0.117
MS.560         	4.092          	0.091
MS.561         	4.082          	0.095
MS.562         	4.075          	0.095
MS.563         	4.068          	0.175
MS.564         	4.06           	0.097
MS.565         	4.05           	0.091
MS.566         	4.043          	0.099
MS.567         	4.035          	0.085
MS.568         	4.027          	0.099
MS.569         	4.017          	0.093
MS.570         	4.01           	0.091
MS.571         	4.003          	0.087
MS.572         	3.995          	0.101
MS.573         	3.987          	0.093
MS.574         	3.977          	0.093
MS.575         	3.97           	0.091
MS.576         	3.962          	0.091
MS.577         	3.955          	0.105
MS.578         	3.947          	0.087
MS.579         	3.94           	0.097
MS.580         	3.93           	0.091
MS.581         	3.922          	0.095
MS.582         	3.915          	0.087
MS.583         	3.908          	0.101
MS.584         	3.9            	0.093
MS.585         	3.892          	0.099
MS.586         	3.885          	0.089
MS.587         	3.877          	0.089
MS.588         	3.867          	0.095
MS.589         	3.86           	0.089
MS.590         	3.852          	0.095
MS.591         	3.845          	0.083
MS.592         	3.837          	0.089
MS.593         	3.83           	0.091
MS.594         	3.822          	0.091
MS.595         	3.815          	0.077
MS.596         	3.807          	0.099
MS.597         	3.8            	0.079
MS.598         	3.793          	0.099
MS.599         	3.785          	0.087
MS.600         	3.777          	0.091
MS.601         	3.77           	0.091
MS.602         	3.762          	0.097
MS.603         	3.755          	0.095
MS.604         	3.747          	0.081
MS.605         	3.74           	0.099
MS.606         	3.732          	0.089
MS.607         	3.725          	0.095
MS.608         	3.717          	0.079
MS.609         	3.71           	0.089
MS.610         	3.702          	0.081
MS.611         	3.695          	0.099
MS.612         	3.688          	0.083
MS.613         	3.68           	0.093
MS.614         	3.672          	0.083
MS.615         	3.665          	0.091
MS.616         	3.658          	0.087
MS.617         	3.65           	0.089
MS.618         	3.642          	0.095
MS.619         	3.635          	0.087
MS.620         	3.63           	0.097
MS.621         	3.622          	0.091
MS.622         	3.615          	0.091
MS.623         	3.607          	0.083
MS.624         	3.6            	0.087
MS.625         	3.592          	0.079
MS.626         	3.585          	0.089
MS.627         	3.577          	0.085
MS.628         	3.57           	0.091
MS.629         	3.565          	0.083
MS.630         	3.557          	0.091
MS.631         	3.55           	0.083
MS.632         	3.543          	0.085
MS.633         	3.535          	0.095
MS.634         	3.527          	0.087
MS.635         	3.523          	0.091
MS.636         	3.515          	0.089
MS.637         	3.507          	0.089
MS.638         	3.5            	0.085
MS.639         	3.492          	0.087
MS.640         	3.487          	0.087
MS.641         	3.48           	0.091
MS.642         	3.472          	0.083
MS.643         	3.465          	0.093
MS.644         	3.457          	0.083
MS.645         	3.452          	0.087
MS.646         	3.445          	0.077
MS.647         	3.438          	0.089
MS.648         	3.43           	0.087
MS.649         	3.425          	0.091
MS.650         	3.418          	0.085
MS.651         	3.41           	0.083
MS.652         	3.405          	0.093
MS.653         	3.398          	0.083
MS.654         	3.39           	0.085
MS.655         	3.382          	0.081
MS.656         	3.377          	0.087
MS.657         	3.37           	0.079
MS.658         	3.362          	0.089
MS.659         	3.357          	0.081
MS.660         	3.35           	0.087
MS.661         	3.342          	0.075
MS.662         	3.337          	0.089
MS.663         	3.33           	0.087
MS.664         	3.322          	0.087
MS.665         	3.317          	0.095
MS.666         	3.31           	0.087
MS.667         	3.303          	0.089
MS.668         	3.297          	0.089
MS.669         	3.29           	0.093
MS.670         	3.283          	0.081
MS.671         	3.277          	0.095
MS.672         	3.27           	0.077
MS.673         	3.265          	0.085
MS.674         	3.257          	0.083
MS.675         	3.25           	0.089
MS.676         	3.245          	0.083
MS.677         	3.237          	0.091
MS.678         	3.232          	0.089
MS.679         	3.225          	0.101
MS.680         	3.217          	0.087
MS.681         	3.212          	0.081
MS.682         	3.205          	0.089
MS.683         	3.2            	0.087
MS.684         	3.192          	0.097
MS.685         	3.188          	0.079
MS.686         	3.18           	0.095
MS.687         	3.172          	0.083
MS.688         	3.168          	0.089
MS.689         	3.16           	0.093
MS.690         	3.155          	0.103
MS.691         	3.148          	0.077
MS.692         	3.142          	0.097
MS.693         	3.135          	0.099
MS.694         	3.13           	0.085
MS.695         	3.122          	0.095
MS.696         	3.117          	0.095
MS.697         	3.11           	0.085
MS.698         	3.105          	0.077
MS.699         	3.097          	0.091
MS.700         	3.092          	0.091
MS.701         	3.085          	0.103
MS.702         	3.08           	0.087
MS.703         	3.075          	0.022
MS.704         	3.067          	0.091
MS.705         	3.062          	0.022
MS.706         	3.055          	0.099
MS.707         	3.05           	0.018
MS.708         	3.043          	0.097
MS.709         	3.037          	0.02
MS.710         	3.03           	0.018
MS.711         	3.025          	0.099
MS.712         	3.02           	0.026
MS.713         	3.013          	0.014
MS.714         	3.007          	0.03
MS.715         	3              	0.097
MS.716         	2.995          	0.018
MS.717         	2.99           	0.014
MS.718         	2.982          	0.095
MS.719         	2.977          	0.087
MS.720         	2.97           	0.099
MS.721         	2.965          	0.081
MS.722         	2.96           	0.014
MS.723         	2.952          	0.01
MS.724         	2.947          	0.018
MS.725         	2.942          	0.022
MS.726         	2.935          	0.008
MS.727         	2.93           	0.02
MS.728         	2.925          	0.000
MS.729         	2.918          	0.022
MS.730         	2.912          	0.012
MS.731         	2.908          	0.062
MS.732         	2.9            	0.05
MS.733         	2.895          	0.075
MS.734         	2.89           	0.066
MS.735         	2.882          	0.02
MS.736         	2.877          	0.04
MS.737         	2.872          	0.028
MS.738         	2.865          	0.036
MS.739         	2.86           	0.016
MS.740         	2.855          	0.036
MS.741         	2.85           	0.012
MS.742         	2.842          	0.042
MS.743         	2.837          	0.032
MS.744         	2.832          	0.03
MS.745         	2.825          	0.02
MS.746         	2.82           	0.016
MS.747         	2.815          	0.004
MS.748         	2.81           	0.032
MS.749         	2.803          	0.036
MS.750         	2.797          	0.03
MS.751         	2.793          	0.028
MS.752         	2.787          	0.002
MS.753         	2.783          	0.028
MS.754         	2.775          	0.012
MS.755         	2.77           	0.022
MS.756         	2.765          	0.044
MS.757         	2.76           	0.026
MS.758         	2.753          	0.012
MS.759         	2.747          	0.018
MS.760         	2.742          	0.024
MS.761         	2.737          	0.01
MS.762         	2.732          	0.000
MS.763         	2.725          	0.024
MS.764         	2.72           	0.02
MS.765         	2.715          	0.036
MS.766         	2.71           	0.016
MS.767         	2.705          	0.01
MS.768         	2.7            	0.006
MS.769         	2.692          	0.022
MS.770         	2.688          	0.016
MS.771         	2.682          	0.012
MS.772         	2.678          	0.022
MS.773         	2.672          	0.006
MS.774         	2.668          	0.018
MS.775         	2.662          	0.012
MS.776         	2.655          	0.016
MS.777         	2.65           	-0.008
DERIVED EXCITABILITY VARIABLES
Program = QTracP 3/4/2020
Threshold method = 6 (optimised for CAP, using data for present condition only)
SR method = 1 (using actual data values)
6.                 	0.000               	Peak response\(mV)
9.                 	31                  	Temperature ( C)
17.                	37                  	Age (years)
18.                	2                   	Sex (M=1, F=2)

EXTRA VARIABLES

MScPeak(mV) = 10.37
MScS5(mA) = 4.88
MScS50(mA) = 6.94
MScS95(mA) = 8.75
MScNSteps = 1
MScSteps(%) = 2.5
MScStepMax(%) = 2.5
MScD50 = 63
MScSlope = 4.16
MSFPeakAmp(mV) = 10.4
MSFNUnits = 197
MSFMeanUnitAmp(uV) = 52.6
MSFHuntTime(m) = 4.27
MSFError(%) = 1.87
MSFNLarge = 71.25
MSFMedianAmp(%) = 0.462
MSFMedianAmp(mV) = 0.0478
MSFHalfAmpAmp(%) = 0.502
MSFHalfAmpAmp(mV) = 0.052
MSFLargestAmp(%) = 2.36
MSFLargestAmp(mV) = 0.244
MSFMeanRS(%) = 1.99
MSFOpts = 10106121
MScDuration(min) = 7.4
MSFTraces = 730
MSFSizeLimit(uV) = 25.9
MSFLimitType = 1
MSFSmallestAmp(uV) = 26.5

EXTRA WAVEFORMS


!MScan Model
!197
	1	2.99	0.48	2
	2	4.13	0.33	2
	3	4.53	0.51	2
	4	4.58	0.35	2
	5	4.62	0.36	2
	6	4.65	0.32	2
	7	4.68	0.31	2
	8	4.72	0.38	2
	9	4.76	0.44	2
	10	4.81	0.5	2
	11	4.87	0.5	2
	12	4.93	0.63	2
	13	5	0.51	2
	14	5.05	0.46	2
	15	5.11	0.82	2
	16	5.17	0.82	2
	17	5.21	0.7	2
	18	5.24	0.76	2
	19	5.31	2.17	1.72
	20	5.42	2.36	2
	21	5.53	0.87	2
	22	5.55	0.35	2
	23	5.58	0.51	2
	24	5.61	0.59	2
	25	5.63	0.55	2
	26	5.66	0.43	2
	27	5.69	0.46	2
	28	5.71	0.55	2
	29	5.74	0.48	2
	30	5.76	0.51	2
	31	5.79	0.48	2
	32	5.81	0.45	2
	33	5.84	0.47	2
	34	5.86	0.47	2
	35	5.89	0.48	2
	36	5.91	0.5	2
	37	5.93	0.27	2
	38	5.95	0.33	2
	39	5.96	0.38	2
	40	5.98	0.4	2
	41	6	0.43	2
	42	6.01	0.46	2
	43	6.03	0.53	2
	44	6.04	0.26	2
	45	6.06	0.32	2
	46	6.07	0.35	2
	47	6.08	0.38	2
	48	6.09	0.39	2
	49	6.11	0.37	2
	50	6.12	0.37	2
	51	6.13	0.38	2
	52	6.14	0.39	2
	53	6.16	0.41	2
	54	6.17	0.38	2
	55	6.18	0.37	2
	56	6.2	0.35	2
	57	6.21	0.38	2
	58	6.23	0.47	2
	59	6.25	0.46	2
	60	6.26	0.42	2
	61	6.28	0.34	2
	62	6.29	0.46	2
	63	6.31	0.41	2
	64	6.32	0.39	2
	65	6.33	0.36	2
	66	6.35	0.36	2
	67	6.36	0.4	2
	68	6.38	0.42	2
	69	6.4	0.45	2
	70	6.41	0.38	2
	71	6.42	0.27	2
	72	6.43	0.3	2
	73	6.45	0.32	2
	74	6.46	0.33	2
	75	6.47	0.32	2
	76	6.48	0.27	2
	77	6.49	0.28	2
	78	6.5	0.29	2
	79	6.51	0.3	2
	80	6.52	0.31	2
	81	6.53	0.32	2
	82	6.54	0.39	2
	83	6.56	0.41	2
	84	6.57	0.4	2
	85	6.58	0.39	2
	86	6.6	0.39	2
	87	6.61	0.44	2
	88	6.63	0.47	2
	89	6.64	0.46	2
	90	6.66	0.45	2
	91	6.67	0.5	2
	92	6.69	0.63	2
	93	6.71	0.66	2
	94	6.73	0.66	2
	95	6.76	0.91	2
	96	6.8	0.78	2
	97	6.84	1.2	2
	98	6.89	1.17	2
	99	6.93	1.38	2
	100	6.97	1.16	2
	101	7	1.24	2
	102	7.02	0.65	2
	103	7.04	0.52	2
	104	7.06	0.58	2
	105	7.08	0.57	2
	106	7.11	0.56	2
	107	7.13	0.62	2
	108	7.14	0.67	2
	109	7.16	0.64	2
	110	7.17	0.59	2
	111	7.18	0.56	2
	112	7.2	0.52	2
	113	7.21	0.47	2
	114	7.23	0.57	2
	115	7.23	0.52	2
	116	7.24	0.7	2
	117	7.26	0.65	2
	118	7.28	0.62	2
	119	7.29	0.58	2
	120	7.3	0.4	2
	121	7.31	0.38	2
	122	7.33	0.37	2
	123	7.34	0.37	2
	124	7.35	0.36	2
	125	7.36	0.35	2
	126	7.37	0.5	2
	127	7.39	0.58	2
	128	7.41	0.54	2
	129	7.43	0.51	2
	130	7.44	0.52	2
	131	7.46	0.65	2
	132	7.48	0.68	2
	133	7.5	0.68	2
	134	7.52	0.63	2
	135	7.53	0.35	2
	136	7.54	0.39	2
	137	7.56	0.41	2
	138	7.57	0.42	2
	139	7.58	0.43	2
	140	7.6	0.41	2
	141	7.61	0.39	2
	142	7.62	0.39	2
	143	7.63	0.4	2
	144	7.65	0.42	2
	145	7.66	0.43	2
	146	7.67	0.45	2
	147	7.68	0.42	2
	148	7.7	0.46	2
	149	7.71	0.48	2
	150	7.72	0.5	2
	151	7.74	0.52	2
	152	7.75	0.51	2
	153	7.76	0.5	2
	154	7.78	0.49	2
	155	7.79	0.48	2
	156	7.8	0.48	2
	157	7.81	0.47	2
	158	7.83	0.55	2
	159	7.85	0.63	2
	160	7.86	0.58	2
	161	7.88	0.53	2
	162	7.9	0.52	2
	163	7.92	0.64	2
	164	7.94	0.62	2
	165	7.96	0.55	2
	166	7.97	0.46	2
	167	8	0.64	2
	168	8.02	0.5	2
	169	8.04	0.56	2
	170	8.06	0.49	2
	171	8.08	0.41	2
	172	8.1	0.4	2
	173	8.12	0.38	2
	174	8.14	0.34	2
	175	8.16	0.45	2
	176	8.18	0.42	2
	177	8.2	0.37	2
	178	8.22	0.34	2
	179	8.25	0.36	2
	180	8.27	0.33	2
	181	8.29	0.3	2
	182	8.32	0.35	2
	183	8.34	0.33	2
	184	8.37	0.26	2
	185	8.43	0.7	2
	186	8.5	0.5	2
	187	8.58	0.47	2
	188	8.77	0.7	2
	189	8.96	0.53	2
	190	9.25	0.63	2
	191	10.01	0.33	2
	192	10.17	0.46	2
	193	10.28	0.78	2
	194	10.34	0.49	2
	195	10.53	0.59	2
	196	10.61	0.26	2
	197	10.78	0.45	2

