File:              	C:\Qtrac\Data\Daniel M Sørensen\MScan multicentre study\Data from centres\Antalya\Processed data\TR.NC.ANT.8.2- NCC01208C.QZD
Name:              	TR.NC.ANT.8.2
Protocol:          	MSCAN-R2
Date:              	8/12/20
Start time:        	15:49:18
Age:               	45
Sex:               	f
Temperature:       	33.8
S/R sites:         	ADM
NC/disease:        	NC
Operator:          	ab
Comments:
M-SCAN DATA (8.5-0.8m)
Scanpts: 123, 134, 645, 650
Stim. (mA)     	Amp. (mV)
MS.1           	36             	7.084
MS.2           	36             	7.102
MS.3           	36             	7.068
MS.4           	36             	7.046
MS.5           	36             	7.066
MS.6           	36             	7.092
MS.7           	36             	7.136
MS.8           	36             	7.064
MS.9           	36             	7.029
MS.10          	36             	7.052
MS.11          	36             	7.001
MS.12          	36             	7.013
MS.13          	36             	7.009
MS.14          	36             	7.011
MS.15          	36             	7.108
MS.16          	36             	7.108
MS.17          	36             	6.991
MS.18          	36             	6.975
MS.19          	36             	7.056
MS.20          	36             	7.048
MS.21          	36             	6.925
MS.22          	36             	7.076
MS.23          	36             	7.074
MS.24          	35.855         	6.951
MS.25          	35.785         	7.058
MS.26          	35.712         	7.039
MS.27          	35.642         	7.023
MS.28          	35.57          	6.919
MS.29          	35.5           	6.927
MS.30          	35.427         	6.951
MS.31          	35.357         	6.957
MS.32          	35.287         	6.957
MS.33          	35.217         	6.979
MS.34          	35.145         	6.989
MS.35          	35.075         	6.943
MS.36          	35.005         	6.868
MS.37          	34.935         	6.901
MS.38          	34.865         	6.971
MS.39          	34.798         	6.913
MS.40          	34.728         	6.901
MS.41          	34.657         	6.973
MS.42          	34.587         	6.917
MS.43          	34.52          	6.961
MS.44          	34.45          	6.89
MS.45          	34.382         	6.943
MS.46          	34.312         	6.925
MS.47          	34.245         	6.935
MS.48          	34.175         	6.816
MS.49          	34.107         	6.838
MS.50          	34.04          	6.898
MS.51          	33.972         	6.866
MS.52          	33.903         	6.919
MS.53          	33.835         	6.84
MS.54          	33.767         	6.84
MS.55          	33.7           	6.88
MS.56          	33.632         	6.882
MS.57          	33.565         	6.965
MS.58          	33.5           	6.911
MS.59          	33.432         	6.985
MS.60          	33.365         	6.975
MS.61          	33.298         	6.977
MS.62          	33.232         	7.027
MS.63          	33.165         	7.031
MS.64          	33.1           	6.953
MS.65          	33.032         	6.971
MS.66          	32.967         	6.862
MS.67          	32.903         	6.892
MS.68          	32.835         	6.864
MS.69          	32.77          	6.868
MS.70          	32.705         	6.854
MS.71          	32.64          	6.868
MS.72          	32.575         	6.721
MS.73          	32.51          	7.023
MS.74          	32.445         	6.931
MS.75          	32.38          	6.747
MS.76          	32.315         	6.923
MS.77          	32.25          	6.701
MS.78          	32.185         	6.844
MS.79          	32.12          	6.663
MS.80          	32.057         	6.665
MS.81          	31.992         	6.758
MS.82          	31.93          	6.766
MS.83          	31.865         	6.719
MS.84          	31.802         	6.679
MS.85          	31.737         	6.739
MS.86          	31.675         	6.725
MS.87          	31.612         	6.782
MS.88          	31.547         	6.699
MS.89          	31.485         	6.711
MS.90          	31.422         	6.665
MS.91          	31.36          	6.663
MS.92          	31.297         	6.582
MS.93          	31.235         	6.57
MS.94          	31.172         	6.496
MS.95          	31.11          	6.635
MS.96          	31.047         	6.604
MS.97          	30.985         	6.655
MS.98          	30.922         	6.6
MS.99          	30.862         	6.677
MS.100         	30.8           	6.679
MS.101         	30.737         	6.594
MS.102         	30.677         	6.532
MS.103         	30.615         	6.496
MS.104         	30.555         	6.566
MS.105         	30.492         	6.572
MS.106         	30.432         	6.586
MS.107         	30.372         	6.395
MS.108         	30.31          	6.528
MS.109         	30.25          	6.528
MS.110         	30.19          	6.554
MS.111         	30.13          	6.562
MS.112         	30.07          	6.707
MS.113         	30.01          	6.725
MS.114         	29.95          	6.747
MS.115         	29.89          	6.677
MS.116         	29.83          	6.776
MS.117         	29.77          	6.88
MS.118         	29.71          	6.917
MS.119         	29.653         	6.903
MS.120         	29.592         	6.901
MS.121         	29.532         	6.794
MS.122         	29.475         	6.689
MS.123         	29.415         	6.808
MS.124         	29.358         	6.792
MS.125         	29.297         	6.868
MS.126         	29.24          	6.792
MS.127         	29.18          	6.814
MS.128         	29.122         	6.927
MS.129         	29.065         	6.915
MS.130         	29.007         	6.812
MS.131         	28.948         	6.876
MS.132         	28.89          	6.834
MS.133         	28.832         	6.86
MS.134         	28.775         	6.854
MS.135         	28.717         	6.804
MS.136         	28.66          	6.772
MS.137         	28.602         	6.836
MS.138         	28.545         	6.83
MS.139         	28.49          	6.784
MS.140         	28.432         	6.731
MS.141         	28.375         	6.911
MS.142         	28.317         	6.933
MS.143         	28.262         	6.937
MS.144         	28.205         	6.856
MS.145         	28.15          	6.727
MS.146         	28.092         	6.884
MS.147         	28.037         	6.693
MS.148         	27.98          	6.804
MS.149         	27.925         	7.104
MS.150         	27.87          	7.011
MS.151         	27.812         	6.995
MS.152         	27.757         	6.985
MS.153         	27.702         	6.907
MS.154         	27.647         	6.933
MS.155         	27.592         	6.923
MS.156         	27.537         	6.84
MS.157         	27.483         	6.786
MS.158         	27.427         	6.836
MS.159         	27.372         	6.788
MS.160         	27.317         	6.717
MS.161         	27.262         	6.695
MS.162         	27.207         	6.627
MS.163         	27.153         	6.695
MS.164         	27.1           	6.764
MS.165         	27.045         	6.691
MS.166         	26.993         	6.721
MS.167         	26.938         	6.649
MS.168         	26.882         	6.649
MS.169         	26.83          	6.627
MS.170         	26.775         	6.651
MS.171         	26.722         	6.578
MS.172         	26.67          	6.753
MS.173         	26.615         	6.604
MS.174         	26.562         	6.574
MS.175         	26.51          	6.598
MS.176         	26.457         	6.556
MS.177         	26.405         	6.615
MS.178         	26.35          	6.635
MS.179         	26.297         	6.594
MS.180         	26.245         	6.524
MS.181         	26.192         	6.737
MS.182         	26.14          	6.729
MS.183         	26.09          	6.78
MS.184         	26.037         	6.655
MS.185         	25.985         	6.564
MS.186         	25.932         	6.711
MS.187         	25.88          	6.619
MS.188         	25.83          	6.659
MS.189         	25.778         	6.695
MS.190         	25.727         	6.635
MS.191         	25.675         	6.653
MS.192         	25.622         	6.592
MS.193         	25.573         	6.49
MS.194         	25.522         	6.615
MS.195         	25.47          	6.465
MS.196         	25.42          	6.592
MS.197         	25.368         	6.409
MS.198         	25.317         	6.391
MS.199         	25.267         	6.459
MS.200         	25.217         	6.498
MS.201         	25.167         	6.484
MS.202         	25.115         	6.558
MS.203         	25.065         	6.32
MS.204         	25.015         	6.586
MS.205         	24.965         	6.621
MS.206         	24.915         	6.476
MS.207         	24.868         	6.437
MS.208         	24.817         	6.469
MS.209         	24.767         	6.512
MS.210         	24.717         	6.596
MS.211         	24.667         	6.556
MS.212         	24.62          	6.566
MS.213         	24.57          	6.474
MS.214         	24.52          	6.457
MS.215         	24.472         	6.762
MS.216         	24.422         	6.653
MS.217         	24.375         	6.405
MS.218         	24.325         	6.403
MS.219         	24.278         	6.256
MS.220         	24.227         	6.22
MS.221         	24.18          	6.248
MS.222         	24.132         	6.087
MS.223         	24.082         	6.145
MS.224         	24.035         	6.216
MS.225         	23.987         	6.149
MS.226         	23.94          	6.051
MS.227         	23.892         	6.097
MS.228         	23.842         	6.093
MS.229         	23.795         	6.004
MS.230         	23.747         	6.049
MS.231         	23.7           	5.94
MS.232         	23.653         	6.008
MS.233         	23.608         	5.984
MS.234         	23.56          	5.968
MS.235         	23.512         	5.978
MS.236         	23.465         	5.887
MS.237         	23.417         	5.869
MS.238         	23.372         	5.692
MS.239         	23.325         	5.825
MS.240         	23.278         	5.954
MS.241         	23.233         	5.756
MS.242         	23.185         	5.624
MS.243         	23.14          	5.777
MS.244         	23.092         	5.781
MS.245         	23.047         	5.668
MS.246         	23             	5.692
MS.247         	22.955         	5.718
MS.248         	22.907         	5.64
MS.249         	22.862         	5.73
MS.250         	22.817         	5.654
MS.251         	22.772         	5.597
MS.252         	22.725         	5.605
MS.253         	22.68          	5.477
MS.254         	22.635         	5.611
MS.255         	22.59          	5.529
MS.256         	22.545         	5.456
MS.257         	22.5           	5.477
MS.258         	22.455         	5.654
MS.259         	22.41          	5.551
MS.260         	22.365         	5.499
MS.261         	22.32          	5.543
MS.262         	22.275         	5.491
MS.263         	22.233         	5.436
MS.264         	22.188         	5.289
MS.265         	22.142         	5.533
MS.266         	22.097         	5.41
MS.267         	22.055         	5.303
MS.268         	22.01          	5.319
MS.269         	21.967         	5.317
MS.270         	21.922         	5.315
MS.271         	21.877         	5.386
MS.272         	21.835         	5.269
MS.273         	21.792         	5.207
MS.274         	21.747         	5.166
MS.275         	21.705         	5.333
MS.276         	21.66          	5.259
MS.277         	21.618         	5.112
MS.278         	21.575         	5.102
MS.279         	21.532         	5.174
MS.280         	21.487         	5.1
MS.281         	21.445         	4.963
MS.282         	21.403         	4.981
MS.283         	21.36          	4.943
MS.284         	21.317         	4.991
MS.285         	21.275         	5.005
MS.286         	21.233         	4.87
MS.287         	21.19          	4.931
MS.288         	21.147         	4.953
MS.289         	21.105         	4.854
MS.290         	21.062         	4.919
MS.291         	21.02          	4.834
MS.292         	20.98          	4.719
MS.293         	20.938         	4.8
MS.294         	20.895         	4.856
MS.295         	20.852         	4.842
MS.296         	20.812         	4.681
MS.297         	20.77          	4.689
MS.298         	20.727         	4.77
MS.299         	20.688         	4.77
MS.300         	20.645         	4.663
MS.301         	20.605         	4.685
MS.302         	20.562         	4.622
MS.303         	20.522         	4.669
MS.304         	20.483         	4.602
MS.305         	20.44          	4.556
MS.306         	20.4           	4.606
MS.307         	20.36          	4.616
MS.308         	20.317         	4.516
MS.309         	20.278         	4.467
MS.310         	20.237         	4.477
MS.311         	20.198         	4.556
MS.312         	20.157         	4.496
MS.313         	20.115         	4.496
MS.314         	20.075         	4.345
MS.315         	20.035         	4.359
MS.316         	19.995         	4.461
MS.317         	19.955         	4.544
MS.318         	19.915         	4.469
MS.319         	19.875         	4.49
MS.320         	19.837         	4.482
MS.321         	19.797         	4.351
MS.322         	19.757         	4.498
MS.323         	19.717         	4.425
MS.324         	19.677         	4.357
MS.325         	19.64          	4.312
MS.326         	19.6           	4.29
MS.327         	19.56          	4.312
MS.328         	19.522         	4.081
MS.329         	19.483         	4.204
MS.330         	19.442         	4.089
MS.331         	19.405         	4.258
MS.332         	19.365         	3.982
MS.333         	19.327         	3.899
MS.334         	19.288         	4.077
MS.335         	19.25          	4.147
MS.336         	19.212         	3.869
MS.337         	19.172         	3.841
MS.338         	19.135         	3.877
MS.339         	19.097         	3.897
MS.340         	19.057         	3.99
MS.341         	19.02          	3.799
MS.342         	18.983         	3.897
MS.343         	18.945         	3.863
MS.344         	18.907         	3.821
MS.345         	18.87          	3.996
MS.346         	18.83          	3.797
MS.347         	18.792         	3.662
MS.348         	18.755         	3.706
MS.349         	18.717         	3.865
MS.350         	18.68          	3.686
MS.351         	18.645         	3.75
MS.352         	18.608         	3.807
MS.353         	18.57          	3.924
MS.354         	18.532         	3.847
MS.355         	18.495         	3.535
MS.356         	18.458         	3.718
MS.357         	18.422         	3.865
MS.358         	18.385         	3.692
MS.359         	18.347         	3.831
MS.360         	18.31          	3.533
MS.361         	18.275         	3.543
MS.362         	18.237         	3.686
MS.363         	18.202         	3.742
MS.364         	18.165         	3.781
MS.365         	18.13          	3.15
MS.366         	18.092         	3.567
MS.367         	18.057         	3.65
MS.368         	18.02          	3.686
MS.369         	17.985         	3.241
MS.370         	17.948         	3.19
MS.371         	17.913         	3.207
MS.372         	17.878         	3.374
MS.373         	17.842         	3.438
MS.374         	17.805         	3.132
MS.375         	17.77          	3.148
MS.376         	17.735         	3.092
MS.377         	17.7           	3.09
MS.378         	17.665         	3.43
MS.379         	17.628         	3.164
MS.380         	17.592         	3.015
MS.381         	17.557         	3.09
MS.382         	17.522         	2.993
MS.383         	17.487         	3.124
MS.384         	17.452         	2.975
MS.385         	17.417         	2.856
MS.386         	17.382         	2.919
MS.387         	17.347         	2.892
MS.388         	17.315         	2.933
MS.389         	17.28          	2.747
MS.390         	17.245         	2.723
MS.391         	17.21          	2.888
MS.392         	17.175         	2.937
MS.393         	17.142         	3.192
MS.394         	17.108         	2.876
MS.395         	17.073         	2.993
MS.396         	17.04          	3.031
MS.397         	17.005         	3.12
MS.398         	16.97          	3.138
MS.399         	16.938         	3.015
MS.400         	16.903         	2.917
MS.401         	16.87          	2.923
MS.402         	16.835         	2.937
MS.403         	16.802         	2.792
MS.404         	16.767         	2.719
MS.405         	16.735         	2.846
MS.406         	16.702         	2.808
MS.407         	16.667         	2.969
MS.408         	16.635         	2.643
MS.409         	16.602         	2.618
MS.410         	16.567         	2.741
MS.411         	16.535         	2.618
MS.412         	16.503         	2.659
MS.413         	16.47          	2.578
MS.414         	16.438         	2.612
MS.415         	16.405         	2.633
MS.416         	16.37          	2.471
MS.417         	16.337         	2.429
MS.418         	16.305         	2.548
MS.419         	16.272         	2.725
MS.420         	16.24          	2.326
MS.421         	16.208         	2.181
MS.422         	16.175         	2.393
MS.423         	16.142         	2.596
MS.424         	16.11          	2.647
MS.425         	16.08          	2.234
MS.426         	16.047         	2.222
MS.427         	16.015         	2.379
MS.428         	15.983         	2.54
MS.429         	15.95          	2.433
MS.430         	15.92          	2.212
MS.431         	15.887         	2.314
MS.432         	15.855         	2.216
MS.433         	15.825         	2.411
MS.434         	15.792         	2.117
MS.435         	15.76          	2.129
MS.436         	15.73          	2.256
MS.437         	15.697         	2.29
MS.438         	15.667         	2.111
MS.439         	15.635         	2.248
MS.440         	15.605         	2.113
MS.441         	15.572         	1.934
MS.442         	15.542         	2.097
MS.443         	15.51          	2.103
MS.444         	15.48          	2.107
MS.445         	15.447         	1.875
MS.446         	15.417         	1.795
MS.447         	15.387         	2.024
MS.448         	15.355         	1.915
MS.449         	15.325         	1.853
MS.450         	15.295         	1.934
MS.451         	15.265         	1.861
MS.452         	15.235         	1.847
MS.453         	15.202         	1.615
MS.454         	15.172         	1.698
MS.455         	15.142         	1.567
MS.456         	15.112         	1.627
MS.457         	15.082         	1.589
MS.458         	15.052         	1.551
MS.459         	15.023         	1.523
MS.460         	14.992         	1.672
MS.461         	14.962         	1.319
MS.462         	14.932         	1.462
MS.463         	14.902         	1.503
MS.464         	14.872         	1.535
MS.465         	14.842         	1.513
MS.466         	14.812         	1.41
MS.467         	14.782         	1.535
MS.468         	14.755         	1.545
MS.469         	14.725         	1.633
MS.470         	14.695         	1.47
MS.471         	14.665         	1.535
MS.472         	14.637         	1.482
MS.473         	14.608         	1.392
MS.474         	14.577         	1.196
MS.475         	14.55          	1.267
MS.476         	14.52          	1.275
MS.477         	14.49          	1.339
MS.478         	14.462         	1.13
MS.479         	14.432         	1.267
MS.480         	14.405         	1.104
MS.481         	14.375         	1.219
MS.482         	14.347         	1.213
MS.483         	14.318         	1.217
MS.484         	14.29          	1.382
MS.485         	14.26          	1.213
MS.486         	14.233         	1.188
MS.487         	14.205         	1.295
MS.488         	14.175         	1.285
MS.489         	14.148         	1.378
MS.490         	14.12          	1.267
MS.491         	14.09          	1.243
MS.492         	14.062         	1.287
MS.493         	14.035         	1.19
MS.494         	14.007         	1.223
MS.495         	13.977         	1.055
MS.496         	13.95          	1.213
MS.497         	13.922         	1.128
MS.498         	13.895         	1.2
MS.499         	13.867         	1.186
MS.500         	13.84          	1.225
MS.501         	13.812         	1.271
MS.502         	13.785         	1.356
MS.503         	13.757         	2.651
MS.504         	13.73          	2.798
MS.505         	13.702         	2.711
MS.506         	13.675         	2.524
MS.507         	13.648         	2.588
MS.508         	13.62          	2.494
MS.509         	13.592         	2.498
MS.510         	13.565         	2.624
MS.511         	13.537         	2.459
MS.512         	13.51          	2.747
MS.513         	13.485         	2.685
MS.514         	13.457         	2.62
MS.515         	13.43          	2.342
MS.516         	13.403         	2.268
MS.517         	13.377         	2.439
MS.518         	13.35          	2.294
MS.519         	13.322         	2.411
MS.520         	13.297         	2.083
MS.521         	13.27          	2.288
MS.522         	13.242         	2.159
MS.523         	13.217         	2.421
MS.524         	13.19          	2.177
MS.525         	13.165         	2.036
MS.526         	13.137         	1.863
MS.527         	13.112         	1.889
MS.528         	13.085         	1.857
MS.529         	13.06          	1.537
MS.530         	13.032         	1.366
MS.531         	13.007         	1.362
MS.532         	12.983         	1.354
MS.533         	12.955         	1.325
MS.534         	12.93          	1.221
MS.535         	12.903         	1.15
MS.536         	12.877         	1.211
MS.537         	12.852         	1.229
MS.538         	12.827         	0.955
MS.539         	12.8           	1.027
MS.540         	12.775         	1.023
MS.541         	12.75          	1.15
MS.542         	12.725         	0.989
MS.543         	12.7           	1.019
MS.544         	12.672         	0.983
MS.545         	12.648         	1.021
MS.546         	12.622         	1.001
MS.547         	12.597         	0.971
MS.548         	12.572         	1.021
MS.549         	12.547         	0.927
MS.550         	12.523         	0.965
MS.551         	12.497         	0.987
MS.552         	12.472         	1.037
MS.553         	12.447         	0.914
MS.554         	12.422         	0.931
MS.555         	12.398         	0.894
MS.556         	12.372         	0.963
MS.557         	12.347         	0.908
MS.558         	12.322         	0.771
MS.559         	12.3           	0.8
MS.560         	12.275         	0.906
MS.561         	12.25          	0.649
MS.562         	12.225         	0.747
MS.563         	12.2           	0.775
MS.564         	12.177         	0.792
MS.565         	12.153         	0.83
MS.566         	12.127         	0.6
MS.567         	12.102         	0.578
MS.568         	12.08          	0.645
MS.569         	12.055         	0.653
MS.570         	12.032         	0.703
MS.571         	12.007         	0.779
MS.572         	11.983         	0.739
MS.573         	11.96          	0.572
MS.574         	11.935         	0.636
MS.575         	11.912         	0.588
MS.576         	11.887         	0.554
MS.577         	11.865         	0.493
MS.578         	11.84          	0.489
MS.579         	11.818         	0.469
MS.580         	11.792         	0.6
MS.581         	11.77          	0.278
MS.582         	11.745         	0.34
MS.583         	11.722         	0.508
MS.584         	11.7           	0.463
MS.585         	11.675         	0.338
MS.586         	11.653         	0.302
MS.587         	11.63          	0.425
MS.588         	11.605         	0.429
MS.589         	11.582         	0.437
MS.590         	11.56          	0.338
MS.591         	11.537         	0.288
MS.592         	11.512         	0.359
MS.593         	11.49          	0.354
MS.594         	11.467         	0.367
MS.595         	11.445         	0.189
MS.596         	11.422         	0.34
MS.597         	11.4           	0.238
MS.598         	11.375         	0.185
MS.599         	11.352         	0.332
MS.600         	11.33          	0.234
MS.601         	11.307         	0.173
MS.602         	11.285         	0.246
MS.603         	11.262         	0.183
MS.604         	11.24          	0.209
MS.605         	11.217         	0.163
MS.606         	11.195         	0.167
MS.607         	11.172         	0.195
MS.608         	11.15          	0.141
MS.609         	11.127         	0.115
MS.610         	11.108         	0.129
MS.611         	11.085         	0.139
MS.612         	11.062         	0.105
MS.613         	11.04          	0.081
MS.614         	11.017         	0.153
MS.615         	10.995         	0.125
MS.616         	10.975         	0.075
MS.617         	10.952         	0.089
MS.618         	10.93          	0.081
MS.619         	10.907         	0.105
MS.620         	10.887         	0.103
MS.621         	10.865         	0.133
MS.622         	10.842         	0.125
MS.623         	10.823         	0.091
MS.624         	10.8           	0.093
MS.625         	10.778         	0.091
MS.626         	10.757         	0.117
MS.627         	10.735         	0.062
MS.628         	10.712         	0.085
MS.629         	10.693         	0.095
MS.630         	10.67          	0.079
MS.631         	10.65          	0.095
MS.632         	10.627         	0.099
MS.633         	10.608         	0.103
MS.634         	10.585         	0.095
MS.635         	10.565         	0.113
MS.636         	10.542         	0.093
MS.637         	10.523         	0.101
MS.638         	10.502         	0.087
MS.639         	10.48          	0.081
MS.640         	10.46          	0.101
MS.641         	10.438         	0.101
MS.642         	10.417         	0.097
MS.643         	10.398         	0.093
MS.644         	10.375         	0.111
MS.645         	10.355         	0.095
MS.646         	10.335         	0.097
MS.647         	10.315         	0.079
MS.648         	10.292         	0.109
MS.649         	10.273         	0.085
MS.650         	10.252         	0.095
MS.651         	10.233         	0.093
MS.652         	10.212         	0.093
MS.653         	10.19          	0.07
MS.654         	10.17          	0.083
MS.655         	10.15          	0.103
MS.656         	10.13          	0.083
MS.657         	10.11          	0.099
MS.658         	10.09          	0.093
MS.659         	10.07          	0.077
MS.660         	10.05          	0.075
MS.661         	10.03          	0.081
MS.662         	10.01          	0.089
MS.663         	9.99           	0.105
MS.664         	9.97           	0.089
MS.665         	9.95           	0.077
MS.666         	9.93           	0.101
MS.667         	9.91           	0.099
MS.668         	9.89           	0.079
MS.669         	9.87           	0.111
MS.670         	9.85           	0.085
MS.671         	9.83           	0.095
MS.672         	9.81           	0.113
MS.673         	9.792          	0.109
MS.674         	9.773          	0.107
MS.675         	9.752          	0.081
MS.676         	9.733          	0.117
MS.677         	9.712          	0.119
MS.678         	9.695          	0.089
MS.679         	9.675          	0.062
MS.680         	9.655          	0.089
MS.681         	9.635          	0.105
MS.682         	9.617          	0.117
MS.683         	9.597          	0.093
MS.684         	9.577          	0.099
MS.685         	9.56           	0.091
MS.686         	9.54           	0.091
MS.687         	9.52           	0.07
MS.688         	9.502          	0.121
MS.689         	9.483          	0.087
MS.690         	9.465          	0.056
MS.691         	9.445          	0.115
MS.692         	9.427          	0.105
MS.693         	9.407          	0.107
MS.694         	9.39           	0.109
MS.695         	9.37           	0.115
MS.696         	9.352          	0.103
MS.697         	9.332          	0.085
MS.698         	9.315          	0.115
MS.699         	9.295          	0.101
MS.700         	9.278          	0.113
MS.701         	9.257          	0.093
MS.702         	9.24           	0.105
MS.703         	9.222          	0.103
MS.704         	9.202          	0.117
MS.705         	9.185          	0.111
MS.706         	9.165          	0.105
MS.707         	9.148          	0.105
MS.708         	9.13           	0.111
MS.709         	9.113          	0.107
MS.710         	9.092          	0.111
MS.711         	9.075          	0.083
MS.712         	9.057          	0.101
MS.713         	9.037          	0.109
MS.714         	9.02           	0.109
MS.715         	9.002          	0.113
MS.716         	8.985          	0.089
MS.717         	8.967          	0.105
MS.718         	8.95           	0.111
MS.719         	8.93           	0.103
MS.720         	8.912          	0.099
MS.721         	8.895          	0.091
MS.722         	8.877          	0.099
MS.723         	8.86           	0.109
MS.724         	8.842          	0.095
MS.725         	8.825          	0.111
MS.726         	8.807          	0.109
MS.727         	8.79           	0.113
MS.728         	8.773          	0.093
MS.729         	8.755          	0.103
MS.730         	8.738          	0.097
MS.731         	8.72           	0.105
MS.732         	8.702          	0.109
MS.733         	8.685          	0.111
MS.734         	8.667          	0.111
MS.735         	8.65           	0.093
MS.736         	8.632          	0.087
MS.737         	8.615          	0.113
MS.738         	8.597          	0.097
MS.739         	8.58           	0.109
MS.740         	8.562          	0.097
MS.741         	8.547          	0.091
MS.742         	8.53           	0.081
MS.743         	8.512          	0.105
MS.744         	8.495          	0.111
MS.745         	8.477          	0.097
MS.746         	8.462          	0.107
MS.747         	8.445          	0.109
MS.748         	8.427          	0.107
MS.749         	8.41           	0.113
MS.750         	8.395          	0.093
MS.751         	8.377          	0.107
MS.752         	8.36           	0.095
MS.753         	8.345          	0.083
MS.754         	8.327          	0.083
MS.755         	8.31           	0.095
MS.756         	8.295          	0.101
MS.757         	8.278          	0.105
MS.758         	8.26           	0.107
MS.759         	8.245          	0.113
MS.760         	8.227          	0.113
MS.761         	8.212          	0.091
MS.762         	8.195          	0.111
MS.763         	8.177          	0.103
MS.764         	8.162          	0.115
MS.765         	8.145          	0.107
MS.766         	8.13           	0.119
MS.767         	8.113          	0.117
MS.768         	8.097          	0.099
MS.769         	8.08           	0.103
MS.770         	8.065          	0.105
MS.771         	8.047          	0.113
MS.772         	8.033          	0.113
MS.773         	8.017          	0.119
MS.774         	8              	0.113
MS.775         	7.985          	0.101
MS.776         	7.967          	0.099
MS.777         	7.952          	0.103
MS.778         	7.938          	0.101
MS.779         	7.92           	0.113
MS.780         	7.905          	0.105
MS.781         	7.89           	0.125
MS.782         	7.872          	0.117
MS.783         	7.857          	0.109
MS.784         	7.842          	0.125
MS.785         	7.827          	0.129
MS.786         	7.81           	0.113
MS.787         	7.795          	0.103
MS.788         	7.78           	0.117
MS.789         	7.765          	0.123
MS.790         	7.747          	0.125
MS.791         	7.732          	0.105
MS.792         	7.717          	0.111
MS.793         	7.702          	0.103
MS.794         	7.688          	0.113
MS.795         	7.672          	0.123
MS.796         	7.655          	0.127
MS.797         	7.64           	0.109
MS.798         	7.625          	0.109
MS.799         	7.61           	0.107
MS.800         	7.595          	0.109
MS.801         	7.58           	0.119
MS.802         	7.565          	0.111
MS.803         	7.55           	0.109
MS.804         	7.535          	0.123
MS.805         	7.52           	0.095
MS.806         	7.505          	0.113
MS.807         	7.49           	0.123
DERIVED EXCITABILITY VARIABLES
Program = QTracP 3/4/2020
Threshold method = 6 (optimised for CAP, using data for present condition only)
SR method = 1 (using actual data values)
6.                 	0.000               	Peak response\(mV)
9.                 	33.8                	Temperature ( C)
17.                	45                  	Age (years)
18.                	2                   	Sex (M=1, F=2)

EXTRA VARIABLES

MScPeak(mV) = 6.94
MScS5(mA) = 11.63
MScS50(mA) = 18.08
MScS95(mA) = 26.52
MScNSteps = 0
MScSteps(%) = 0.0
MScStepMax(%) = 0.0
MScD50 = 78
MScSlope = 2.35
MSFPeakAmp(mV) = 6.75
MSFNUnits = 77
MSFMeanUnitAmp(uV) = 87.7
MSFHuntTime(m) = 2.29
MSFError(%) = 17.9
MSFNLarge = 18.46
MSFMedianAmp(%) = 0.982
MSFMedianAmp(mV) = 0.0663
MSFHalfAmpAmp(%) = 1.47
MSFHalfAmpAmp(mV) = 0.0995
MSFLargestAmp(%) = 4.31
MSFLargestAmp(mV) = 0.291
MSFMeanRS(%) = 2.01
MSFOpts = 10106121
MScDuration(min) = 7.7
MSFTraces = 528
MSFSizeLimit(uV) = 17.5
MSFLimitType = 3
MSFSmallestAmp(uV) = 29.1

EXTRA WAVEFORMS


!MScan Model
!77
	1	10.93	0.46	2
	2	11.11	0.62	2
	3	11.23	0.61	2
	4	11.36	0.83	2
	5	11.5	0.98	2
	6	11.62	1.07	2
	7	11.74	1.14	2
	8	11.87	1.12	2
	9	11.98	1.11	2
	10	12.09	1.09	2
	11	12.19	1.11	2
	12	12.39	1.73	2
	13	12.65	1.37	2
	14	12.65	0.91	2
	15	13.29	2.7	2.4
	16	14.48	4.31	2
	17	15.02	1.63	2
	18	15.14	1.39	2
	19	15.25	1.14	2
	20	15.34	0.99	2
	21	15.44	1.22	2
	22	15.56	1.47	2
	23	15.76	2.29	2
	24	16.02	2.53	2
	25	16.27	2.39	2
	26	16.54	3.53	2
	27	17.27	3.85	2
	28	17.71	3.33	2
	29	17.96	2.44	2
	30	18.27	3.86	2
	31	18.87	2.88	2
	32	18.87	0.72	2
	33	19.13	1.96	2
	34	19.31	1.37	2
	35	19.47	1.19	2
	36	19.64	1.24	2
	37	19.82	1.42	2
	38	20	1.47	2
	39	20.2	1.42	2
	40	20.4	1.22	2
	41	20.52	0.62	2
	42	20.63	0.56	2
	43	20.7	0.43	2
	44	20.77	0.46	2
	45	20.85	0.48	2
	46	20.92	0.5	2
	47	20.99	0.51	2
	48	21.05	0.51	2
	49	21.12	0.48	2
	50	21.18	0.48	2
	51	21.25	0.51	2
	52	21.33	0.58	2
	53	21.41	0.57	2
	54	21.49	0.58	2
	55	21.57	0.62	2
	56	21.65	0.62	2
	57	21.75	0.7	2
	58	21.85	0.65	2
	59	21.96	0.71	2
	60	22.07	0.78	2
	61	22.2	0.88	2
	62	22.34	0.85	2
	63	22.52	0.98	2
	64	22.68	0.92	2
	65	22.83	0.87	2
	66	22.96	0.76	2
	67	23.07	0.69	2
	68	23.18	0.66	2
	69	23.28	0.6	2
	70	23.37	0.57	2
	71	23.46	0.6	2
	72	23.64	1.41	2
	73	23.84	1.56	2
	74	24.07	1.61	2
	75	24.47	3.28	2
	76	26.8	3.44	2
	77	26.8	0.86	2

