File:              	C:\Qtrac\Data\ME2C30626A.QZD
Name:              	 HU17A
Protocol:          	MSCAN-MV
Date:              	26/6/23
Date of birth:     	17/9/88
Age:               	34
Sex:               	F
Temperature:       	32.4
S/R sites:         	Knee CF-TA
NC/disease:        	NC
Operator:          	BY
Comments:
M-SCAN DATA (Repeat 1/3, 11.1-3.5m)
Scanpts: 4, 16, 551, 567
Stim. (mA)     	Amp. (mV)
MS.1           	45             	4.586
MS.2           	45             	4.644
MS.3           	45             	4.589
MS.4           	45             	4.608
MS.5           	45             	4.608
MS.6           	45             	4.642
MS.7           	45             	4.611
MS.8           	45             	4.587
MS.9           	45             	4.622
MS.10          	45             	4.587
MS.11          	45             	4.557
MS.12          	45             	4.619
MS.13          	45             	4.595
MS.14          	45             	4.616
MS.15          	45             	4.583
MS.16          	45             	4.593
MS.17          	45             	4.601
MS.18          	45             	4.606
MS.19          	45             	4.586
MS.20          	45             	4.648
MS.21          	45             	4.58
MS.22          	45             	4.573
MS.23          	45             	4.607
MS.24          	44.82          	4.643
MS.25          	44.73          	4.617
MS.26          	44.642         	4.664
MS.27          	44.552         	4.555
MS.28          	44.462         	4.619
MS.29          	44.375         	4.538
MS.30          	44.285         	4.564
MS.31          	44.197         	4.542
MS.32          	44.11          	4.537
MS.33          	44.02          	4.501
MS.34          	43.932         	4.536
MS.35          	43.845         	4.492
MS.36          	43.757         	4.514
MS.37          	43.67          	4.503
MS.38          	43.583         	4.476
MS.39          	43.495         	4.493
MS.40          	43.407         	4.498
MS.41          	43.322         	4.509
MS.42          	43.235         	4.478
MS.43          	43.15          	4.413
MS.44          	43.062         	4.471
MS.45          	42.978         	4.405
MS.46          	42.89          	4.442
MS.47          	42.805         	4.406
MS.48          	42.72          	4.38
MS.49          	42.635         	4.388
MS.50          	42.55          	4.351
MS.51          	42.465         	4.312
MS.52          	42.38          	4.321
MS.53          	42.295         	4.299
MS.54          	42.21          	4.36
MS.55          	42.125         	4.305
MS.56          	42.042         	4.305
MS.57          	41.958         	4.335
MS.58          	41.872         	4.288
MS.59          	41.79          	4.307
MS.60          	41.708         	4.323
MS.61          	41.622         	4.279
MS.62          	41.54          	4.266
MS.63          	41.458         	4.223
MS.64          	41.375         	4.233
MS.65          	41.292         	4.227
MS.66          	41.21          	4.21
MS.67          	41.127         	4.223
MS.68          	41.045         	4.188
MS.69          	40.962         	4.142
MS.70          	40.88          	4.188
MS.71          	40.8           	4.186
MS.72          	40.717         	4.131
MS.73          	40.635         	4.2
MS.74          	40.555         	4.168
MS.75          	40.475         	4.125
MS.76          	40.392         	4.097
MS.77          	40.312         	4.117
MS.78          	40.232         	4.13
MS.79          	40.153         	4.104
MS.80          	40.07          	4.111
MS.81          	39.99          	4.061
MS.82          	39.912         	4.111
MS.83          	39.833         	4.092
MS.84          	39.752         	4.125
MS.85          	39.673         	4.043
MS.86          	39.592         	4.034
MS.87          	39.515         	4.023
MS.88          	39.435         	3.971
MS.89          	39.357         	4.055
MS.90          	39.278         	4
MS.91          	39.2           	4.033
MS.92          	39.12          	3.994
MS.93          	39.042         	3.969
MS.94          	38.965         	3.972
MS.95          	38.888         	4.014
MS.96          	38.81          	3.918
MS.97          	38.732         	3.925
MS.98          	38.655         	3.939
MS.99          	38.577         	3.798
MS.100         	38.5           	3.885
MS.101         	38.423         	3.848
MS.102         	38.347         	3.885
MS.103         	38.27          	3.828
MS.104         	38.192         	3.854
MS.105         	38.118         	3.843
MS.106         	38.04          	3.862
MS.107         	37.965         	3.824
MS.108         	37.89          	3.807
MS.109         	37.812         	3.788
MS.110         	37.737         	3.724
MS.111         	37.662         	3.833
MS.112         	37.587         	3.762
MS.113         	37.513         	3.754
MS.114         	37.438         	3.724
MS.115         	37.362         	3.743
MS.116         	37.287         	3.766
MS.117         	37.212         	3.758
MS.118         	37.138         	3.742
MS.119         	37.065         	3.701
MS.120         	36.99          	3.698
MS.121         	36.917         	3.714
MS.122         	36.842         	3.663
MS.123         	36.77          	3.691
MS.124         	36.695         	3.609
MS.125         	36.622         	3.55
MS.126         	36.55          	3.659
MS.127         	36.475         	3.69
MS.128         	36.403         	3.615
MS.129         	36.33          	3.578
MS.130         	36.257         	3.566
MS.131         	36.185         	3.539
MS.132         	36.112         	3.605
MS.133         	36.04          	3.527
MS.134         	35.97          	3.583
MS.135         	35.897         	3.516
MS.136         	35.825         	3.582
MS.137         	35.755         	3.478
MS.138         	35.682         	3.51
MS.139         	35.61          	3.491
MS.140         	35.54          	3.433
MS.141         	35.47          	3.549
MS.142         	35.397         	3.478
MS.143         	35.327         	3.483
MS.144         	35.257         	3.442
MS.145         	35.188         	3.444
MS.146         	35.115         	3.469
MS.147         	35.045         	3.417
MS.148         	34.975         	3.485
MS.149         	34.905         	3.42
MS.150         	34.835         	3.477
MS.151         	34.767         	3.428
MS.152         	34.697         	3.435
MS.153         	34.627         	3.35
MS.154         	34.557         	3.346
MS.155         	34.49          	3.339
MS.156         	34.42          	3.387
MS.157         	34.353         	3.318
MS.158         	34.282         	3.32
MS.159         	34.215         	3.333
MS.160         	34.147         	3.254
MS.161         	34.077         	3.256
MS.162         	34.01          	3.25
MS.163         	33.943         	3.287
MS.164         	33.875         	3.301
MS.165         	33.807         	3.361
MS.166         	33.74          	3.264
MS.167         	33.673         	3.258
MS.168         	33.605         	3.224
MS.169         	33.537         	3.15
MS.170         	33.47          	3.217
MS.171         	33.403         	3.159
MS.172         	33.337         	3.087
MS.173         	33.27          	3.173
MS.174         	33.202         	3.198
MS.175         	33.138         	3.101
MS.176         	33.07          	3.187
MS.177         	33.005         	3.105
MS.178         	32.94          	3.11
MS.179         	32.872         	3.172
MS.180         	32.807         	3.026
MS.181         	32.743         	3.024
MS.182         	32.677         	2.966
MS.183         	32.612         	3.044
MS.184         	32.545         	3.049
MS.185         	32.48          	2.961
MS.186         	32.415         	2.969
MS.187         	32.353         	2.998
MS.188         	32.287         	2.959
MS.189         	32.222         	2.891
MS.190         	32.157         	2.974
MS.191         	32.092         	2.949
MS.192         	32.03          	2.96
MS.193         	31.965         	2.935
MS.194         	31.903         	2.93
MS.195         	31.837         	2.9
MS.196         	31.775         	2.903
MS.197         	31.71          	2.916
MS.198         	31.647         	2.844
MS.199         	31.585         	2.836
MS.200         	31.52          	2.819
MS.201         	31.457         	2.833
MS.202         	31.395         	2.852
MS.203         	31.332         	2.78
MS.204         	31.27          	2.823
MS.205         	31.207         	2.75
MS.206         	31.145         	2.694
MS.207         	31.082         	2.715
MS.208         	31.02          	2.713
MS.209         	30.96          	2.725
MS.210         	30.897         	2.715
MS.211         	30.835         	2.669
MS.212         	30.772         	2.737
MS.213         	30.712         	2.57
MS.214         	30.65          	2.669
MS.215         	30.59          	2.59
MS.216         	30.528         	2.597
MS.217         	30.467         	2.507
MS.218         	30.407         	2.538
MS.219         	30.345         	2.581
MS.220         	30.285         	2.51
MS.221         	30.225         	2.411
MS.222         	30.165         	2.511
MS.223         	30.105         	2.43
MS.224         	30.045         	2.43
MS.225         	29.985         	2.356
MS.226         	29.925         	2.545
MS.227         	29.865         	2.4
MS.228         	29.805         	2.374
MS.229         	29.745         	2.393
MS.230         	29.685         	2.278
MS.231         	29.625         	2.258
MS.232         	29.567         	2.26
MS.233         	29.507         	2.172
MS.234         	29.45          	2.241
MS.235         	29.39          	2.258
MS.236         	29.332         	2.174
MS.237         	29.272         	2.217
MS.238         	29.215         	2.145
MS.239         	29.155         	2.219
MS.240         	29.097         	2.047
MS.241         	29.04          	2.132
MS.242         	28.983         	2.171
MS.243         	28.922         	2.115
MS.244         	28.865         	2.041
MS.245         	28.807         	2.066
MS.246         	28.75          	2.028
MS.247         	28.692         	2.013
MS.248         	28.635         	2.042
MS.249         	28.577         	1.997
MS.250         	28.522         	2.077
MS.251         	28.465         	1.983
MS.252         	28.407         	1.968
MS.253         	28.35          	1.96
MS.254         	28.295         	1.927
MS.255         	28.237         	1.973
MS.256         	28.182         	1.927
MS.257         	28.125         	1.793
MS.258         	28.07          	1.899
MS.259         	28.012         	1.912
MS.260         	27.957         	1.907
MS.261         	27.9           	1.809
MS.262         	27.845         	1.891
MS.263         	27.79          	1.81
MS.264         	27.735         	1.741
MS.265         	27.677         	1.804
MS.266         	27.622         	1.625
MS.267         	27.567         	1.788
MS.268         	27.512         	1.666
MS.269         	27.457         	1.785
MS.270         	27.403         	1.661
MS.271         	27.347         	1.674
MS.272         	27.295         	1.617
MS.273         	27.24          	1.704
MS.274         	27.185         	1.591
MS.275         	27.13          	1.561
MS.276         	27.077         	1.623
MS.277         	27.022         	1.622
MS.278         	26.967         	1.569
MS.279         	26.915         	1.573
MS.280         	26.86          	1.545
MS.281         	26.807         	1.466
MS.282         	26.752         	1.608
MS.283         	26.7           	1.545
MS.284         	26.647         	1.481
MS.285         	26.592         	1.468
MS.286         	26.54          	1.421
MS.287         	26.487         	1.469
MS.288         	26.435         	1.409
MS.289         	26.382         	1.438
MS.290         	26.327         	1.4
MS.291         	26.275         	1.41
MS.292         	26.222         	1.448
MS.293         	26.17          	1.49
MS.294         	26.12          	1.482
MS.295         	26.067         	1.449
MS.296         	26.015         	1.419
MS.297         	25.962         	1.464
MS.298         	25.91          	1.403
MS.299         	25.86          	1.455
MS.300         	25.807         	1.407
MS.301         	25.755         	1.42
MS.302         	25.705         	1.379
MS.303         	25.653         	1.331
MS.304         	25.602         	1.373
MS.305         	25.55          	1.369
MS.306         	25.5           	1.352
MS.307         	25.448         	1.37
MS.308         	25.397         	1.36
MS.309         	25.347         	1.396
MS.310         	25.297         	1.371
MS.311         	25.245         	1.281
MS.312         	25.195         	1.345
MS.313         	25.145         	1.318
MS.314         	25.095         	1.238
MS.315         	25.045         	1.274
MS.316         	24.995         	1.324
MS.317         	24.945         	1.305
MS.318         	24.895         	1.273
MS.319         	24.845         	1.29
MS.320         	24.795         	1.258
MS.321         	24.745         	1.238
MS.322         	24.698         	1.262
MS.323         	24.647         	1.265
MS.324         	24.597         	1.263
MS.325         	24.547         	1.257
MS.326         	24.5           	1.183
MS.327         	24.45          	1.202
MS.328         	24.403         	1.215
MS.329         	24.352         	1.201
MS.330         	24.305         	1.183
MS.331         	24.255         	1.224
MS.332         	24.207         	1.235
MS.333         	24.16          	1.155
MS.334         	24.11          	1.199
MS.335         	24.062         	1.19
MS.336         	24.015         	1.213
MS.337         	23.967         	1.187
MS.338         	23.917         	1.168
MS.339         	23.87          	1.165
MS.340         	23.823         	1.182
MS.341         	23.775         	1.162
MS.342         	23.727         	1.11
MS.343         	23.68          	1.117
MS.344         	23.632         	1.139
MS.345         	23.585         	1.167
MS.346         	23.54          	1.095
MS.347         	23.493         	1.094
MS.348         	23.445         	1.112
MS.349         	23.397         	1.127
MS.350         	23.352         	1.06
MS.351         	23.305         	1.068
MS.352         	23.257         	1.052
MS.353         	23.212         	1.069
MS.354         	23.165         	1.071
MS.355         	23.12          	1.024
MS.356         	23.073         	1.05
MS.357         	23.028         	1.011
MS.358         	22.98          	1.074
MS.359         	22.935         	1.114
MS.360         	22.89          	1.059
MS.361         	22.842         	0.966
MS.362         	22.797         	1.044
MS.363         	22.752         	1.053
MS.364         	22.707         	0.981
MS.365         	22.663         	1.013
MS.366         	22.615         	1.004
MS.367         	22.57          	0.994
MS.368         	22.525         	0.999
MS.369         	22.48          	0.923
MS.370         	22.435         	0.915
MS.371         	22.39          	0.947
MS.372         	22.345         	0.957
MS.373         	22.302         	0.907
MS.374         	22.257         	0.906
MS.375         	22.212         	0.975
MS.376         	22.167         	0.92
MS.377         	22.125         	0.918
MS.378         	22.08          	0.845
MS.379         	22.035         	0.821
MS.380         	21.993         	0.823
MS.381         	21.948         	0.853
MS.382         	21.905         	0.766
MS.383         	21.86          	0.838
MS.384         	21.817         	0.873
MS.385         	21.772         	0.766
MS.386         	21.73          	0.765
MS.387         	21.685         	0.757
MS.388         	21.642         	0.727
MS.389         	21.6           	0.787
MS.390         	21.555         	0.716
MS.391         	21.512         	0.787
MS.392         	21.47          	0.655
MS.393         	21.427         	0.75
MS.394         	21.385         	0.793
MS.395         	21.342         	0.736
MS.396         	21.3           	0.64
MS.397         	21.257         	0.689
MS.398         	21.215         	0.625
MS.399         	21.172         	0.538
MS.400         	21.13          	0.685
MS.401         	21.087         	0.604
MS.402         	21.045         	0.615
MS.403         	21.002         	0.617
MS.404         	20.96          	0.607
MS.405         	20.92          	0.69
MS.406         	20.877         	0.538
MS.407         	20.835         	0.541
MS.408         	20.795         	0.596
MS.409         	20.752         	0.582
MS.410         	20.71          	0.563
MS.411         	20.67          	0.607
MS.412         	20.627         	0.605
MS.413         	20.587         	0.515
MS.414         	20.545         	0.532
MS.415         	20.505         	0.58
MS.416         	20.465         	0.555
MS.417         	20.422         	0.524
MS.418         	20.382         	0.527
MS.419         	20.342         	0.463
MS.420         	20.3           	0.589
MS.421         	20.26          	0.51
MS.422         	20.22          	0.485
MS.423         	20.18          	0.566
MS.424         	20.14          	0.527
MS.425         	20.1           	0.499
MS.426         	20.057         	0.494
MS.427         	20.017         	0.474
MS.428         	19.977         	0.506
MS.429         	19.938         	0.477
MS.430         	19.9           	0.469
MS.431         	19.86          	0.475
MS.432         	19.82          	0.494
MS.433         	19.78          	0.502
MS.434         	19.74          	0.435
MS.435         	19.7           	0.446
MS.436         	19.663         	0.527
MS.437         	19.622         	0.41
MS.438         	19.583         	0.448
MS.439         	19.545         	0.425
MS.440         	19.505         	0.414
MS.441         	19.465         	0.481
MS.442         	19.427         	0.436
MS.443         	19.387         	0.393
MS.444         	19.35          	0.394
MS.445         	19.31          	0.388
MS.446         	19.272         	0.359
MS.447         	19.233         	0.34
MS.448         	19.195         	0.344
MS.449         	19.157         	0.411
MS.450         	19.118         	0.343
MS.451         	19.08          	0.325
MS.452         	19.042         	0.34
MS.453         	19.005         	0.385
MS.454         	18.965         	0.316
MS.455         	18.927         	0.368
MS.456         	18.89          	0.309
MS.457         	18.852         	0.323
MS.458         	18.815         	0.294
MS.459         	18.778         	0.315
MS.460         	18.74          	0.408
MS.461         	18.702         	0.253
MS.462         	18.665         	0.326
MS.463         	18.628         	0.283
MS.464         	18.59          	0.28
MS.465         	18.552         	0.28
MS.466         	18.517         	0.323
MS.467         	18.48          	0.231
MS.468         	18.442         	0.288
MS.469         	18.405         	0.255
MS.470         	18.37          	0.274
MS.471         	18.333         	0.206
MS.472         	18.295         	0.27
MS.473         	18.26          	0.197
MS.474         	18.222         	0.251
MS.475         	18.185         	0.227
MS.476         	18.15          	0.213
MS.477         	18.112         	0.117
MS.478         	18.077         	0.225
MS.479         	18.04          	0.212
MS.480         	18.005         	0.147
MS.481         	17.97          	0.16
MS.482         	17.932         	0.15
MS.483         	17.897         	0.191
MS.484         	17.862         	0.131
MS.485         	17.825         	0.071
MS.486         	17.79          	0.037
MS.487         	17.755         	0.069
MS.488         	17.72          	0.099
MS.489         	17.685         	0.159
MS.490         	17.647         	0.084
MS.491         	17.612         	0.043
MS.492         	17.577         	0.114
MS.493         	17.542         	0.093
MS.494         	17.507         	0.035
MS.495         	17.472         	0.082
MS.496         	17.438         	0.018
MS.497         	17.403         	0.05
MS.498         	17.368         	-0.013
MS.499         	17.335         	0.092
MS.500         	17.3           	-0.006
MS.501         	17.265         	0.069
MS.502         	17.23          	-0.001
MS.503         	17.195         	-0.013
MS.504         	17.163         	0.057
MS.505         	17.128         	0.053
MS.506         	17.092         	-0.008
MS.507         	17.057         	0.04
MS.508         	17.025         	-0.037
MS.509         	16.99          	0.023
MS.510         	16.958         	-0.018
MS.511         	16.922         	-0.032
MS.512         	16.89          	-0.034
MS.513         	16.855         	-0.042
MS.514         	16.823         	-0.043
MS.515         	16.788         	0.009
MS.516         	16.755         	-0.12
MS.517         	16.72          	-0.067
MS.518         	16.688         	-0.046
MS.519         	16.655         	-0.089
MS.520         	16.62          	-0.074
MS.521         	16.587         	-0.092
MS.522         	16.555         	-0.096
MS.523         	16.522         	-0.104
MS.524         	16.487         	-0.141
MS.525         	16.455         	-0.17
MS.526         	16.422         	-0.204
MS.527         	16.39          	-0.15
MS.528         	16.358         	-0.156
MS.529         	16.325         	-0.2
MS.530         	16.292         	-0.118
MS.531         	16.26          	-0.176
MS.532         	16.227         	-0.179
MS.533         	16.195         	-0.269
MS.534         	16.163         	-0.27
MS.535         	16.13          	-0.227
MS.536         	16.097         	-0.21
MS.537         	16.065         	-0.218
MS.538         	16.032         	-0.232
MS.539         	16             	-0.168
MS.540         	15.97          	-0.246
MS.541         	15.938         	-0.257
MS.542         	15.905         	-0.239
MS.543         	15.872         	-0.264
MS.544         	15.842         	-0.248
MS.545         	15.81          	-0.237
MS.546         	15.777         	-0.206
MS.547         	15.747         	-0.228
MS.548         	15.715         	-0.244
MS.549         	15.685         	-0.238
MS.550         	15.652         	-0.269
MS.551         	15.622         	-0.24
MS.552         	15.59          	-0.236
MS.553         	15.56          	-0.245
MS.554         	15.527         	-0.272
MS.555         	15.497         	-0.265
MS.556         	15.465         	-0.267
MS.557         	15.435         	-0.247
MS.558         	15.405         	-0.251
MS.559         	15.372         	-0.277
MS.560         	15.342         	-0.261
MS.561         	15.312         	-0.256
MS.562         	15.282         	-0.253
MS.563         	15.25          	-0.249
MS.564         	15.22          	-0.276
MS.565         	15.19          	-0.276
MS.566         	15.16          	-0.274
MS.567         	15.13          	-0.273
MS.568         	15.1           	-0.242
MS.569         	15.07          	-0.249
MS.570         	15.04          	-0.273
MS.571         	15.01          	-0.257
MS.572         	14.98          	-0.258
MS.573         	14.95          	-0.256
MS.574         	14.92          	-0.264
MS.575         	14.89          	-0.251
MS.576         	14.86          	-0.256
MS.577         	14.83          	-0.258
MS.578         	14.8           	-0.258
MS.579         	14.77          	-0.255
MS.580         	14.742         	-0.271
MS.581         	14.712         	-0.253
MS.582         	14.682         	-0.264
MS.583         	14.652         	-0.25
MS.584         	14.625         	-0.228
MS.585         	14.595         	-0.254
MS.586         	14.565         	-0.255
MS.587         	14.537         	-0.253
MS.588         	14.507         	-0.258
MS.589         	14.477         	-0.253
MS.590         	14.45          	-0.248
MS.591         	14.42          	-0.253
MS.592         	14.392         	-0.248
MS.593         	14.362         	-0.245
MS.594         	14.335         	-0.246
MS.595         	14.305         	-0.248
MS.596         	14.278         	-0.245
MS.597         	14.247         	-0.248
MS.598         	14.22          	-0.25
MS.599         	14.193         	-0.24
MS.600         	14.162         	-0.235
MS.601         	14.135         	-0.235
MS.602         	14.108         	-0.247
MS.603         	14.077         	-0.237
MS.604         	14.05          	-0.237
MS.605         	14.023         	-0.235
MS.606         	13.995         	-0.248
MS.607         	13.967         	-0.238
MS.608         	13.938         	-0.233
MS.609         	13.91          	-0.235
MS.610         	13.882         	-0.24
MS.611         	13.855         	-0.241
MS.612         	13.827         	-0.232
MS.613         	13.8           	-0.24
MS.614         	13.773         	-0.234
MS.615         	13.745         	-0.234
MS.616         	13.717         	-0.231
DERIVED EXCITABILITY VARIABLES
Program = QTracP 05/05/2023
Threshold method = 6 (optimised for CAP, using data for present condition only)
SR method = 1 (using actual data values)
6.                 	0.000               	Peak response\(mV)
9.                 	32.4                	Temperature ( C)
17.                	34                  	Age (years)
18.                	2                   	Sex (M=1, F=2)

EXTRA VARIABLES

MScPeak(mV) = 4.84
MScS5(mA) = 18.33
MScS50(mA) = 30.07
MScS95(mA) = 44.92
MScNSteps = 0
MScSteps(%) = 0.0
MScStepMax(%) = 0.0
MScD50 = 94
MScSlope = 2.44
MScDuration(min) = 8.2
MSFTraces = 564
MSFPeakAmp(mV) = 4.86
MSFNUnits = 157
MSFMeanUnitAmp(uV) = 31
MSFHuntTime(m) = 1.63
MSFError(%) = 0.832
MSFNLarge = 58.54
MSFMedianAmp(%) = 0.583
MSFMedianAmp(mV) = 0.0284
MSFHalfAmpAmp(%) = 0.662
MSFHalfAmpAmp(mV) = 0.0322
MSFLargestAmp(%) = 1.53
MSFLargestAmp(mV) = 0.0744
MSFMeanRS(%) = 2
MSFSizeLimit(uV) = 16.2
MSFLimitType = 1
MSFSmallestAmp(uV) = 16.6
MSFOpts = 10104222032
MSFSDMax = 21.6
MSFSDMin = 13.7

EXTRA WAVEFORMS


!MScan Model
!157
	1	15.74	0.41	2
	2	16.21	0.85	2
	3	16.33	0.48	2
	4	16.41	0.65	2
	5	16.49	0.41	2
	6	16.62	0.59	2
	7	16.75	0.82	2
	8	16.89	0.95	2
	9	17.31	1.11	2
	10	17.54	0.76	2
	11	17.74	0.64	2
	12	17.87	0.65	2
	13	18.06	0.87	2
	14	18.17	0.62	2
	15	18.29	0.53	2
	16	18.49	0.86	2
	17	18.9	1.22	2
	18	19.14	0.49	2
	19	19.3	0.58	2
	20	19.41	0.47	2
	21	19.58	0.71	2
	22	19.89	0.88	2
	23	20.39	0.95	2
	24	20.71	0.92	2
	25	21.09	1.14	2
	26	21.26	0.74	2
	27	21.46	1.22	2
	28	21.65	0.79	2
	29	21.8	0.54	2
	30	21.89	0.51	2
	31	21.98	0.65	2
	32	22.17	0.83	2
	33	22.3	0.74	2
	34	22.46	0.89	2
	35	22.57	0.42	2
	36	22.74	0.83	2
	37	23.14	0.83	2
	38	23.38	0.56	2
	39	23.54	0.51	2
	40	23.65	0.37	2
	41	23.78	0.39	2
	42	23.98	0.56	2
	43	24.28	0.67	2
	44	24.47	0.38	2
	45	24.69	0.49	2
	46	24.89	0.51	2
	47	25.06	0.58	2
	48	25.38	0.88	2
	49	25.58	0.65	2
	50	25.79	0.62	2
	51	26.54	1.3	2
	52	26.66	0.61	2
	53	26.78	0.44	2
	54	26.92	0.79	2
	55	27.08	1.05	2
	56	27.29	0.93	2
	57	27.44	0.73	2
	58	27.57	0.84	2
	59	27.7	0.8	2
	60	27.82	0.55	2
	61	27.96	0.9	2
	62	28.1	1.01	2
	63	28.23	0.73	2
	64	28.34	0.35	2
	65	28.46	0.55	2
	66	28.58	0.62	2
	67	28.7	0.8	2
	68	28.8	0.46	2
	69	28.95	0.7	2
	70	29.03	0.45	2
	71	29.15	0.72	2
	72	29.28	0.7	2
	73	29.38	0.52	2
	74	29.46	0.49	2
	75	29.54	0.57	2
	76	29.62	0.61	2
	77	29.72	0.7	2
	78	29.81	0.53	2
	79	29.9	0.55	2
	80	30.03	1	2
	81	30.17	0.99	2
	82	30.26	0.54	2
	83	30.33	0.37	2
	84	30.39	0.36	2
	85	30.46	0.36	2
	86	30.52	0.43	2
	87	30.59	0.5	2
	88	30.66	0.35	2
	89	30.74	0.37	2
	90	30.81	0.43	2
	91	30.9	0.49	2
	92	30.99	0.51	2
	93	31.08	0.47	2
	94	31.19	0.58	2
	95	31.27	0.34	2
	96	31.4	0.57	2
	97	31.5	0.54	2
	98	31.59	0.46	2
	99	31.67	0.51	2
	100	31.9	0.7	2
	101	32.05	0.52	2
	102	32.25	0.57	2
	103	32.44	0.65	2
	104	32.55	0.4	2
	105	32.65	0.46	2
	106	32.79	0.69	2
	107	33.06	0.88	2
	108	33.24	0.9	2
	109	33.43	0.86	2
	110	33.67	0.58	2
	111	34.08	1.53	2
	112	34.25	0.37	2
	113	34.41	0.55	2
	114	34.54	0.52	2
	115	34.67	0.45	2
	116	34.93	0.8	2
	117	35.33	0.94	2
	118	35.66	0.73	2
	119	36.02	0.89	2
	120	36.29	0.66	2
	121	36.46	0.57	2
	122	36.65	0.66	2
	123	36.86	0.74	2
	124	37.11	0.73	2
	125	37.35	0.58	2
	126	37.55	0.61	2
	127	37.89	0.71	2
	128	38.17	0.62	2
	129	38.35	0.66	2
	130	38.58	0.67	2
	131	38.77	0.56	2
	132	38.91	0.57	2
	133	39.08	0.6	2
	134	39.25	0.45	2
	135	39.41	0.41	2
	136	39.58	0.39	2
	137	39.9	0.63	2
	138	40.1	0.5	2
	139	40.36	0.57	2
	140	40.65	0.7	2
	141	40.97	0.53	2
	142	41.14	0.51	2
	143	41.28	0.38	2
	144	41.52	0.55	2
	145	41.67	0.41	2
	146	41.92	0.5	2
	147	42.19	0.48	2
	148	42.39	0.48	2
	149	42.6	0.57	2
	150	42.79	0.39	2
	151	42.93	0.48	2
	152	43.16	0.68	2
	153	43.44	0.62	2
	154	43.66	0.38	2
	155	43.97	0.56	2
	156	44.12	0.35	2
	157	44.43	0.71	2

