File:              	C:\Qtrac\Data\ME2C30711A.QZD
Name:              	 LL19N
Protocol:          	MSCAN-MV
Date:              	11/7/23
Date of birth:     	19/1/96
Age:               	27
Sex:               	M
Temperature:       	30.0
S/R sites:         	Knee CF-TA
NC/disease:        	NC
Operator:          	BY
Comments:
M-SCAN DATA (Repeat 1/3, 15-9.8m)
Scanpts: 59, 64, 379, 396
Stim. (mA)     	Amp. (mV)
MS.1           	10             	8.357
MS.2           	10             	8.389
MS.3           	9.98           	8.37
MS.4           	9.96           	8.459
MS.5           	9.94           	8.427
MS.6           	9.92           	8.419
MS.7           	9.9            	8.414
MS.8           	9.88           	8.436
MS.9           	9.86           	8.525
MS.10          	9.842          	8.572
MS.11          	9.823          	8.376
MS.12          	9.802          	8.466
MS.13          	9.782          	8.242
MS.14          	9.762          	8.501
MS.15          	9.742          	8.47
MS.16          	9.725          	8.469
MS.17          	9.705          	8.357
MS.18          	9.685          	8.372
MS.19          	9.665          	8.386
MS.20          	9.648          	8.442
MS.21          	9.627          	8.267
MS.22          	9.608          	8.35
MS.23          	9.587          	8.249
MS.24          	9.57           	8.442
MS.25          	9.55           	8.399
MS.26          	9.532          	8.265
MS.27          	9.512          	8.342
MS.28          	9.492          	8.444
MS.29          	9.475          	8.327
MS.30          	9.455          	8.276
MS.31          	9.438          	8.373
MS.32          	9.417          	8.358
MS.33          	9.4            	8.423
MS.34          	9.38           	8.44
MS.35          	9.363          	8.372
MS.36          	9.342          	8.34
MS.37          	9.325          	8.455
MS.38          	9.305          	8.512
MS.39          	9.287          	8.325
MS.40          	9.267          	8.334
MS.41          	9.25           	8.433
MS.42          	9.23           	8.47
MS.43          	9.212          	8.408
MS.44          	9.195          	8.459
MS.45          	9.175          	8.537
MS.46          	9.158          	8.382
MS.47          	9.14           	8.466
MS.48          	9.12           	8.291
MS.49          	9.102          	8.445
MS.50          	9.085          	8.578
MS.51          	9.068          	8.484
MS.52          	9.047          	8.464
MS.53          	9.03           	8.459
MS.54          	9.012          	8.398
MS.55          	8.995          	8.468
MS.56          	8.977          	8.579
MS.57          	8.957          	8.483
MS.58          	8.94           	8.463
MS.59          	8.922          	8.494
MS.60          	8.905          	8.343
MS.61          	8.887          	8.484
MS.62          	8.87           	8.381
MS.63          	8.852          	8.433
MS.64          	8.835          	8.506
MS.65          	8.815          	8.419
MS.66          	8.797          	8.395
MS.67          	8.78           	8.399
MS.68          	8.762          	8.467
MS.69          	8.745          	8.312
MS.70          	8.727          	8.572
MS.71          	8.71           	8.552
MS.72          	8.693          	8.467
MS.73          	8.675          	8.392
MS.74          	8.66           	8.326
MS.75          	8.642          	8.239
MS.76          	8.625          	8.359
MS.77          	8.608          	8.286
MS.78          	8.59           	8.452
MS.79          	8.573          	8.431
MS.80          	8.555          	8.178
MS.81          	8.537          	8.228
MS.82          	8.523          	8.13
MS.83          	8.505          	8.181
MS.84          	8.488          	8.505
MS.85          	8.47           	8.206
MS.86          	8.452          	8.597
MS.87          	8.438          	8.136
MS.88          	8.42           	7.948
MS.89          	8.403          	8.419
MS.90          	8.385          	8.192
MS.91          	8.37           	7.945
MS.92          	8.352          	8.091
MS.93          	8.335          	7.641
MS.94          	8.32           	7.779
MS.95          	8.302          	8.007
MS.96          	8.285          	8.322
MS.97          	8.27           	8.286
MS.98          	8.252          	7.469
MS.99          	8.238          	7.71
MS.100         	8.22           	8.027
MS.101         	8.202          	7.65
MS.102         	8.188          	7.644
MS.103         	8.17           	7.498
MS.104         	8.155          	7.504
MS.105         	8.137          	7.115
MS.106         	8.122          	7.354
MS.107         	8.105          	7.307
MS.108         	8.09           	7.512
MS.109         	8.073          	7.09
MS.110         	8.057          	7.242
MS.111         	8.042          	7.213
MS.112         	8.025          	7.294
MS.113         	8.01           	7.194
MS.114         	7.992          	7.462
MS.115         	7.977          	6.75
MS.116         	7.96           	7.013
MS.117         	7.945          	7.137
MS.118         	7.93           	6.64
MS.119         	7.912          	6.703
MS.120         	7.898          	7.08
MS.121         	7.882          	6.461
MS.122         	7.867          	6.931
MS.123         	7.85           	6.501
MS.124         	7.835          	6.565
MS.125         	7.82           	6.591
MS.126         	7.802          	6.407
MS.127         	7.787          	6.861
MS.128         	7.773          	6.272
MS.129         	7.757          	6.282
MS.130         	7.742          	6.467
MS.131         	7.725          	6.459
MS.132         	7.71           	6.389
MS.133         	7.695          	6.129
MS.134         	7.68           	6.415
MS.135         	7.665          	6.327
MS.136         	7.65           	6.337
MS.137         	7.635          	6.401
MS.138         	7.617          	6.266
MS.139         	7.602          	6.47
MS.140         	7.587          	6.047
MS.141         	7.572          	5.961
MS.142         	7.557          	6.312
MS.143         	7.543          	6.247
MS.144         	7.527          	6.099
MS.145         	7.512          	5.882
MS.146         	7.497          	6.217
MS.147         	7.482          	5.659
MS.148         	7.467          	5.655
MS.149         	7.452          	5.997
MS.150         	7.438          	5.847
MS.151         	7.422          	5.564
MS.152         	7.407          	5.93
MS.153         	7.392          	5.612
MS.154         	7.378          	5.654
MS.155         	7.365          	5.637
MS.156         	7.35           	5.55
MS.157         	7.335          	5.36
MS.158         	7.32           	5.625
MS.159         	7.305          	5.53
MS.160         	7.29           	5.41
MS.161         	7.275          	5.208
MS.162         	7.262          	5.414
MS.163         	7.247          	4.89
MS.164         	7.233          	4.962
MS.165         	7.217          	5.085
MS.166         	7.202          	4.971
MS.167         	7.19           	4.959
MS.168         	7.175          	4.577
MS.169         	7.16           	4.753
MS.170         	7.145          	5.084
MS.171         	7.132          	4.562
MS.172         	7.117          	4.76
MS.173         	7.102          	4.607
MS.174         	7.09           	4.534
MS.175         	7.075          	4.49
MS.176         	7.06           	4.614
MS.177         	7.047          	4.332
MS.178         	7.032          	4.212
MS.179         	7.02           	4.49
MS.180         	7.005          	4.438
MS.181         	6.99           	4.219
MS.182         	6.977          	4.357
MS.183         	6.962          	4.574
MS.184         	6.95           	4.146
MS.185         	6.935          	3.773
MS.186         	6.92           	3.959
MS.187         	6.907          	4.07
MS.188         	6.892          	3.902
MS.189         	6.88           	3.976
MS.190         	6.865          	3.987
MS.191         	6.852          	3.917
MS.192         	6.837          	3.722
MS.193         	6.825          	3.84
MS.194         	6.812          	3.486
MS.195         	6.797          	3.688
MS.196         	6.785          	3.397
MS.197         	6.77           	3.536
MS.198         	6.757          	3.45
MS.199         	6.742          	3.438
MS.200         	6.73           	3.672
MS.201         	6.717          	3.673
MS.202         	6.702          	3.271
MS.203         	6.69           	3.342
MS.204         	6.677          	3.39
MS.205         	6.662          	3.356
MS.206         	6.65           	3.262
MS.207         	6.637          	3.243
MS.208         	6.622          	3.264
MS.209         	6.61           	3.167
MS.210         	6.597          	3.23
MS.211         	6.582          	3.069
MS.212         	6.57           	3.254
MS.213         	6.557          	3.19
MS.214         	6.545          	2.986
MS.215         	6.53           	3.057
MS.216         	6.517          	3.092
MS.217         	6.505          	2.842
MS.218         	6.492          	2.774
MS.219         	6.48           	2.965
MS.220         	6.465          	2.656
MS.221         	6.452          	2.969
MS.222         	6.44           	2.903
MS.223         	6.427          	2.676
MS.224         	6.415          	2.603
MS.225         	6.402          	2.737
MS.226         	6.39           	2.599
MS.227         	6.378          	2.676
MS.228         	6.362          	2.572
MS.229         	6.35           	2.543
MS.230         	6.338          	2.396
MS.231         	6.325          	2.248
MS.232         	6.312          	2.318
MS.233         	6.3            	2.206
MS.234         	6.287          	2.213
MS.235         	6.275          	2.442
MS.236         	6.262          	2.261
MS.237         	6.25           	2.145
MS.238         	6.237          	2.071
MS.239         	6.225          	1.966
MS.240         	6.213          	2.194
MS.241         	6.2            	1.985
MS.242         	6.188          	1.86
MS.243         	6.175          	1.879
MS.244         	6.162          	1.888
MS.245         	6.15           	1.815
MS.246         	6.137          	1.788
MS.247         	6.128          	1.479
MS.248         	6.115          	1.603
MS.249         	6.102          	1.811
MS.250         	6.09           	1.572
MS.251         	6.077          	1.464
MS.252         	6.065          	1.629
MS.253         	6.052          	1.757
MS.254         	6.04           	1.398
MS.255         	6.03           	1.267
MS.256         	6.017          	1.562
MS.257         	6.005          	1.452
MS.258         	5.992          	1.36
MS.259         	5.98           	1.303
MS.260         	5.97           	1.255
MS.261         	5.957          	1.035
MS.262         	5.945          	1.302
MS.263         	5.932          	1.094
MS.264         	5.922          	1.039
MS.265         	5.91           	1.022
MS.266         	5.898          	1.044
MS.267         	5.885          	1.187
MS.268         	5.875          	1.063
MS.269         	5.862          	1.012
MS.270         	5.85           	1.171
MS.271         	5.84           	1.024
MS.272         	5.827          	0.788
MS.273         	5.815          	1.026
MS.274         	5.805          	0.753
MS.275         	5.793          	0.915
MS.276         	5.78           	0.67
MS.277         	5.77           	0.735
MS.278         	5.757          	0.658
MS.279         	5.747          	0.634
MS.280         	5.735          	0.728
MS.281         	5.722          	0.741
MS.282         	5.713          	0.59
MS.283         	5.7            	0.624
MS.284         	5.69           	0.585
MS.285         	5.677          	0.594
MS.286         	5.668          	0.432
MS.287         	5.655          	0.554
MS.288         	5.645          	0.59
MS.289         	5.632          	0.49
MS.290         	5.622          	0.425
MS.291         	5.61           	0.562
MS.292         	5.6            	0.399
MS.293         	5.588          	0.402
MS.294         	5.577          	0.365
MS.295         	5.565          	0.4
MS.296         	5.555          	0.335
MS.297         	5.543          	0.35
MS.298         	5.532          	0.263
MS.299         	5.52           	0.355
MS.300         	5.51           	0.298
MS.301         	5.5            	0.223
MS.302         	5.487          	0.237
MS.303         	5.477          	0.219
MS.304         	5.465          	0.25
MS.305         	5.455          	0.278
MS.306         	5.445          	0.175
MS.307         	5.432          	0.233
MS.308         	5.422          	0.209
MS.309         	5.412          	0.227
MS.310         	5.4            	0.126
MS.311         	5.39           	0.167
MS.312         	5.38           	0.172
MS.313         	5.367          	0.155
MS.314         	5.358          	0.112
MS.315         	5.347          	0.125
MS.316         	5.338          	0.107
MS.317         	5.325          	0.126
MS.318         	5.315          	0.07
MS.319         	5.305          	0.043
MS.320         	5.295          	0.092
MS.321         	5.282          	0.17
MS.322         	5.273          	0.14
MS.323         	5.262          	0.115
MS.324         	5.253          	0.137
MS.325         	5.242          	0.035
MS.326         	5.23           	0.112
MS.327         	5.22           	0.037
MS.328         	5.21           	0.05
MS.329         	5.2            	0.056
MS.330         	5.19           	0.046
MS.331         	5.18           	0.03
MS.332         	5.168          	0.011
MS.333         	5.157          	0.029
MS.334         	5.148          	0.02
MS.335         	5.137          	0.007
MS.336         	5.128          	0.015
MS.337         	5.117          	-0.038
MS.338         	5.108          	-0.002
MS.339         	5.097          	0.009
MS.340         	5.088          	0.007
MS.341         	5.077          	0.018
MS.342         	5.065          	0.028
MS.343         	5.055          	0.005
MS.344         	5.045          	0.017
MS.345         	5.035          	0.033
MS.346         	5.025          	-0.001
MS.347         	5.015          	-0.004
MS.348         	5.005          	-0.031
MS.349         	4.995          	-0.043
MS.350         	4.985          	0.015
MS.351         	4.975          	-0.007
MS.352         	4.965          	-0.047
MS.353         	4.955          	-0.042
MS.354         	4.945          	-0.023
MS.355         	4.935          	-0.02
MS.356         	4.927          	-0.009
MS.357         	4.918          	-0.042
MS.358         	4.907          	-0.024
MS.359         	4.898          	-0.019
MS.360         	4.887          	-0.036
MS.361         	4.878          	-0.021
MS.362         	4.867          	-0.051
MS.363         	4.858          	-0.041
MS.364         	4.847          	-0.043
MS.365         	4.838          	-0.05
MS.366         	4.827          	-0.051
MS.367         	4.82           	-0.056
MS.368         	4.81           	-0.055
MS.369         	4.8            	-0.047
MS.370         	4.79           	-0.043
MS.371         	4.78           	-0.053
MS.372         	4.77           	-0.045
MS.373         	4.762          	-0.048
MS.374         	4.753          	-0.055
MS.375         	4.742          	-0.054
MS.376         	4.733          	-0.041
MS.377         	4.722          	-0.053
MS.378         	4.715          	-0.052
MS.379         	4.705          	-0.052
MS.380         	4.695          	-0.053
MS.381         	4.685          	-0.053
MS.382         	4.677          	-0.048
MS.383         	4.668          	-0.052
MS.384         	4.657          	-0.051
MS.385         	4.648          	-0.049
MS.386         	4.64           	-0.05
MS.387         	4.63           	-0.048
MS.388         	4.62           	-0.053
MS.389         	4.612          	-0.048
MS.390         	4.602          	-0.047
MS.391         	4.592          	-0.049
MS.392         	4.585          	-0.052
MS.393         	4.575          	-0.05
MS.394         	4.565          	-0.049
MS.395         	4.557          	-0.051
MS.396         	4.548          	-0.053
DERIVED EXCITABILITY VARIABLES
Program = QTracP 27/06/2023
Threshold method = 6 (optimised for CAP, using data for present condition only)
SR method = 1 (using actual data values)
6.                 	0.000               	Peak response\(mV)
9.                 	30                  	Temperature ( C)
17.                	27                  	Age (years)
18.                	1                   	Sex (M=1, F=2)

EXTRA VARIABLES

MScPeak(mV) = 8.37
MScS5(mA) = 5.6
MScS50(mA) = 6.95
MScS95(mA) = 8.33
MScNSteps = 1
MScSteps(%) = 2.2
MScStepMax(%) = 2.2
MScD50 = 47
MScSlope = 4.86
MScDuration(min) = 0.7
MSFTraces = 338
MSFPeakAmp(mV) = 8.49
MSFNUnits = 100
MSFMeanUnitAmp(uV) = 84.9
MSFHuntTime(m) = 1.06
MSFError(%) = 4.53
MSFNLarge = 27.68
MSFMedianAmp(%) = 0.775
MSFMedianAmp(mV) = 0.0658
MSFHalfAmpAmp(%) = 1.16
MSFHalfAmpAmp(mV) = 0.0987
MSFLargestAmp(%) = 3.39
MSFLargestAmp(mV) = 0.288
MSFMeanRS(%) = 1.99
MSFSizeLimit(uV) = 28.3
MSFLimitType = 1
MSFSmallestAmp(uV) = 29.4
MSFOpts = 10104222032
MSFSDMax = 66.4
MSFSDMin = 2.04

EXTRA WAVEFORMS


!MScan Model
!100
	1	4.97	0.38	2
	2	5.14	0.38	2
	3	5.2	0.38	2
	4	5.3	0.72	2
	5	5.4	0.83	2
	6	5.43	0.35	2
	7	5.47	0.43	2
	8	5.5	0.44	2
	9	5.53	0.45	2
	10	5.56	0.54	2
	11	5.58	0.42	2
	12	5.6	0.48	2
	13	5.63	0.53	2
	14	5.66	0.75	2
	15	5.68	0.55	2
	16	5.72	0.65	2
	17	5.75	0.56	2
	18	5.77	0.74	2
	19	5.79	0.77	2
	20	5.81	1.09	2
	21	5.86	1.19	2
	22	5.92	1.18	2
	23	5.94	0.42	2
	24	5.96	0.71	2
	25	5.99	0.99	2
	26	6.01	0.9	2
	27	6.05	1.39	2
	28	6.08	1.16	2
	29	6.11	0.64	2
	30	6.12	0.38	2
	31	6.13	0.41	2
	32	6.14	0.58	2
	33	6.15	0.55	2
	34	6.16	0.49	2
	35	6.17	0.46	2
	36	6.18	0.46	2
	37	6.19	0.47	2
	38	6.21	0.79	2
	39	6.25	1.34	2
	40	6.28	0.91	2
	41	6.29	0.52	2
	42	6.31	0.79	2
	43	6.32	0.69	2
	44	6.34	0.69	2
	45	6.36	0.77	2
	46	6.37	0.7	2
	47	6.39	0.76	2
	48	6.42	0.97	2
	49	6.45	1.06	2
	50	6.49	0.89	2
	51	6.5	0.44	2
	52	6.52	0.46	2
	53	6.54	0.65	2
	54	6.55	0.63	2
	55	6.57	0.57	2
	56	6.58	0.55	2
	57	6.6	0.4	2
	58	6.62	0.5	2
	59	6.65	0.66	2
	60	6.74	2.09	2
	61	6.76	0.58	2
	62	6.78	0.94	2
	63	6.81	1.27	2
	64	6.86	1.66	2
	65	6.9	1.31	2
	66	6.93	1.73	2
	67	6.98	1.87	2
	68	7.03	1.54	2
	69	7.06	1.08	2
	70	7.08	1.16	2
	71	7.12	1.05	2
	72	7.15	0.99	2
	73	7.17	1.1	2
	74	7.2	1.44	2
	75	7.22	1.11	2
	76	7.24	0.74	2
	77	7.25	0.69	2
	78	7.26	1.82	2
	79	7.27	0.64	2
	80	7.28	0.74	2
	81	7.3	0.77	2
	82	7.32	1.24	2
	83	7.35	1.19	2
	84	7.41	1.87	2
	85	7.47	1.64	2
	86	7.52	1.15	2
	87	7.52	0.77	2
	88	7.66	1.01	2
	89	7.77	2.32	2
	90	7.84	1.93	2
	91	7.89	1.78	2
	92	7.98	3.22	1.6
	93	8.09	2.84	2
	94	8.11	0.84	2
	95	8.14	0.9	2
	96	8.18	1.74	2
	97	8.22	1.81	2
	98	8.33	3.39	2
	99	8.38	1.74	2
	100	8.66	2.64	2

