File:              	C:\Qtrac\Data\ME2C30712C.QZD
Name:              	 MI19Y
Protocol:          	MSCAN-MV
Date:              	12/7/23
Date of birth:     	19/10/99
Age:               	23
Sex:               	F
Temperature:       	32.3
S/R sites:         	knee CF-TA
NC/disease:        	NC
Operator:          	BY
Comments:
M-SCAN DATA (Repeat 1/3, 13.5-4.9m)
Scanpts: 157, 170, 668, 687
Stim. (mA)     	Amp. (mV)
MS.1           	8              	5.551
MS.2           	8              	5.591
MS.3           	8              	5.518
MS.4           	8              	5.519
MS.5           	8              	5.463
MS.6           	8              	5.563
MS.7           	8              	5.475
MS.8           	8              	5.537
MS.9           	8              	5.505
MS.10          	8              	5.541
MS.11          	8              	5.507
MS.12          	8              	5.518
MS.13          	8              	5.458
MS.14          	8              	5.582
MS.15          	8              	5.484
MS.16          	8              	5.54
MS.17          	8              	5.493
MS.18          	8              	5.562
MS.19          	8              	5.507
MS.20          	8              	5.587
MS.21          	8              	5.522
MS.22          	8              	5.479
MS.23          	8              	5.587
MS.24          	7.967          	5.453
MS.25          	7.952          	5.56
MS.26          	7.935          	5.638
MS.27          	7.92           	5.602
MS.28          	7.905          	5.662
MS.29          	7.887          	5.681
MS.30          	7.872          	5.656
MS.31          	7.857          	5.682
MS.32          	7.842          	5.673
MS.33          	7.825          	5.684
MS.34          	7.81           	5.635
MS.35          	7.795          	5.624
MS.36          	7.78           	5.674
MS.37          	7.762          	5.675
MS.38          	7.747          	5.694
MS.39          	7.732          	5.613
MS.40          	7.717          	5.646
MS.41          	7.702          	5.589
MS.42          	7.688          	5.6
MS.43          	7.67           	5.606
MS.44          	7.655          	5.687
MS.45          	7.64           	5.666
MS.46          	7.625          	5.683
MS.47          	7.61           	5.696
MS.48          	7.595          	5.655
MS.49          	7.58           	5.637
MS.50          	7.565          	5.636
MS.51          	7.55           	5.593
MS.52          	7.535          	5.612
MS.53          	7.52           	5.67
MS.54          	7.505          	5.65
MS.55          	7.49           	5.651
MS.56          	7.475          	5.612
MS.57          	7.46           	5.645
MS.58          	7.445          	5.672
MS.59          	7.43           	5.613
MS.60          	7.415          	5.665
MS.61          	7.4            	5.652
MS.62          	7.385          	5.656
MS.63          	7.37           	5.696
MS.64          	7.355          	5.607
MS.65          	7.34           	5.667
MS.66          	7.325          	5.62
MS.67          	7.312          	5.629
MS.68          	7.297          	5.666
MS.69          	7.282          	5.672
MS.70          	7.267          	5.586
MS.71          	7.253          	5.585
MS.72          	7.237          	5.609
MS.73          	7.225          	5.639
MS.74          	7.21           	5.563
MS.75          	7.195          	5.572
MS.76          	7.18           	5.545
MS.77          	7.168          	5.644
MS.78          	7.152          	5.674
MS.79          	7.137          	5.536
MS.80          	7.125          	5.583
MS.81          	7.11           	5.569
MS.82          	7.095          	5.648
MS.83          	7.08           	5.566
MS.84          	7.067          	5.572
MS.85          	7.052          	5.605
MS.86          	7.04           	5.59
MS.87          	7.025          	5.549
MS.88          	7.01           	5.59
MS.89          	6.997          	5.515
MS.90          	6.983          	5.557
MS.91          	6.97           	5.615
MS.92          	6.955          	5.547
MS.93          	6.94           	5.505
MS.94          	6.927          	5.573
MS.95          	6.912          	5.566
MS.96          	6.9            	5.543
MS.97          	6.885          	5.491
MS.98          	6.872          	5.523
MS.99          	6.858          	5.535
MS.100         	6.845          	5.508
MS.101         	6.83           	5.554
MS.102         	6.817          	5.53
MS.103         	6.802          	5.549
MS.104         	6.79           	5.563
MS.105         	6.777          	5.581
MS.106         	6.762          	5.539
MS.107         	6.75           	5.551
MS.108         	6.735          	5.558
MS.109         	6.722          	5.54
MS.110         	6.71           	5.601
MS.111         	6.695          	5.557
MS.112         	6.682          	5.602
MS.113         	6.67           	5.586
MS.114         	6.655          	5.619
MS.115         	6.642          	5.562
MS.116         	6.63           	5.598
MS.117         	6.615          	5.571
MS.118         	6.602          	5.631
MS.119         	6.59           	5.603
MS.120         	6.575          	5.576
MS.121         	6.562          	5.516
MS.122         	6.55           	5.607
MS.123         	6.537          	5.58
MS.124         	6.523          	5.588
MS.125         	6.51           	5.571
MS.126         	6.497          	5.54
MS.127         	6.485          	5.587
MS.128         	6.472          	5.608
MS.129         	6.46           	5.57
MS.130         	6.445          	5.587
MS.131         	6.432          	5.605
MS.132         	6.42           	5.585
MS.133         	6.407          	5.578
MS.134         	6.395          	5.566
MS.135         	6.382          	5.607
MS.136         	6.37           	5.607
MS.137         	6.355          	5.557
MS.138         	6.342          	5.571
MS.139         	6.33           	5.439
MS.140         	6.317          	5.532
MS.141         	6.305          	5.526
MS.142         	6.293          	5.451
MS.143         	6.28           	5.507
MS.144         	6.267          	5.533
MS.145         	6.255          	5.532
MS.146         	6.242          	5.538
MS.147         	6.23           	5.604
MS.148         	6.217          	5.54
MS.149         	6.205          	5.507
MS.150         	6.192          	5.505
MS.151         	6.18           	5.502
MS.152         	6.168          	5.493
MS.153         	6.155          	5.496
MS.154         	6.145          	5.515
MS.155         	6.132          	5.682
MS.156         	6.12           	5.629
MS.157         	6.108          	5.684
MS.158         	6.095          	5.654
MS.159         	6.082          	5.627
MS.160         	6.07           	5.67
MS.161         	6.057          	5.671
MS.162         	6.045          	5.63
MS.163         	6.035          	5.678
MS.164         	6.023          	5.69
MS.165         	6.01           	5.649
MS.166         	5.997          	5.685
MS.167         	5.985          	5.668
MS.168         	5.975          	5.613
MS.169         	5.963          	5.597
MS.170         	5.95           	5.667
MS.171         	5.938          	5.617
MS.172         	5.927          	5.627
MS.173         	5.915          	5.661
MS.174         	5.902          	5.665
MS.175         	5.89           	5.688
MS.176         	5.88           	5.69
MS.177         	5.867          	5.685
MS.178         	5.855          	5.69
MS.179         	5.845          	5.622
MS.180         	5.832          	5.677
MS.181         	5.82           	5.568
MS.182         	5.81           	5.693
MS.183         	5.797          	5.624
MS.184         	5.785          	5.698
MS.185         	5.775          	5.663
MS.186         	5.762          	5.616
MS.187         	5.753          	5.568
MS.188         	5.74           	5.578
MS.189         	5.727          	5.641
MS.190         	5.717          	5.591
MS.191         	5.705          	5.623
MS.192         	5.695          	5.532
MS.193         	5.682          	5.546
MS.194         	5.672          	5.538
MS.195         	5.66           	5.583
MS.196         	5.65           	5.525
MS.197         	5.637          	5.493
MS.198         	5.625          	5.441
MS.199         	5.615          	5.341
MS.200         	5.605          	5.377
MS.201         	5.592          	5.52
MS.202         	5.582          	5.381
MS.203         	5.57           	5.404
MS.204         	5.56           	5.431
MS.205         	5.547          	5.369
MS.206         	5.537          	5.295
MS.207         	5.525          	5.241
MS.208         	5.515          	5.237
MS.209         	5.505          	5.205
MS.210         	5.492          	5.193
MS.211         	5.483          	5.255
MS.212         	5.47           	5.145
MS.213         	5.46           	5.136
MS.214         	5.45           	5.181
MS.215         	5.438          	5.055
MS.216         	5.427          	5.091
MS.217         	5.418          	5.115
MS.218         	5.405          	5.047
MS.219         	5.395          	5.051
MS.220         	5.385          	5.08
MS.221         	5.372          	5.049
MS.222         	5.362          	5.099
MS.223         	5.352          	5.04
MS.224         	5.34           	5.033
MS.225         	5.33           	4.981
MS.226         	5.32           	5.019
MS.227         	5.31           	5.004
MS.228         	5.297          	5.007
MS.229         	5.287          	4.944
MS.230         	5.277          	4.99
MS.231         	5.267          	4.934
MS.232         	5.257          	5.044
MS.233         	5.245          	4.979
MS.234         	5.235          	4.916
MS.235         	5.225          	5.072
MS.236         	5.215          	5.028
MS.237         	5.205          	5.023
MS.238         	5.193          	4.948
MS.239         	5.182          	4.949
MS.240         	5.172          	5.059
MS.241         	5.162          	4.988
MS.242         	5.152          	4.979
MS.243         	5.142          	5.046
MS.244         	5.132          	5.035
MS.245         	5.122          	5.009
MS.246         	5.11           	4.995
MS.247         	5.1            	4.974
MS.248         	5.09           	5.042
MS.249         	5.08           	5.01
MS.250         	5.07           	5.032
MS.251         	5.06           	5.027
MS.252         	5.05           	4.853
MS.253         	5.04           	4.882
MS.254         	5.03           	5.005
MS.255         	5.02           	4.915
MS.256         	5.01           	4.874
MS.257         	5              	4.921
MS.258         	4.99           	4.965
MS.259         	4.98           	4.904
MS.260         	4.97           	4.838
MS.261         	4.96           	4.808
MS.262         	4.95           	4.83
MS.263         	4.94           	4.882
MS.264         	4.93           	4.879
MS.265         	4.92           	4.828
MS.266         	4.91           	4.813
MS.267         	4.9            	4.7
MS.268         	4.89           	4.756
MS.269         	4.882          	4.631
MS.270         	4.872          	4.789
MS.271         	4.862          	4.797
MS.272         	4.852          	4.711
MS.273         	4.842          	4.647
MS.274         	4.832          	4.596
MS.275         	4.822          	4.701
MS.276         	4.812          	4.596
MS.277         	4.805          	4.659
MS.278         	4.795          	4.782
MS.279         	4.785          	4.656
MS.280         	4.775          	4.437
MS.281         	4.765          	4.515
MS.282         	4.755          	4.501
MS.283         	4.747          	4.421
MS.284         	4.737          	4.589
MS.285         	4.727          	4.556
MS.286         	4.717          	4.21
MS.287         	4.71           	4.411
MS.288         	4.7            	4.451
MS.289         	4.69           	4.474
MS.290         	4.68           	4.471
MS.291         	4.673          	4.484
MS.292         	4.662          	4.457
MS.293         	4.652          	4.411
MS.294         	4.642          	4.418
MS.295         	4.635          	4.329
MS.296         	4.625          	4.386
MS.297         	4.615          	4.377
MS.298         	4.608          	4.289
MS.299         	4.597          	4.286
MS.300         	4.588          	4.266
MS.301         	4.58           	4.319
MS.302         	4.57           	4.171
MS.303         	4.56           	4.24
MS.304         	4.552          	4.287
MS.305         	4.543          	4.303
MS.306         	4.532          	4.278
MS.307         	4.525          	4.161
MS.308         	4.515          	4.273
MS.309         	4.505          	4.109
MS.310         	4.497          	4.042
MS.311         	4.487          	4.2
MS.312         	4.48           	4.178
MS.313         	4.47           	4.243
MS.314         	4.463          	4.223
MS.315         	4.452          	4.127
MS.316         	4.443          	4.26
MS.317         	4.435          	4.178
MS.318         	4.425          	4.121
MS.319         	4.418          	4.058
MS.320         	4.407          	4.022
MS.321         	4.4            	3.849
MS.322         	4.39           	4.068
MS.323         	4.382          	3.996
MS.324         	4.372          	3.949
MS.325         	4.365          	4.001
MS.326         	4.355          	3.976
MS.327         	4.347          	3.879
MS.328         	4.338          	3.879
MS.329         	4.33           	3.882
MS.330         	4.32           	3.914
MS.331         	4.312          	3.852
MS.332         	4.302          	3.759
MS.333         	4.295          	3.895
MS.334         	4.287          	3.873
MS.335         	4.277          	3.979
MS.336         	4.27           	3.789
MS.337         	4.26           	3.766
MS.338         	4.253          	3.83
MS.339         	4.242          	3.815
MS.340         	4.235          	3.763
MS.341         	4.227          	3.756
MS.342         	4.217          	3.649
MS.343         	4.21           	3.645
MS.344         	4.202          	3.745
MS.345         	4.193          	3.643
MS.346         	4.185          	3.622
MS.347         	4.177          	3.638
MS.348         	4.168          	3.621
MS.349         	4.16           	3.682
MS.350         	4.152          	3.663
MS.351         	4.142          	3.604
MS.352         	4.135          	3.615
MS.353         	4.128          	3.478
MS.354         	4.117          	3.61
MS.355         	4.11           	3.468
MS.356         	4.102          	3.539
MS.357         	4.092          	3.471
MS.358         	4.085          	3.577
MS.359         	4.077          	3.282
MS.360         	4.07           	3.519
MS.361         	4.06           	3.498
MS.362         	4.052          	3.409
MS.363         	4.045          	3.365
MS.364         	4.037          	3.301
MS.365         	4.027          	3.381
MS.366         	4.02           	3.298
MS.367         	4.012          	3.273
MS.368         	4.005          	3.355
MS.369         	3.997          	3.164
MS.370         	3.987          	3.251
MS.371         	3.98           	3.2
MS.372         	3.972          	3.174
MS.373         	3.965          	3.108
MS.374         	3.957          	3.071
MS.375         	3.95           	3.015
MS.376         	3.94           	3.051
MS.377         	3.932          	3.127
MS.378         	3.925          	2.945
MS.379         	3.918          	2.997
MS.380         	3.91           	2.98
MS.381         	3.902          	2.924
MS.382         	3.895          	2.917
MS.383         	3.885          	2.982
MS.384         	3.877          	3.021
MS.385         	3.87           	2.803
MS.386         	3.862          	3.014
MS.387         	3.855          	2.819
MS.388         	3.847          	2.849
MS.389         	3.84           	2.851
MS.390         	3.832          	2.881
MS.391         	3.825          	2.783
MS.392         	3.817          	2.826
MS.393         	3.81           	2.856
MS.394         	3.803          	2.72
MS.395         	3.795          	2.745
MS.396         	3.787          	2.755
MS.397         	3.78           	2.675
MS.398         	3.772          	2.574
MS.399         	3.765          	2.585
MS.400         	3.757          	2.579
MS.401         	3.75           	2.51
MS.402         	3.742          	2.623
MS.403         	3.735          	2.522
MS.404         	3.727          	2.485
MS.405         	3.72           	2.455
MS.406         	3.712          	2.408
MS.407         	3.705          	2.503
MS.408         	3.697          	2.318
MS.409         	3.69           	2.312
MS.410         	3.682          	2.387
MS.411         	3.675          	2.43
MS.412         	3.668          	2.544
MS.413         	3.66           	2.327
MS.414         	3.652          	2.268
MS.415         	3.645          	2.253
MS.416         	3.637          	2.326
MS.417         	3.63           	2.123
MS.418         	3.622          	2.113
MS.419         	3.615          	2.165
MS.420         	3.61           	2.139
MS.421         	3.602          	2.113
MS.422         	3.595          	1.938
MS.423         	3.587          	1.979
MS.424         	3.58           	1.973
MS.425         	3.572          	2
MS.426         	3.565          	2.072
MS.427         	3.56           	1.964
MS.428         	3.553          	1.9
MS.429         	3.545          	1.97
MS.430         	3.537          	1.846
MS.431         	3.53           	1.83
MS.432         	3.523          	1.876
MS.433         	3.517          	1.888
MS.434         	3.51           	1.871
MS.435         	3.502          	1.752
MS.436         	3.495          	1.846
MS.437         	3.487          	1.773
MS.438         	3.482          	1.793
MS.439         	3.475          	1.749
MS.440         	3.467          	1.776
MS.441         	3.46           	1.694
MS.442         	3.452          	1.758
MS.443         	3.447          	1.584
MS.444         	3.44           	1.677
MS.445         	3.432          	1.66
MS.446         	3.425          	1.617
MS.447         	3.42           	1.511
MS.448         	3.412          	1.565
MS.449         	3.405          	1.553
MS.450         	3.4            	1.53
MS.451         	3.392          	1.613
MS.452         	3.385          	1.517
MS.453         	3.377          	1.602
MS.454         	3.372          	1.47
MS.455         	3.365          	1.481
MS.456         	3.357          	1.505
MS.457         	3.352          	1.46
MS.458         	3.345          	1.377
MS.459         	3.337          	1.453
MS.460         	3.332          	1.424
MS.461         	3.325          	1.385
MS.462         	3.317          	1.354
MS.463         	3.312          	1.46
MS.464         	3.305          	1.404
MS.465         	3.297          	1.346
MS.466         	3.293          	1.385
MS.467         	3.285          	1.34
MS.468         	3.277          	1.281
MS.469         	3.273          	1.346
MS.470         	3.265          	1.31
MS.471         	3.26           	1.243
MS.472         	3.252          	1.218
MS.473         	3.245          	1.252
MS.474         	3.24           	1.224
MS.475         	3.232          	1.227
MS.476         	3.227          	1.191
MS.477         	3.22           	1.251
MS.478         	3.212          	1.124
MS.479         	3.207          	1.154
MS.480         	3.2            	1.134
MS.481         	3.195          	1.116
MS.482         	3.188          	1.102
MS.483         	3.182          	1.11
MS.484         	3.175          	1.086
MS.485         	3.17           	0.949
MS.486         	3.162          	1.016
MS.487         	3.158          	0.969
MS.488         	3.15           	1.012
MS.489         	3.145          	0.949
MS.490         	3.138          	0.892
MS.491         	3.132          	0.915
MS.492         	3.125          	0.831
MS.493         	3.12           	0.88
MS.494         	3.112          	0.859
MS.495         	3.107          	0.975
MS.496         	3.1            	0.83
MS.497         	3.095          	0.76
MS.498         	3.087          	0.789
MS.499         	3.082          	0.819
MS.500         	3.075          	0.645
MS.501         	3.07           	0.854
MS.502         	3.062          	0.679
MS.503         	3.057          	0.684
MS.504         	3.05           	0.692
MS.505         	3.045          	0.685
MS.506         	3.037          	0.623
MS.507         	3.033          	0.558
MS.508         	3.027          	0.696
MS.509         	3.02           	0.603
MS.510         	3.015          	0.56
MS.511         	3.007          	0.62
MS.512         	3.002          	0.538
MS.513         	2.997          	0.579
MS.514         	2.99           	0.557
MS.515         	2.985          	0.546
MS.516         	2.977          	0.532
MS.517         	2.972          	0.497
MS.518         	2.967          	0.49
MS.519         	2.96           	0.504
MS.520         	2.955          	0.513
MS.521         	2.95           	0.435
MS.522         	2.942          	0.443
MS.523         	2.938          	0.444
MS.524         	2.932          	0.436
MS.525         	2.925          	0.398
MS.526         	2.92           	0.394
MS.527         	2.912          	0.417
MS.528         	2.908          	0.355
MS.529         	2.902          	0.4
MS.530         	2.898          	0.344
MS.531         	2.89           	0.336
MS.532         	2.885          	0.311
MS.533         	2.88           	0.325
MS.534         	2.872          	0.302
MS.535         	2.867          	0.262
MS.536         	2.862          	0.28
MS.537         	2.855          	0.254
MS.538         	2.85           	0.289
MS.539         	2.845          	0.281
MS.540         	2.84           	0.289
MS.541         	2.832          	0.226
MS.542         	2.827          	0.25
MS.543         	2.822          	0.228
MS.544         	2.817          	0.208
MS.545         	2.81           	0.24
MS.546         	2.805          	0.248
MS.547         	2.8            	0.264
MS.548         	2.795          	0.229
MS.549         	2.787          	0.202
MS.550         	2.783          	0.174
MS.551         	2.777          	0.153
MS.552         	2.773          	0.206
MS.553         	2.765          	0.239
MS.554         	2.76           	0.228
MS.555         	2.755          	0.222
MS.556         	2.75           	0.2
MS.557         	2.745          	0.198
MS.558         	2.737          	0.171
MS.559         	2.732          	0.211
MS.560         	2.727          	0.189
MS.561         	2.722          	0.172
MS.562         	2.717          	0.143
MS.563         	2.712          	0.164
MS.564         	2.705          	0.154
MS.565         	2.7            	0.184
MS.566         	2.695          	0.195
MS.567         	2.69           	0.154
MS.568         	2.685          	0.153
MS.569         	2.68           	0.17
MS.570         	2.672          	0.183
MS.571         	2.668          	0.154
MS.572         	2.662          	0.126
MS.573         	2.658          	0.143
MS.574         	2.652          	0.14
MS.575         	2.648          	0.139
MS.576         	2.642          	0.106
MS.577         	2.638          	0.067
MS.578         	2.63           	0.081
MS.579         	2.625          	0.07
MS.580         	2.62           	0.083
MS.581         	2.615          	0.087
MS.582         	2.61           	0.08
MS.583         	2.605          	0.092
MS.584         	2.6            	0.074
MS.585         	2.595          	0.073
MS.586         	2.59           	0.087
MS.587         	2.585          	0.057
MS.588         	2.58           	0.112
MS.589         	2.575          	0.06
MS.590         	2.57           	0.095
MS.591         	2.562          	0.038
MS.592         	2.557          	0.077
MS.593         	2.553          	0.04
MS.594         	2.547          	0.063
MS.595         	2.543          	0.06
MS.596         	2.537          	0.043
MS.597         	2.533          	0.039
MS.598         	2.527          	0.042
MS.599         	2.523          	0.046
MS.600         	2.517          	0.009
MS.601         	2.513          	0.041
MS.602         	2.507          	0.025
MS.603         	2.503          	0.035
MS.604         	2.497          	0.049
MS.605         	2.492          	0.018
MS.606         	2.487          	0.009
MS.607         	2.482          	0.03
MS.608         	2.477          	0.017
MS.609         	2.472          	0.001
MS.610         	2.467          	-0.005
MS.611         	2.462          	0.004
MS.612         	2.457          	0.021
MS.613         	2.452          	0.003
MS.614         	2.447          	0.009
MS.615         	2.442          	0.026
MS.616         	2.438          	0.008
MS.617         	2.435          	0.012
MS.618         	2.43           	0.01
MS.619         	2.425          	0.013
MS.620         	2.42           	0.001
MS.621         	2.415          	0.009
MS.622         	2.41           	-0.003
MS.623         	2.405          	0.003
MS.624         	2.4            	-0.001
MS.625         	2.395          	-0.005
MS.626         	2.39           	-0.012
MS.627         	2.385          	-0.001
MS.628         	2.38           	-0.011
MS.629         	2.375          	-0.013
MS.630         	2.372          	-0.013
MS.631         	2.367          	0.005
MS.632         	2.362          	-0.01
MS.633         	2.357          	-0.012
MS.634         	2.352          	-0.011
MS.635         	2.347          	-0.003
MS.636         	2.342          	-0.012
MS.637         	2.337          	-0.002
MS.638         	2.332          	-0.008
MS.639         	2.33           	-0.013
MS.640         	2.325          	-0.012
MS.641         	2.32           	-0.011
MS.642         	2.315          	-0.005
MS.643         	2.31           	-0.013
MS.644         	2.305          	-0.013
MS.645         	2.3            	-0.012
MS.646         	2.297          	-0.011
MS.647         	2.293          	-0.014
MS.648         	2.287          	-0.003
MS.649         	2.283          	-0.014
MS.650         	2.277          	-0.009
MS.651         	2.275          	-0.016
MS.652         	2.27           	-0.011
MS.653         	2.265          	-0.002
MS.654         	2.26           	-0.01
MS.655         	2.255          	-0.012
MS.656         	2.25           	-0.01
MS.657         	2.247          	-0.016
MS.658         	2.243          	-0.01
MS.659         	2.237          	-0.005
MS.660         	2.232          	-0.01
MS.661         	2.227          	-0.008
MS.662         	2.225          	-0.007
MS.663         	2.22           	-0.01
MS.664         	2.215          	-0.01
MS.665         	2.21           	-0.005
MS.666         	2.207          	-0.015
MS.667         	2.202          	-0.013
MS.668         	2.197          	-0.01
MS.669         	2.192          	-0.009
MS.670         	2.19           	-0.009
MS.671         	2.185          	-0.01
MS.672         	2.18           	-0.009
MS.673         	2.175          	-0.015
MS.674         	2.172          	-0.007
MS.675         	2.168          	-0.01
MS.676         	2.162          	-0.004
MS.677         	2.158          	-0.009
MS.678         	2.155          	-0.007
MS.679         	2.15           	-0.013
MS.680         	2.145          	-0.014
MS.681         	2.142          	-0.01
MS.682         	2.138          	-0.01
MS.683         	2.132          	-0.008
MS.684         	2.128          	-0.009
MS.685         	2.125          	-0.009
MS.686         	2.12           	-0.009
MS.687         	2.115          	-0.009
DERIVED EXCITABILITY VARIABLES
Program = QTracP 27/06/2023
Threshold method = 6 (optimised for CAP, using data for present condition only)
SR method = 1 (using actual data values)
6.                 	0.000               	Peak response\(mV)
9.                 	32.3                	Temperature ( C)
17.                	23                  	Age (years)
18.                	2                   	Sex (M=1, F=2)

EXTRA VARIABLES

MScPeak(mV) = 5.53
MScS5(mA) = 2.86
MScS50(mA) = 3.81
MScS95(mA) = 5.53
MScNSteps = 0
MScSteps(%) = 0.0
MScStepMax(%) = 0.0
MScD50 = 80
MScSlope = 3.31
MScDuration(min) = 9.2
MSFTraces = 531
MSFPeakAmp(mV) = 5.67
MSFNUnits = 139
MSFMeanUnitAmp(uV) = 40.8
MSFHuntTime(m) = 1.43
MSFError(%) = 1.57
MSFNLarge = 44.31
MSFMedianAmp(%) = 0.609
MSFMedianAmp(mV) = 0.0345
MSFHalfAmpAmp(%) = 0.782
MSFHalfAmpAmp(mV) = 0.0443
MSFLargestAmp(%) = 2.16
MSFLargestAmp(mV) = 0.123
MSFMeanRS(%) = 2.01
MSFSizeLimit(uV) = 18.9
MSFLimitType = 1
MSFSmallestAmp(uV) = 19.4
MSFOpts = 10104222032
MSFSDMax = 28.8
MSFSDMin = 2.42

EXTRA WAVEFORMS


!MScan Model
!139
	1	2.5	0.7	2
	2	2.55	0.53	2
	3	2.62	0.5	2
	4	2.64	0.35	2
	5	2.66	0.5	2
	6	2.68	0.36	2
	7	2.72	0.44	2
	8	2.79	0.8	2
	9	2.84	0.68	2
	10	2.86	0.49	2
	11	2.88	0.6	2
	12	2.89	0.37	2
	13	2.91	0.6	2
	14	2.92	0.71	2
	15	2.94	0.61	2
	16	2.96	0.58	2
	17	2.97	0.41	2
	18	2.98	0.66	2
	19	3.01	0.84	2
	20	3.02	0.48	2
	21	3.04	0.66	2
	22	3.05	0.63	2
	23	3.06	0.59	2
	24	3.07	0.5	2
	25	3.09	0.96	2
	26	3.11	0.81	2
	27	3.12	0.53	2
	28	3.13	0.57	2
	29	3.14	0.49	2
	30	3.15	0.44	2
	31	3.16	0.51	2
	32	3.17	0.51	2
	33	3.18	0.64	2
	34	3.19	0.64	2
	35	3.2	0.45	2
	36	3.21	0.59	2
	37	3.21	0.35	2
	38	3.23	0.48	2
	39	3.24	0.57	2
	40	3.25	0.36	2
	41	3.25	0.44	2
	42	3.26	0.39	2
	43	3.28	0.68	2
	44	3.31	0.71	2
	45	3.32	0.78	2
	46	3.34	0.5	2
	47	3.36	0.56	2
	48	3.38	0.74	2
	49	3.4	0.87	2
	50	3.41	0.38	2
	51	3.42	0.39	2
	52	3.43	0.45	2
	53	3.44	0.42	2
	54	3.45	0.4	2
	55	3.46	0.68	2
	56	3.47	0.57	2
	57	3.49	0.86	2
	58	3.5	0.52	2
	59	3.52	0.46	2
	60	3.53	0.62	2
	61	3.54	0.54	2
	62	3.55	0.46	2
	63	3.56	0.55	2
	64	3.58	0.57	2.2
	65	3.59	0.51	2
	66	3.6	0.66	2
	67	3.61	0.78	2
	68	3.62	0.78	2
	69	3.63	1.24	2
	70	3.65	0.85	2
	71	3.67	1.74	2
	72	3.7	1.08	2
	73	3.71	0.51	2
	74	3.72	0.39	2
	75	3.73	0.8	2
	76	3.75	0.9	2
	77	3.76	0.83	2
	78	3.77	0.4	2
	79	3.78	0.43	2
	80	3.78	0.38	2
	81	3.79	0.44	2
	82	3.8	0.34	2
	83	3.82	1.27	2
	84	3.85	1.3	2
	85	3.88	1.04	2
	86	3.92	1.38	2
	87	3.93	0.57	2
	88	3.94	0.43	2
	89	3.95	0.35	2
	90	3.96	0.42	2
	91	3.96	0.34	2
	92	3.97	0.55	2
	93	3.98	0.49	2
	94	3.99	0.64	2
	95	4	0.61	2
	96	4.02	1.25	2
	97	4.05	1.19	2
	98	4.08	1.22	2
	99	4.12	1.68	2
	100	4.16	1.1	2
	101	4.2	0.87	2
	102	4.22	0.64	2
	103	4.25	1.04	2
	104	4.31	1.86	2
	105	4.34	0.83	2
	106	4.35	0.56	2
	107	4.37	0.45	1.6
	108	4.39	1.17	2
	109	4.41	0.82	2
	110	4.52	2.01	2
	111	4.56	0.81	2
	112	4.59	0.95	2
	113	4.61	0.47	2
	114	4.62	0.37	2
	115	4.64	0.37	2
	116	4.72	1.86	2
	117	4.77	1.21	2
	118	4.84	2.16	2
	119	4.86	0.61	2
	120	4.88	0.7	2
	121	4.91	1.03	2
	122	4.99	1.54	2
	123	5.04	1.07	2
	124	5.34	0.34	2
	125	5.39	0.82	2.4
	126	5.42	0.47	2
	127	5.45	0.65	2.4
	128	5.46	0.6	2
	129	5.49	0.61	2
	130	5.5	0.6	2
	131	5.5	1.11	2
	132	5.52	0.59	2
	133	5.54	0.66	2
	134	5.56	0.65	2
	135	5.59	1.09	2
	136	5.62	0.91	2
	137	5.65	0.81	2
	138	5.69	0.86	2
	139	5.72	0.9	2

