File:              	C:\Qtrac\Data\ME2C30620A.QZD
Name:              	 ME22I
Protocol:          	MSCAN-MV
Date:              	20/6/23
Date of birth:     	22/2/02
Age:               	21
Sex:               	M
Temperature:       	31.8
S/R sites:         	Knee CF-TA
NC/disease:        	NC
Operator:          	BY
Comments:
M-SCAN DATA (Repeat 4/4, 38-26.9m)
Scanpts: 174, 198, 846, 873
Stim. (mA)     	Amp. (mV)
MS.1           	15             	9.196
MS.2           	15             	9.254
MS.3           	15             	9.229
MS.4           	15             	9.237
MS.5           	15             	9.252
MS.6           	15             	9.255
MS.7           	15             	9.281
MS.8           	15             	9.261
MS.9           	15             	9.306
MS.10          	15             	9.275
MS.11          	15             	9.303
MS.12          	15             	9.284
MS.13          	15             	9.288
MS.14          	15             	9.334
MS.15          	15             	9.34
MS.16          	15             	9.313
MS.17          	15             	9.282
MS.18          	15             	9.35
MS.19          	15             	9.34
MS.20          	15             	9.37
MS.21          	15             	9.339
MS.22          	15             	9.363
MS.23          	15             	9.379
MS.24          	14.97          	9.352
MS.25          	14.94          	9.352
MS.26          	14.91          	9.341
MS.27          	14.88          	9.374
MS.28          	14.85          	9.368
MS.29          	14.82          	9.346
MS.30          	14.792         	9.354
MS.31          	14.762         	9.366
MS.32          	14.733         	9.352
MS.33          	14.702         	9.386
MS.34          	14.672         	9.362
MS.35          	14.645         	9.385
MS.36          	14.615         	9.37
MS.37          	14.585         	9.369
MS.38          	14.557         	9.383
MS.39          	14.527         	9.363
MS.40          	14.497         	9.377
MS.41          	14.47          	9.388
MS.42          	14.44          	9.379
MS.43          	14.412         	9.368
MS.44          	14.382         	9.388
MS.45          	14.355         	9.396
MS.46          	14.325         	9.377
MS.47          	14.297         	9.393
MS.48          	14.267         	9.434
MS.49          	14.24          	9.453
MS.50          	14.212         	9.363
MS.51          	14.182         	9.42
MS.52          	14.155         	9.395
MS.53          	14.127         	9.455
MS.54          	14.097         	9.432
MS.55          	14.07          	9.365
MS.56          	14.042         	9.471
MS.57          	14.015         	9.424
MS.58          	13.985         	9.42
MS.59          	13.957         	9.429
MS.60          	13.93          	9.42
MS.61          	13.903         	9.422
MS.62          	13.875         	9.457
MS.63          	13.847         	9.444
MS.64          	13.82          	9.456
MS.65          	13.792         	9.441
MS.66          	13.765         	9.465
MS.67          	13.737         	9.501
MS.68          	13.71          	9.474
MS.69          	13.682         	9.47
MS.70          	13.655         	9.475
MS.71          	13.627         	9.472
MS.72          	13.6           	9.458
MS.73          	13.572         	9.455
MS.74          	13.545         	9.449
MS.75          	13.517         	9.492
MS.76          	13.492         	9.473
MS.77          	13.465         	9.466
MS.78          	13.438         	9.496
MS.79          	13.41          	9.517
MS.80          	13.385         	9.509
MS.81          	13.358         	9.494
MS.82          	13.33          	9.517
MS.83          	13.305         	9.501
MS.84          	13.278         	9.481
MS.85          	13.25          	9.543
MS.86          	13.225         	9.487
MS.87          	13.197         	9.509
MS.88          	13.172         	9.518
MS.89          	13.145         	9.512
MS.90          	13.12          	9.518
MS.91          	13.092         	9.506
MS.92          	13.068         	9.561
MS.93          	13.04          	9.521
MS.94          	13.015         	9.51
MS.95          	12.987         	9.493
MS.96          	12.962         	9.498
MS.97          	12.938         	9.464
MS.98          	12.91          	9.532
MS.99          	12.885         	9.471
MS.100         	12.86          	9.477
MS.101         	12.832         	9.498
MS.102         	12.807         	9.51
MS.103         	12.782         	9.512
MS.104         	12.757         	9.5
MS.105         	12.73          	9.466
MS.106         	12.705         	9.498
MS.107         	12.68          	9.525
MS.108         	12.655         	9.485
MS.109         	12.63          	9.513
MS.110         	12.605         	9.471
MS.111         	12.58          	9.52
MS.112         	12.555         	9.511
MS.113         	12.53          	9.546
MS.114         	12.505         	9.46
MS.115         	12.48          	9.464
MS.116         	12.455         	9.456
MS.117         	12.43          	9.5
MS.118         	12.405         	9.515
MS.119         	12.38          	9.48
MS.120         	12.355         	9.456
MS.121         	12.33          	9.457
MS.122         	12.305         	9.508
MS.123         	12.28          	9.532
MS.124         	12.257         	9.484
MS.125         	12.233         	9.502
MS.126         	12.207         	9.51
MS.127         	12.182         	9.503
MS.128         	12.16          	9.47
MS.129         	12.135         	9.506
MS.130         	12.11          	9.471
MS.131         	12.085         	9.508
MS.132         	12.062         	9.526
MS.133         	12.037         	9.542
MS.134         	12.012         	9.525
MS.135         	11.99          	9.531
MS.136         	11.965         	9.531
MS.137         	11.943         	9.501
MS.138         	11.917         	9.517
MS.139         	11.895         	9.526
MS.140         	11.87          	9.566
MS.141         	11.847         	9.568
MS.142         	11.822         	9.557
MS.143         	11.8           	9.589
MS.144         	11.775         	9.551
MS.145         	11.752         	9.634
MS.146         	11.73          	9.558
MS.147         	11.705         	9.608
MS.148         	11.682         	9.568
MS.149         	11.657         	9.596
MS.150         	11.635         	9.557
MS.151         	11.613         	9.597
MS.152         	11.59          	9.526
MS.153         	11.565         	9.539
MS.154         	11.542         	9.568
MS.155         	11.52          	9.559
MS.156         	11.497         	9.578
MS.157         	11.472         	9.584
MS.158         	11.45          	9.575
MS.159         	11.427         	9.56
MS.160         	11.405         	9.614
MS.161         	11.382         	9.617
MS.162         	11.36          	9.656
MS.163         	11.337         	9.579
MS.164         	11.315         	9.595
MS.165         	11.292         	9.566
MS.166         	11.27          	9.63
MS.167         	11.247         	9.524
MS.168         	11.225         	9.562
MS.169         	11.202         	9.545
MS.170         	11.18          	9.532
MS.171         	11.157         	9.537
MS.172         	11.135         	9.453
MS.173         	11.113         	9.477
MS.174         	11.09          	9.624
MS.175         	11.068         	9.702
MS.176         	11.045         	9.681
MS.177         	11.023         	9.604
MS.178         	11.002         	9.67
MS.179         	10.98          	9.628
MS.180         	10.957         	9.658
MS.181         	10.935         	9.554
MS.182         	10.915         	9.508
MS.183         	10.892         	9.566
MS.184         	10.87          	9.579
MS.185         	10.85          	9.557
MS.186         	10.827         	9.593
MS.187         	10.805         	9.59
MS.188         	10.785         	9.576
MS.189         	10.762         	9.575
MS.190         	10.74          	9.568
MS.191         	10.72          	9.586
MS.192         	10.698         	9.612
MS.193         	10.677         	9.669
MS.194         	10.655         	9.547
MS.195         	10.635         	9.582
MS.196         	10.613         	9.638
MS.197         	10.592         	9.517
MS.198         	10.57          	9.48
MS.199         	10.55          	9.525
MS.200         	10.528         	9.538
MS.201         	10.507         	9.616
MS.202         	10.485         	9.623
MS.203         	10.465         	9.542
MS.204         	10.445         	9.36
MS.205         	10.422         	9.588
MS.206         	10.403         	9.518
MS.207         	10.382         	9.409
MS.208         	10.36          	9.42
MS.209         	10.34          	9.306
MS.210         	10.32          	9.461
MS.211         	10.3           	9.432
MS.212         	10.278         	9.426
MS.213         	10.257         	9.437
MS.214         	10.238         	9.269
MS.215         	10.217         	9.467
MS.216         	10.198         	9.45
MS.217         	10.175         	9.34
MS.218         	10.155         	9.418
MS.219         	10.135         	9.304
MS.220         	10.115         	9.266
MS.221         	10.095         	9.424
MS.222         	10.075         	9.359
MS.223         	10.055         	9.326
MS.224         	10.035         	9.17
MS.225         	10.015         	9.326
MS.226         	9.995          	9.315
MS.227         	9.975          	9.313
MS.228         	9.955          	9.153
MS.229         	9.935          	9.271
MS.230         	9.915          	9.261
MS.231         	9.895          	9.16
MS.232         	9.875          	9.195
MS.233         	9.855          	9.116
MS.234         	9.835          	9.116
MS.235         	9.818          	9
MS.236         	9.797          	9.161
MS.237         	9.778          	9.136
MS.238         	9.757          	9.078
MS.239         	9.738          	9.044
MS.240         	9.717          	9.022
MS.241         	9.7            	8.955
MS.242         	9.68           	8.787
MS.243         	9.66           	9.056
MS.244         	9.64           	8.934
MS.245         	9.622          	8.843
MS.246         	9.602          	8.769
MS.247         	9.582          	8.901
MS.248         	9.565          	8.66
MS.249         	9.545          	8.793
MS.250         	9.525          	8.99
MS.251         	9.507          	8.813
MS.252         	9.488          	8.515
MS.253         	9.47           	8.949
MS.254         	9.45           	8.914
MS.255         	9.432          	8.93
MS.256         	9.412          	8.806
MS.257         	9.395          	8.691
MS.258         	9.375          	8.668
MS.259         	9.358          	8.7
MS.260         	9.337          	8.707
MS.261         	9.32           	8.633
MS.262         	9.3            	8.541
MS.263         	9.283          	8.544
MS.264         	9.262          	8.644
MS.265         	9.245          	8.709
MS.266         	9.225          	8.607
MS.267         	9.207          	8.767
MS.268         	9.19           	8.82
MS.269         	9.17           	8.556
MS.270         	9.153          	8.593
MS.271         	9.135          	8.477
MS.272         	9.115          	8.455
MS.273         	9.097          	8.403
MS.274         	9.08           	8.28
MS.275         	9.062          	8.35
MS.276         	9.042          	8.463
MS.277         	9.025          	8.367
MS.278         	9.007          	8.584
MS.279         	8.99           	8.433
MS.280         	8.972          	8.148
MS.281         	8.952          	8.474
MS.282         	8.935          	8.358
MS.283         	8.917          	8.52
MS.284         	8.9            	8.306
MS.285         	8.882          	8.393
MS.286         	8.865          	8.375
MS.287         	8.847          	8.264
MS.288         	8.83           	8.183
MS.289         	8.812          	8.262
MS.290         	8.795          	8.238
MS.291         	8.778          	8.16
MS.292         	8.757          	8.276
MS.293         	8.74           	8.173
MS.294         	8.725          	8.215
MS.295         	8.707          	8.116
MS.296         	8.69           	8.096
MS.297         	8.672          	8.25
MS.298         	8.655          	8.034
MS.299         	8.637          	7.895
MS.300         	8.62           	8.012
MS.301         	8.602          	8.006
MS.302         	8.585          	8.024
MS.303         	8.568          	8.165
MS.304         	8.55           	8.101
MS.305         	8.535          	8.018
MS.306         	8.517          	8.015
MS.307         	8.5            	7.8
MS.308         	8.483          	7.896
MS.309         	8.465          	7.841
MS.310         	8.45           	8.068
MS.311         	8.432          	8.007
MS.312         	8.415          	8.137
MS.313         	8.398          	8.026
MS.314         	8.382          	7.909
MS.315         	8.365          	7.539
MS.316         	8.347          	7.902
MS.317         	8.332          	8.126
MS.318         	8.315          	7.699
MS.319         	8.297          	7.795
MS.320         	8.283          	7.617
MS.321         	8.265          	8.059
MS.322         	8.247          	7.789
MS.323         	8.233          	7.73
MS.324         	8.215          	7.792
MS.325         	8.2            	7.356
MS.326         	8.182          	7.704
MS.327         	8.167          	7.729
MS.328         	8.15           	7.64
MS.329         	8.135          	7.76
MS.330         	8.117          	7.842
MS.331         	8.102          	7.46
MS.332         	8.085          	7.739
MS.333         	8.07           	7.559
MS.334         	8.052          	7.637
MS.335         	8.037          	7.658
MS.336         	8.02           	7.375
MS.337         	8.005          	7.676
MS.338         	7.99           	7.766
MS.339         	7.972          	7.357
MS.340         	7.957          	7.581
MS.341         	7.94           	7.752
MS.342         	7.925          	7.949
MS.343         	7.91           	7.715
MS.344         	7.892          	7.638
MS.345         	7.878          	7.686
MS.346         	7.862          	7.615
MS.347         	7.847          	7.438
MS.348         	7.83           	7.325
MS.349         	7.815          	7.536
MS.350         	7.8            	7.235
MS.351         	7.785          	7.147
MS.352         	7.767          	7.312
MS.353         	7.753          	7.018
MS.354         	7.737          	7.278
MS.355         	7.722          	7.112
MS.356         	7.707          	7.255
MS.357         	7.69           	7.228
MS.358         	7.675          	6.994
MS.359         	7.66           	7.105
MS.360         	7.645          	6.866
MS.361         	7.63           	6.75
MS.362         	7.615          	6.651
MS.363         	7.6            	6.998
MS.364         	7.585          	6.661
MS.365         	7.57           	6.624
MS.366         	7.555          	6.582
MS.367         	7.537          	6.573
MS.368         	7.523          	6.919
MS.369         	7.507          	6.852
MS.370         	7.492          	6.345
MS.371         	7.477          	6.58
MS.372         	7.462          	6.222
MS.373         	7.45           	6.384
MS.374         	7.435          	6.439
MS.375         	7.42           	6.396
MS.376         	7.405          	6.34
MS.377         	7.39           	6.419
MS.378         	7.375          	6.179
MS.379         	7.36           	6.204
MS.380         	7.345          	6.407
MS.381         	7.33           	5.984
MS.382         	7.315          	5.862
MS.383         	7.302          	6.144
MS.384         	7.287          	6.243
MS.385         	7.273          	6.097
MS.386         	7.257          	5.881
MS.387         	7.242          	6.052
MS.388         	7.227          	6.225
MS.389         	7.215          	6.371
MS.390         	7.2            	6.079
MS.391         	7.185          	6.034
MS.392         	7.17           	5.857
MS.393         	7.157          	5.659
MS.394         	7.142          	5.751
MS.395         	7.128          	5.743
MS.396         	7.115          	5.522
MS.397         	7.1            	5.635
MS.398         	7.085          	5.598
MS.399         	7.072          	5.518
MS.400         	7.057          	5.211
MS.401         	7.043          	5.554
MS.402         	7.03           	5.531
MS.403         	7.015          	5.276
MS.404         	7              	5.389
MS.405         	6.987          	5.284
MS.406         	6.972          	5.117
MS.407         	6.96           	4.999
MS.408         	6.945          	5.238
MS.409         	6.932          	5.304
MS.410         	6.918          	5.24
MS.411         	6.902          	4.924
MS.412         	6.89           	5.122
MS.413         	6.875          	5.025
MS.414         	6.862          	4.744
MS.415         	6.847          	4.662
MS.416         	6.835          	4.803
MS.417         	6.822          	4.891
MS.418         	6.807          	4.695
MS.419         	6.795          	4.818
MS.420         	6.78           	4.794
MS.421         	6.767          	4.407
MS.422         	6.753          	4.846
MS.423         	6.74           	4.756
MS.424         	6.727          	4.622
MS.425         	6.712          	4.712
MS.426         	6.7            	4.522
MS.427         	6.685          	4.607
MS.428         	6.672          	4.496
MS.429         	6.66           	4.501
MS.430         	6.645          	4.437
MS.431         	6.632          	4.61
MS.432         	6.62           	4.377
MS.433         	6.608          	4.249
MS.434         	6.592          	4.226
MS.435         	6.58           	4.235
MS.436         	6.567          	4.175
MS.437         	6.555          	4.142
MS.438         	6.54           	4.257
MS.439         	6.527          	4.143
MS.440         	6.515          	4.189
MS.441         	6.503          	4.074
MS.442         	6.487          	4.131
MS.443         	6.475          	3.965
MS.444         	6.462          	3.937
MS.445         	6.45           	4.012
MS.446         	6.438          	3.715
MS.447         	6.425          	3.763
MS.448         	6.41           	3.859
MS.449         	6.398          	3.857
MS.450         	6.385          	3.863
MS.451         	6.372          	3.958
MS.452         	6.36           	3.625
MS.453         	6.347          	3.308
MS.454         	6.335          	3.737
MS.455         	6.322          	3.51
MS.456         	6.31           	3.755
MS.457         	6.297          	3.738
MS.458         	6.285          	3.292
MS.459         	6.273          	3.437
MS.460         	6.26           	3.323
MS.461         	6.247          	3.46
MS.462         	6.235          	3.292
MS.463         	6.222          	3.189
MS.464         	6.21           	3.179
MS.465         	6.197          	3.184
MS.466         	6.185          	3.112
MS.467         	6.172          	3.16
MS.468         	6.16           	3.16
MS.469         	6.148          	2.905
MS.470         	6.135          	2.805
MS.471         	6.122          	2.949
MS.472         	6.11           	2.988
MS.473         	6.097          	2.953
MS.474         	6.088          	2.631
MS.475         	6.075          	2.703
MS.476         	6.062          	2.803
MS.477         	6.05           	2.767
MS.478         	6.037          	2.697
MS.479         	6.025          	2.521
MS.480         	6.015          	2.52
MS.481         	6.003          	2.704
MS.482         	5.99           	2.537
MS.483         	5.977          	2.564
MS.484         	5.965          	2.31
MS.485         	5.955          	2.456
MS.486         	5.942          	2.314
MS.487         	5.93           	2.202
MS.488         	5.918          	2.197
MS.489         	5.907          	2.288
MS.490         	5.895          	2.437
MS.491         	5.882          	2.329
MS.492         	5.87           	2.405
MS.493         	5.86           	2.151
MS.494         	5.847          	2.128
MS.495         	5.835          	1.927
MS.496         	5.825          	2.236
MS.497         	5.812          	1.9
MS.498         	5.8            	2.023
MS.499         	5.79           	2.14
MS.500         	5.777          	1.985
MS.501         	5.767          	2.145
MS.502         	5.755          	1.939
MS.503         	5.742          	2.034
MS.504         	5.733          	1.876
MS.505         	5.72           	1.839
MS.506         	5.71           	1.909
MS.507         	5.697          	1.914
MS.508         	5.685          	1.946
MS.509         	5.675          	1.688
MS.510         	5.662          	1.725
MS.511         	5.652          	1.776
MS.512         	5.64           	1.893
MS.513         	5.63           	1.601
MS.514         	5.617          	1.701
MS.515         	5.608          	1.655
MS.516         	5.595          	1.715
MS.517         	5.585          	1.541
MS.518         	5.572          	1.562
MS.519         	5.562          	1.492
MS.520         	5.552          	1.569
MS.521         	5.54           	1.556
MS.522         	5.53           	1.44
MS.523         	5.517          	1.553
MS.524         	5.507          	1.521
MS.525         	5.495          	1.516
MS.526         	5.485          	1.506
MS.527         	5.475          	1.459
MS.528         	5.463          	1.416
MS.529         	5.452          	1.515
MS.530         	5.443          	1.519
MS.531         	5.43           	1.433
MS.532         	5.42           	1.436
MS.533         	5.41           	1.338
MS.534         	5.398          	1.374
MS.535         	5.387          	1.407
MS.536         	5.378          	1.298
MS.537         	5.365          	1.323
MS.538         	5.355          	1.279
MS.539         	5.345          	1.382
MS.540         	5.332          	1.271
MS.541         	5.322          	1.262
MS.542         	5.312          	1.348
MS.543         	5.302          	1.275
MS.544         	5.29           	1.096
MS.545         	5.28           	1.121
MS.546         	5.27           	1.046
MS.547         	5.26           	1.143
MS.548         	5.25           	1.106
MS.549         	5.237          	1.21
MS.550         	5.227          	1.056
MS.551         	5.217          	0.983
MS.552         	5.207          	0.903
MS.553         	5.197          	0.817
MS.554         	5.188          	0.881
MS.555         	5.175          	0.798
MS.556         	5.165          	0.869
MS.557         	5.155          	0.867
MS.558         	5.145          	0.965
MS.559         	5.135          	0.793
MS.560         	5.125          	0.805
MS.561         	5.115          	0.912
MS.562         	5.105          	0.771
MS.563         	5.095          	0.945
MS.564         	5.085          	0.854
MS.565         	5.072          	0.746
MS.566         	5.062          	0.749
MS.567         	5.052          	0.719
MS.568         	5.043          	0.69
MS.569         	5.032          	0.657
MS.570         	5.023          	0.708
MS.571         	5.012          	0.753
MS.572         	5.003          	0.696
MS.573         	4.992          	0.605
MS.574         	4.983          	0.661
MS.575         	4.972          	0.513
MS.576         	4.963          	0.573
MS.577         	4.952          	0.671
MS.578         	4.943          	0.569
MS.579         	4.932          	0.55
MS.580         	4.922          	0.499
MS.581         	4.915          	0.547
MS.582         	4.905          	0.715
MS.583         	4.895          	0.618
MS.584         	4.885          	0.576
MS.585         	4.875          	0.542
MS.586         	4.865          	0.56
MS.587         	4.855          	0.54
MS.588         	4.845          	0.5
MS.589         	4.835          	0.522
MS.590         	4.825          	0.543
MS.591         	4.818          	0.403
MS.592         	4.807          	0.401
MS.593         	4.797          	0.459
MS.594         	4.787          	0.48
MS.595         	4.777          	0.648
MS.596         	4.767          	0.433
MS.597         	4.76           	0.472
MS.598         	4.75           	0.364
MS.599         	4.74           	0.428
MS.600         	4.73           	0.435
MS.601         	4.72           	0.427
MS.602         	4.713          	0.386
MS.603         	4.702          	0.475
MS.604         	4.693          	0.446
MS.605         	4.682          	0.504
MS.606         	4.675          	0.446
MS.607         	4.665          	0.385
MS.608         	4.655          	0.352
MS.609         	4.645          	0.424
MS.610         	4.637          	0.397
MS.611         	4.628          	0.336
MS.612         	4.617          	0.444
MS.613         	4.61           	0.346
MS.614         	4.6            	0.333
MS.615         	4.59           	0.355
MS.616         	4.582          	0.311
MS.617         	4.572          	0.258
MS.618         	4.562          	0.263
MS.619         	4.555          	0.331
MS.620         	4.545          	0.388
MS.621         	4.535          	0.294
MS.622         	4.527          	0.299
MS.623         	4.517          	0.258
MS.624         	4.51           	0.345
MS.625         	4.5            	0.302
MS.626         	4.49           	0.32
MS.627         	4.483          	0.301
MS.628         	4.472          	0.228
MS.629         	4.465          	0.253
MS.630         	4.455          	0.35
MS.631         	4.445          	0.304
MS.632         	4.438          	0.153
MS.633         	4.427          	0.265
MS.634         	4.42           	0.156
MS.635         	4.41           	0.269
MS.636         	4.402          	0.143
MS.637         	4.392          	0.247
MS.638         	4.385          	0.23
MS.639         	4.375          	0.158
MS.640         	4.367          	0.134
MS.641         	4.358          	0.115
MS.642         	4.35           	0.113
MS.643         	4.34           	0.115
MS.644         	4.332          	0.074
MS.645         	4.322          	0.089
MS.646         	4.315          	0.09
MS.647         	4.305          	0.108
MS.648         	4.298          	0.116
MS.649         	4.29           	0.111
MS.650         	4.28           	0.087
MS.651         	4.273          	0.117
MS.652         	4.262          	0.051
MS.653         	4.255          	0.106
MS.654         	4.247          	0.094
MS.655         	4.237          	0.063
MS.656         	4.23           	0.085
MS.657         	4.22           	0.092
MS.658         	4.213          	0.058
MS.659         	4.205          	0.06
MS.660         	4.195          	0.101
MS.661         	4.188          	0.056
MS.662         	4.18           	0.068
MS.663         	4.17           	0.078
MS.664         	4.162          	0.092
MS.665         	4.155          	0.051
MS.666         	4.145          	0.078
MS.667         	4.137          	0.047
MS.668         	4.13           	0.034
MS.669         	4.12           	0.067
MS.670         	4.112          	0.057
MS.671         	4.105          	0.049
MS.672         	4.095          	0.049
MS.673         	4.088          	0.061
MS.674         	4.08           	0.061
MS.675         	4.072          	0.063
MS.676         	4.062          	0.052
MS.677         	4.055          	0.049
MS.678         	4.048          	0.054
MS.679         	4.04           	0.073
MS.680         	4.03           	0.043
MS.681         	4.023          	0.054
MS.682         	4.015          	0.063
MS.683         	4.007          	0.085
MS.684         	4              	0.096
MS.685         	3.99           	0.036
MS.686         	3.982          	0.045
MS.687         	3.975          	0.049
MS.688         	3.967          	0.053
MS.689         	3.96           	0.085
MS.690         	3.952          	0.037
MS.691         	3.942          	0.054
MS.692         	3.935          	0.049
MS.693         	3.928          	0.016
MS.694         	3.92           	0.048
MS.695         	3.912          	0.03
MS.696         	3.905          	0.025
MS.697         	3.897          	0.032
MS.698         	3.887          	0.046
MS.699         	3.88           	0.031
MS.700         	3.872          	0.048
MS.701         	3.865          	0.051
MS.702         	3.857          	0.023
MS.703         	3.85           	0.026
MS.704         	3.842          	0.024
MS.705         	3.835          	0.031
MS.706         	3.827          	0.036
MS.707         	3.82           	0.024
MS.708         	3.812          	0.024
MS.709         	3.805          	0.027
MS.710         	3.797          	0.019
MS.711         	3.79           	0.031
MS.712         	3.78           	0.034
MS.713         	3.772          	0.033
MS.714         	3.765          	0.028
MS.715         	3.757          	0.024
MS.716         	3.75           	0.023
MS.717         	3.742          	0.023
MS.718         	3.735          	0.045
MS.719         	3.727          	0.024
MS.720         	3.72           	0.031
MS.721         	3.715          	0.026
MS.722         	3.707          	0.024
MS.723         	3.7            	0.029
MS.724         	3.692          	0.029
MS.725         	3.685          	0.024
MS.726         	3.678          	0.029
MS.727         	3.67           	0.024
MS.728         	3.662          	0.026
MS.729         	3.655          	0.023
MS.730         	3.647          	0.03
MS.731         	3.64           	0.007
MS.732         	3.632          	0.008
MS.733         	3.625          	0.002
MS.734         	3.617          	0.029
MS.735         	3.61           	0.024
MS.736         	3.605          	0.029
MS.737         	3.597          	0.007
MS.738         	3.59           	-0.001
MS.739         	3.582          	0.015
MS.740         	3.575          	0.002
MS.741         	3.567          	0.024
MS.742         	3.56           	0.007
MS.743         	3.555          	0.008
MS.744         	3.547          	-0.003
MS.745         	3.54           	-0.001
MS.746         	3.533          	0.032
MS.747         	3.525          	0.001
MS.748         	3.517          	0.007
MS.749         	3.512          	0.007
MS.750         	3.505          	0.007
MS.751         	3.497          	0.005
MS.752         	3.49           	0.005
MS.753         	3.482          	0.009
MS.754         	3.477          	0.006
MS.755         	3.47           	0.004
MS.756         	3.462          	0.007
MS.757         	3.455          	0.012
MS.758         	3.45           	0.003
MS.759         	3.442          	0.01
MS.760         	3.435          	0.001
MS.761         	3.428          	0.006
MS.762         	3.422          	0.011
MS.763         	3.415          	0.008
MS.764         	3.408          	0.01
MS.765         	3.4            	0.005
MS.766         	3.395          	0.005
MS.767         	3.387          	0.005
MS.768         	3.38           	0.006
MS.769         	3.375          	0.009
MS.770         	3.367          	0.007
MS.771         	3.36           	0.003
MS.772         	3.352          	0.011
MS.773         	3.347          	0.007
MS.774         	3.34           	0.013
MS.775         	3.332          	0.015
MS.776         	3.327          	0.004
MS.777         	3.32           	0.009
MS.778         	3.312          	0.012
MS.779         	3.307          	0.011
MS.780         	3.3            	0.007
MS.781         	3.295          	0.009
MS.782         	3.287          	0.004
MS.783         	3.28           	0.01
MS.784         	3.275          	0.009
MS.785         	3.267          	0.007
MS.786         	3.26           	0.007
MS.787         	3.255          	0.005
MS.788         	3.247          	0.005
MS.789         	3.242          	0.009
MS.790         	3.235          	0.008
MS.791         	3.227          	0.014
MS.792         	3.222          	0.009
MS.793         	3.215          	0.004
MS.794         	3.21           	0.007
MS.795         	3.202          	0.006
MS.796         	3.197          	0.009
MS.797         	3.19           	0.009
MS.798         	3.182          	0.003
MS.799         	3.178          	0.009
MS.800         	3.17           	0.009
MS.801         	3.165          	0.01
MS.802         	3.158          	0.009
MS.803         	3.152          	-0.027
MS.804         	3.145          	0.007
MS.805         	3.14           	-0.021
MS.806         	3.132          	-0.021
MS.807         	3.127          	0.012
MS.808         	3.12           	0.006
MS.809         	3.115          	-0.022
MS.810         	3.107          	0.012
MS.811         	3.102          	0.01
MS.812         	3.095          	0.005
MS.813         	3.09           	0.012
MS.814         	3.082          	0.009
MS.815         	3.077          	-0.013
MS.816         	3.07           	0.016
MS.817         	3.065          	-0.027
MS.818         	3.06           	0.012
MS.819         	3.053          	0.006
MS.820         	3.047          	0.012
MS.821         	3.04           	0.009
MS.822         	3.035          	-0.023
MS.823         	3.027          	-0.016
MS.824         	3.023          	0.009
MS.825         	3.017          	-0.02
MS.826         	3.01           	-0.022
MS.827         	3.005          	-0.02
MS.828         	2.997          	0.01
MS.829         	2.992          	-0.018
MS.830         	2.987          	-0.023
MS.831         	2.98           	0.01
MS.832         	2.975          	-0.021
MS.833         	2.967          	-0.021
MS.834         	2.962          	0.01
MS.835         	2.957          	-0.018
MS.836         	2.95           	-0.02
MS.837         	2.945          	-0.016
MS.838         	2.94           	-0.02
MS.839         	2.932          	-0.021
MS.840         	2.928          	0.01
MS.841         	2.922          	-0.021
MS.842         	2.915          	-0.023
MS.843         	2.91           	-0.019
MS.844         	2.905          	-0.022
MS.845         	2.898          	-0.026
MS.846         	2.892          	-0.019
MS.847         	2.888          	-0.023
MS.848         	2.88           	-0.02
MS.849         	2.875          	-0.024
MS.850         	2.87           	-0.023
MS.851         	2.862          	-0.018
MS.852         	2.857          	-0.021
MS.853         	2.852          	-0.02
MS.854         	2.847          	-0.018
MS.855         	2.84           	-0.01
MS.856         	2.835          	-0.016
MS.857         	2.83           	-0.018
MS.858         	2.822          	-0.017
MS.859         	2.817          	-0.018
MS.860         	2.812          	-0.02
MS.861         	2.807          	-0.013
MS.862         	2.8            	-0.02
MS.863         	2.795          	-0.01
MS.864         	2.79           	-0.02
MS.865         	2.785          	-0.02
MS.866         	2.78           	-0.014
MS.867         	2.773          	-0.016
MS.868         	2.767          	-0.018
MS.869         	2.763          	-0.014
MS.870         	2.757          	-0.02
MS.871         	2.75           	-0.016
MS.872         	2.745          	-0.018
MS.873         	2.74           	-0.02
DERIVED EXCITABILITY VARIABLES
Program = QTracP 05/05/2023
Threshold method = 6 (optimised for CAP, using data for present condition only)
SR method = 1 (using actual data values)
6.                 	0.000               	Peak response\(mV)
9.                 	31.8                	Temperature ( C)
17.                	21                  	Age (years)
18.                	1                   	Sex (M=1, F=2)

EXTRA VARIABLES

MScPeak(mV) = 9.31
MScS5(mA) = 4.74
MScS50(mA) = 6.74
MScS95(mA) = 9.57
MScNSteps = 0
MScSteps(%) = 0.0
MScStepMax(%) = 0.0
MScD50 = 71
MScSlope = 3.99
MScDuration(min) = 11.6
MSFTraces = 700
MSFPeakAmp(mV) = 9.61
MSFNUnits = 103
MSFMeanUnitAmp(uV) = 93.3
MSFHuntTime(m) = 1.68
MSFError(%) = 4.45
MSFNLarge = 34.41
MSFMedianAmp(%) = 0.813
MSFMedianAmp(mV) = 0.0782
MSFHalfAmpAmp(%) = 0.933
MSFHalfAmpAmp(mV) = 0.0897
MSFLargestAmp(%) = 3.72
MSFLargestAmp(mV) = 0.357
MSFMeanRS(%) = 2
MSFSizeLimit(uV) = 32
MSFLimitType = 1
MSFSmallestAmp(uV) = 32.9
MSFOpts = 10104222032
MSFSDMax = 55.3
MSFSDMin = 3.47

EXTRA WAVEFORMS


!MScan Model
!103
	1	3.12	0.6	1.99
	2	4.22	0.64	1.99
	3	4.32	0.57	1.99
	4	4.37	0.45	1.99
	5	4.44	0.48	1.99
	6	4.51	0.72	1.99
	7	4.63	0.92	1.99
	8	4.78	1.05	1.99
	9	4.89	0.91	1.99
	10	4.96	0.8	1.99
	11	5.03	0.77	1.99
	12	5.08	0.8	1.99
	13	5.12	0.53	1.99
	14	5.16	0.82	1.99
	15	5.19	0.61	1.99
	16	5.22	0.56	1.99
	17	5.24	0.54	1.99
	18	5.27	0.49	1.99
	19	5.3	0.5	1.99
	20	5.33	0.55	1.99
	21	5.36	0.6	1.99
	22	5.39	0.63	1.99
	23	5.43	0.68	1.99
	24	5.47	0.74	1.99
	25	5.54	0.34	1.99
	26	5.58	0.59	1.99
	27	5.62	0.75	1.99
	28	5.66	0.67	1.99
	29	5.69	0.74	1.99
	30	5.73	0.81	1.99
	31	5.73	0.89	1.99
	32	5.77	0.86	1.99
	33	5.81	0.92	1.99
	34	5.84	0.85	1.99
	35	5.87	0.78	1.99
	36	5.9	0.77	1.99
	37	5.93	0.75	1.99
	38	5.96	0.74	1.99
	39	5.98	0.62	1.99
	40	6	0.61	1.99
	41	6.02	0.63	1.99
	42	6.05	0.68	1.99
	43	6.07	0.69	1.99
	44	6.09	0.68	1.99
	45	6.11	0.74	1.99
	46	6.13	0.75	1.99
	47	6.16	0.77	1.99
	48	6.18	0.79	1.99
	49	6.2	0.78	1.99
	50	6.23	0.77	1.99
	51	6.25	0.78	1.99
	52	6.28	0.78	1.99
	53	6.3	0.76	1.99
	54	6.32	0.74	1.99
	55	6.35	0.78	1.99
	56	6.37	0.81	1.99
	57	6.4	0.81	1.99
	58	6.43	0.85	1.99
	59	6.46	0.87	1.99
	60	6.49	1.11	1.99
	61	6.53	1.08	1.99
	62	6.57	0.85	1.99
	63	6.6	0.78	1.99
	64	6.63	0.76	1.99
	65	6.66	0.82	1.99
	66	6.7	0.93	1.99
	67	6.73	0.94	1.99
	68	6.77	0.97	1.99
	69	6.81	1.04	1.99
	70	6.85	1.03	1.99
	71	6.88	0.92	1.99
	72	6.91	0.87	1.99
	73	6.94	0.88	1.99
	74	6.98	1.17	1.99
	75	7.03	1.26	1.99
	76	7.07	1.29	1.99
	77	7.11	1.29	1.99
	78	7.16	1.33	1.99
	79	7.22	1.45	1.99
	80	7.29	1.91	1.99
	81	7.37	2.12	1.99
	82	7.45	1.82	1.99
	83	7.49	0.98	1.99
	84	7.54	1.01	1.99
	85	7.58	1.22	1.99
	86	7.63	1.56	1.99
	87	7.7	1.72	1.99
	88	7.79	1.78	1.99
	89	7.97	3.07	1.99
	90	8.27	3.72	2.39
	91	8.67	1.69	1.99
	92	8.81	1.27	1.99
	93	8.94	1.29	1.99
	94	9.08	1.26	1.99
	95	9.29	1.69	1.99
	96	9.49	1.83	1.99
	97	9.62	1.15	1.99
	98	9.75	1.2	1.99
	99	9.84	0.8	1.99
	100	9.94	0.76	1.99
	101	10.05	0.92	1.99
	102	10.21	1.11	1.99
	103	10.47	1.22	1.99

