File:              	C:\Qtrac\Data\ME2C30705B.QZD
Name:              	 MI19Y
Protocol:          	MSCAN-MV
Date:              	5/7/23
Date of birth:     	19/10/99
Age:               	23
Sex:               	F
Temperature:       	30.2
S/R sites:         	Knee CF-TA
NC/disease:        	NC
Operator:          	BY
Comments:
M-SCAN DATA (Repeat 2/3, 23.3-14.8m)
Scanpts: 8, 13, 589, 611
Stim. (mA)     	Amp. (mV)
MS.1           	9.5            	5.809
MS.2           	9.5            	5.801
MS.3           	9.5            	5.849
MS.4           	9.5            	5.834
MS.5           	9.5            	5.778
MS.6           	9.5            	5.774
MS.7           	9.5            	5.781
MS.8           	9.5            	5.787
MS.9           	9.5            	5.786
MS.10          	9.5            	5.774
MS.11          	9.5            	5.756
MS.12          	9.5            	5.773
MS.13          	9.5            	5.821
MS.14          	9.5            	5.782
MS.15          	9.5            	5.777
MS.16          	9.5            	5.697
MS.17          	9.5            	5.782
MS.18          	9.5            	5.793
MS.19          	9.5            	5.776
MS.20          	9.5            	5.813
MS.21          	9.5            	5.812
MS.22          	9.5            	5.822
MS.23          	9.5            	5.737
MS.24          	9.48           	5.72
MS.25          	9.462          	5.724
MS.26          	9.443          	5.778
MS.27          	9.425          	5.775
MS.28          	9.405          	5.663
MS.29          	9.387          	5.678
MS.30          	9.367          	5.731
MS.31          	9.35           	5.759
MS.32          	9.33           	5.619
MS.33          	9.312          	5.685
MS.34          	9.292          	5.703
MS.35          	9.275          	5.712
MS.36          	9.255          	5.731
MS.37          	9.238          	5.685
MS.38          	9.22           	5.668
MS.39          	9.2            	5.638
MS.40          	9.182          	5.671
MS.41          	9.165          	5.688
MS.42          	9.145          	5.651
MS.43          	9.127          	5.773
MS.44          	9.11           	5.681
MS.45          	9.09           	5.732
MS.46          	9.073          	5.607
MS.47          	9.055          	5.673
MS.48          	9.037          	5.69
MS.49          	9.017          	5.688
MS.50          	9              	5.687
MS.51          	8.983          	5.619
MS.52          	8.965          	5.718
MS.53          	8.948          	5.668
MS.54          	8.93           	5.729
MS.55          	8.91           	5.628
MS.56          	8.892          	5.734
MS.57          	8.875          	5.663
MS.58          	8.858          	5.693
MS.59          	8.84           	5.702
MS.60          	8.823          	5.672
MS.61          	8.805          	5.657
MS.62          	8.787          	5.746
MS.63          	8.77           	5.69
MS.64          	8.752          	5.693
MS.65          	8.735          	5.671
MS.66          	8.717          	5.636
MS.67          	8.7            	5.671
MS.68          	8.682          	5.699
MS.69          	8.665          	5.737
MS.70          	8.648          	5.699
MS.71          	8.63           	5.699
MS.72          	8.613          	5.638
MS.73          	8.595          	5.615
MS.74          	8.58           	5.618
MS.75          	8.562          	5.692
MS.76          	8.545          	5.668
MS.77          	8.528          	5.664
MS.78          	8.51           	5.615
MS.79          	8.492          	5.651
MS.80          	8.477          	5.593
MS.81          	8.46           	5.66
MS.82          	8.443          	5.619
MS.83          	8.425          	5.654
MS.84          	8.41           	5.642
MS.85          	8.392          	5.66
MS.86          	8.375          	5.617
MS.87          	8.358          	5.652
MS.88          	8.342          	5.618
MS.89          	8.325          	5.613
MS.90          	8.307          	5.64
MS.91          	8.292          	5.546
MS.92          	8.275          	5.499
MS.93          	8.26           	5.55
MS.94          	8.242          	5.579
MS.95          	8.225          	5.56
MS.96          	8.21           	5.497
MS.97          	8.193          	5.577
MS.98          	8.177          	5.526
MS.99          	8.16           	5.522
MS.100         	8.145          	5.574
MS.101         	8.127          	5.579
MS.102         	8.113          	5.514
MS.103         	8.095          	5.616
MS.104         	8.08           	5.57
MS.105         	8.062          	5.532
MS.106         	8.047          	5.504
MS.107         	8.03           	5.548
MS.108         	8.015          	5.48
MS.109         	8              	5.472
MS.110         	7.982          	5.483
MS.111         	7.967          	5.527
MS.112         	7.95           	5.505
MS.113         	7.935          	5.555
MS.114         	7.92           	5.525
MS.115         	7.902          	5.522
MS.116         	7.887          	5.503
MS.117         	7.872          	5.54
MS.118         	7.855          	5.609
MS.119         	7.84           	5.587
MS.120         	7.825          	5.526
MS.121         	7.81           	5.557
MS.122         	7.793          	5.51
MS.123         	7.777          	5.548
MS.124         	7.762          	5.551
MS.125         	7.747          	5.539
MS.126         	7.732          	5.598
MS.127         	7.715          	5.582
MS.128         	7.7            	5.532
MS.129         	7.685          	5.518
MS.130         	7.67           	5.48
MS.131         	7.655          	5.497
MS.132         	7.64           	5.515
MS.133         	7.625          	5.441
MS.134         	7.607          	5.472
MS.135         	7.592          	5.502
MS.136         	7.577          	5.465
MS.137         	7.562          	5.542
MS.138         	7.547          	5.433
MS.139         	7.532          	5.336
MS.140         	7.517          	5.431
MS.141         	7.503          	5.455
MS.142         	7.487          	5.359
MS.143         	7.472          	5.4
MS.144         	7.457          	5.381
MS.145         	7.442          	5.362
MS.146         	7.427          	5.333
MS.147         	7.412          	5.316
MS.148         	7.398          	5.345
MS.149         	7.385          	5.297
MS.150         	7.37           	5.354
MS.151         	7.355          	5.341
MS.152         	7.34           	5.316
MS.153         	7.325          	5.35
MS.154         	7.31           	5.282
MS.155         	7.295          	5.269
MS.156         	7.28           	5.297
MS.157         	7.267          	5.328
MS.158         	7.253          	5.306
MS.159         	7.237          	5.211
MS.160         	7.222          	5.215
MS.161         	7.207          	5.225
MS.162         	7.195          	5.25
MS.163         	7.18           	5.275
MS.164         	7.165          	5.227
MS.165         	7.152          	5.253
MS.166         	7.137          	5.162
MS.167         	7.122          	5.119
MS.168         	7.108          	5.217
MS.169         	7.095          	5.181
MS.170         	7.08           	5.153
MS.171         	7.065          	5.204
MS.172         	7.052          	5.116
MS.173         	7.037          	5.084
MS.174         	7.023          	5.081
MS.175         	7.01           	5.009
MS.176         	6.995          	4.973
MS.177         	6.983          	5.024
MS.178         	6.967          	4.977
MS.179         	6.955          	5.074
MS.180         	6.94           	4.957
MS.181         	6.925          	5.016
MS.182         	6.912          	4.947
MS.183         	6.898          	4.901
MS.184         	6.885          	4.915
MS.185         	6.87           	4.93
MS.186         	6.858          	4.915
MS.187         	6.842          	4.867
MS.188         	6.83           	4.995
MS.189         	6.815          	4.858
MS.190         	6.802          	4.876
MS.191         	6.79           	4.86
MS.192         	6.775          	4.799
MS.193         	6.762          	4.714
MS.194         	6.747          	4.818
MS.195         	6.735          	4.818
MS.196         	6.722          	4.803
MS.197         	6.707          	4.717
MS.198         	6.695          	4.861
MS.199         	6.68           	4.738
MS.200         	6.668          	4.703
MS.201         	6.655          	4.81
MS.202         	6.64           	4.631
MS.203         	6.628          	4.711
MS.204         	6.615          	4.651
MS.205         	6.602          	4.662
MS.206         	6.587          	4.691
MS.207         	6.575          	4.72
MS.208         	6.562          	4.645
MS.209         	6.55           	4.68
MS.210         	6.535          	4.589
MS.211         	6.523          	4.747
MS.212         	6.51           	4.657
MS.213         	6.497          	4.622
MS.214         	6.483          	4.65
MS.215         	6.47           	4.657
MS.216         	6.457          	4.529
MS.217         	6.445          	4.54
MS.218         	6.432          	4.509
MS.219         	6.42           	4.495
MS.220         	6.407          	4.571
MS.221         	6.392          	4.516
MS.222         	6.38           	4.52
MS.223         	6.367          	4.445
MS.224         	6.355          	4.481
MS.225         	6.342          	4.51
MS.226         	6.33           	4.581
MS.227         	6.317          	4.526
MS.228         	6.305          	4.437
MS.229         	6.293          	4.442
MS.230         	6.28           	4.459
MS.231         	6.267          	4.451
MS.232         	6.255          	4.389
MS.233         	6.242          	4.472
MS.234         	6.23           	4.399
MS.235         	6.217          	4.448
MS.236         	6.205          	4.387
MS.237         	6.192          	4.355
MS.238         	6.18           	4.386
MS.239         	6.168          	4.379
MS.240         	6.155          	4.408
MS.241         	6.142          	4.316
MS.242         	6.13           	4.272
MS.243         	6.117          	4.359
MS.244         	6.105          	4.325
MS.245         	6.095          	4.229
MS.246         	6.082          	4.351
MS.247         	6.07           	4.201
MS.248         	6.057          	4.208
MS.249         	6.045          	4.153
MS.250         	6.032          	4.153
MS.251         	6.02           	4.24
MS.252         	6.01           	4.1
MS.253         	5.997          	4.136
MS.254         	5.985          	4.191
MS.255         	5.972          	4.037
MS.256         	5.963          	4.096
MS.257         	5.95           	4.012
MS.258         	5.938          	3.979
MS.259         	5.925          	4.008
MS.260         	5.915          	4.012
MS.261         	5.902          	4.006
MS.262         	5.89           	4.021
MS.263         	5.878          	3.939
MS.264         	5.867          	3.975
MS.265         	5.855          	3.954
MS.266         	5.842          	3.92
MS.267         	5.832          	3.865
MS.268         	5.82           	3.939
MS.269         	5.807          	3.804
MS.270         	5.797          	3.8
MS.271         	5.785          	3.8
MS.272         	5.773          	3.812
MS.273         	5.762          	3.749
MS.274         	5.75           	3.843
MS.275         	5.74           	3.754
MS.276         	5.727          	3.755
MS.277         	5.715          	3.679
MS.278         	5.705          	3.703
MS.279         	5.692          	3.712
MS.280         	5.682          	3.697
MS.281         	5.67           	3.614
MS.282         	5.66           	3.609
MS.283         	5.648          	3.621
MS.284         	5.637          	3.668
MS.285         	5.625          	3.66
MS.286         	5.615          	3.59
MS.287         	5.602          	3.544
MS.288         	5.592          	3.586
MS.289         	5.58           	3.617
MS.290         	5.57           	3.605
MS.291         	5.557          	3.567
MS.292         	5.547          	3.546
MS.293         	5.535          	3.603
MS.294         	5.525          	3.442
MS.295         	5.515          	3.518
MS.296         	5.503          	3.423
MS.297         	5.492          	3.474
MS.298         	5.48           	3.373
MS.299         	5.47           	3.476
MS.300         	5.46           	3.408
MS.301         	5.447          	3.45
MS.302         	5.438          	3.436
MS.303         	5.427          	3.375
MS.304         	5.415          	3.318
MS.305         	5.405          	3.38
MS.306         	5.395          	3.296
MS.307         	5.382          	3.272
MS.308         	5.372          	3.278
MS.309         	5.362          	3.25
MS.310         	5.35           	3.328
MS.311         	5.34           	3.293
MS.312         	5.33           	3.251
MS.313         	5.32           	3.233
MS.314         	5.307          	3.254
MS.315         	5.297          	3.147
MS.316         	5.287          	3.218
MS.317         	5.277          	3.184
MS.318         	5.265          	3.087
MS.319         	5.255          	3.09
MS.320         	5.245          	3.101
MS.321         	5.235          	3.096
MS.322         	5.225          	3.039
MS.323         	5.213          	3.007
MS.324         	5.202          	2.978
MS.325         	5.193          	2.834
MS.326         	5.182          	2.969
MS.327         	5.172          	2.953
MS.328         	5.162          	3
MS.329         	5.152          	2.881
MS.330         	5.14           	2.811
MS.331         	5.13           	3.008
MS.332         	5.12           	2.875
MS.333         	5.11           	2.858
MS.334         	5.1            	2.896
MS.335         	5.09           	2.857
MS.336         	5.08           	2.735
MS.337         	5.07           	2.745
MS.338         	5.06           	2.748
MS.339         	5.05           	2.7
MS.340         	5.04           	2.686
MS.341         	5.03           	2.719
MS.342         	5.02           	2.671
MS.343         	5.01           	2.614
MS.344         	5              	2.67
MS.345         	4.99           	2.661
MS.346         	4.98           	2.579
MS.347         	4.97           	2.646
MS.348         	4.96           	2.531
MS.349         	4.95           	2.476
MS.350         	4.94           	2.63
MS.351         	4.93           	2.41
MS.352         	4.92           	2.458
MS.353         	4.91           	2.482
MS.354         	4.9            	2.43
MS.355         	4.89           	2.361
MS.356         	4.88           	2.387
MS.357         	4.87           	2.38
MS.358         	4.86           	2.347
MS.359         	4.852          	2.331
MS.360         	4.842          	2.322
MS.361         	4.832          	2.37
MS.362         	4.822          	2.261
MS.363         	4.812          	2.227
MS.364         	4.802          	2.282
MS.365         	4.793          	2.284
MS.366         	4.785          	2.175
MS.367         	4.775          	2.192
MS.368         	4.765          	2.18
MS.369         	4.755          	2.143
MS.370         	4.745          	2.044
MS.371         	4.737          	2.059
MS.372         	4.727          	2.098
MS.373         	4.717          	1.958
MS.374         	4.707          	2.131
MS.375         	4.697          	2.079
MS.376         	4.69           	1.978
MS.377         	4.68           	1.906
MS.378         	4.67           	1.998
MS.379         	4.662          	1.823
MS.380         	4.652          	1.786
MS.381         	4.642          	1.835
MS.382         	4.632          	1.905
MS.383         	4.625          	1.866
MS.384         	4.615          	1.75
MS.385         	4.605          	1.746
MS.386         	4.597          	1.903
MS.387         	4.588          	1.875
MS.388         	4.577          	1.806
MS.389         	4.57           	1.731
MS.390         	4.56           	1.696
MS.391         	4.55           	1.671
MS.392         	4.543          	1.743
MS.393         	4.532          	1.641
MS.394         	4.523          	1.65
MS.395         	4.515          	1.68
MS.396         	4.505          	1.632
MS.397         	4.497          	1.641
MS.398         	4.487          	1.538
MS.399         	4.477          	1.53
MS.400         	4.47           	1.52
MS.401         	4.46           	1.548
MS.402         	4.452          	1.495
MS.403         	4.443          	1.507
MS.404         	4.435          	1.402
MS.405         	4.425          	1.379
MS.406         	4.418          	1.4
MS.407         	4.407          	1.406
MS.408         	4.398          	1.325
MS.409         	4.39           	1.28
MS.410         	4.38           	1.313
MS.411         	4.372          	1.185
MS.412         	4.362          	1.268
MS.413         	4.355          	1.206
MS.414         	4.345          	1.267
MS.415         	4.338          	1.262
MS.416         	4.33           	1.204
MS.417         	4.32           	1.348
MS.418         	4.312          	1.288
MS.419         	4.302          	1.108
MS.420         	4.295          	1.213
MS.421         	4.285          	1.221
MS.422         	4.277          	1.268
MS.423         	4.267          	1.273
MS.424         	4.26           	1.19
MS.425         	4.253          	1.16
MS.426         	4.242          	1.213
MS.427         	4.235          	1.119
MS.428         	4.225          	1.115
MS.429         	4.217          	1.044
MS.430         	4.21           	0.999
MS.431         	4.2            	0.985
MS.432         	4.193          	1.04
MS.433         	4.185          	1.022
MS.434         	4.175          	0.851
MS.435         	4.168          	0.851
MS.436         	4.16           	0.876
MS.437         	4.15           	0.85
MS.438         	4.142          	0.762
MS.439         	4.135          	0.851
MS.440         	4.125          	0.755
MS.441         	4.117          	0.715
MS.442         	4.11           	0.718
MS.443         	4.102          	0.773
MS.444         	4.092          	0.735
MS.445         	4.085          	0.754
MS.446         	4.077          	0.673
MS.447         	4.068          	0.649
MS.448         	4.06           	0.697
MS.449         	4.052          	0.63
MS.450         	4.045          	0.664
MS.451         	4.035          	0.582
MS.452         	4.027          	0.584
MS.453         	4.02           	0.609
MS.454         	4.012          	0.548
MS.455         	4.005          	0.553
MS.456         	3.995          	0.496
MS.457         	3.987          	0.535
MS.458         	3.98           	0.484
MS.459         	3.972          	0.502
MS.460         	3.965          	0.441
MS.461         	3.955          	0.465
MS.462         	3.947          	0.446
MS.463         	3.94           	0.43
MS.464         	3.932          	0.496
MS.465         	3.925          	0.441
MS.466         	3.918          	0.413
MS.467         	3.91           	0.403
MS.468         	3.9            	0.351
MS.469         	3.892          	0.428
MS.470         	3.885          	0.291
MS.471         	3.877          	0.305
MS.472         	3.87           	0.342
MS.473         	3.862          	0.28
MS.474         	3.855          	0.329
MS.475         	3.847          	0.223
MS.476         	3.84           	0.242
MS.477         	3.832          	0.205
MS.478         	3.825          	0.335
MS.479         	3.817          	0.257
MS.480         	3.807          	0.215
MS.481         	3.8            	0.21
MS.482         	3.793          	0.197
MS.483         	3.785          	0.164
MS.484         	3.777          	0.2
MS.485         	3.77           	0.194
MS.486         	3.762          	0.123
MS.487         	3.755          	0.14
MS.488         	3.747          	0.095
MS.489         	3.74           	0.103
MS.490         	3.732          	0.109
MS.491         	3.725          	0.112
MS.492         	3.717          	0.113
MS.493         	3.71           	0.056
MS.494         	3.702          	0.063
MS.495         	3.695          	0.047
MS.496         	3.69           	-0.016
MS.497         	3.682          	0.057
MS.498         	3.675          	-0.039
MS.499         	3.668          	-0.017
MS.500         	3.66           	-0.101
MS.501         	3.652          	-0.066
MS.502         	3.645          	-0.063
MS.503         	3.637          	-0.079
MS.504         	3.63           	-0.081
MS.505         	3.622          	-0.118
MS.506         	3.615          	-0.038
MS.507         	3.607          	-0.157
MS.508         	3.602          	-0.2
MS.509         	3.595          	-0.133
MS.510         	3.587          	-0.145
MS.511         	3.58           	-0.227
MS.512         	3.572          	-0.194
MS.513         	3.565          	-0.201
MS.514         	3.557          	-0.145
MS.515         	3.55           	-0.177
MS.516         	3.545          	-0.178
MS.517         	3.537          	-0.211
MS.518         	3.53           	-0.233
MS.519         	3.523          	-0.215
MS.520         	3.515          	-0.234
MS.521         	3.51           	-0.237
MS.522         	3.502          	-0.245
MS.523         	3.495          	-0.253
MS.524         	3.487          	-0.305
MS.525         	3.48           	-0.217
MS.526         	3.475          	-0.226
MS.527         	3.467          	-0.26
MS.528         	3.46           	-0.306
MS.529         	3.452          	-0.244
MS.530         	3.447          	-0.328
MS.531         	3.44           	-0.261
MS.532         	3.432          	-0.295
MS.533         	3.425          	-0.318
MS.534         	3.42           	-0.356
MS.535         	3.412          	-0.322
MS.536         	3.405          	-0.306
MS.537         	3.398          	-0.352
MS.538         	3.392          	-0.315
MS.539         	3.385          	-0.297
MS.540         	3.377          	-0.336
MS.541         	3.372          	-0.322
MS.542         	3.365          	-0.324
MS.543         	3.357          	-0.353
MS.544         	3.35           	-0.359
MS.545         	3.345          	-0.343
MS.546         	3.337          	-0.301
MS.547         	3.33           	-0.356
MS.548         	3.325          	-0.328
MS.549         	3.317          	-0.328
MS.550         	3.31           	-0.363
MS.551         	3.305          	-0.385
MS.552         	3.297          	-0.366
MS.553         	3.293          	-0.331
MS.554         	3.285          	-0.412
MS.555         	3.277          	-0.377
MS.556         	3.273          	-0.38
MS.557         	3.265          	-0.368
MS.558         	3.257          	-0.402
MS.559         	3.252          	-0.359
MS.560         	3.245          	-0.405
MS.561         	3.24           	-0.349
MS.562         	3.232          	-0.353
MS.563         	3.225          	-0.346
MS.564         	3.22           	-0.397
MS.565         	3.212          	-0.392
MS.566         	3.207          	-0.366
MS.567         	3.2            	-0.4
MS.568         	3.195          	-0.372
MS.569         	3.188          	-0.393
MS.570         	3.182          	-0.383
MS.571         	3.175          	-0.407
MS.572         	3.168          	-0.374
MS.573         	3.162          	-0.382
MS.574         	3.155          	-0.432
MS.575         	3.15           	-0.455
MS.576         	3.142          	-0.374
MS.577         	3.138          	-0.377
MS.578         	3.13           	-0.408
MS.579         	3.125          	-0.431
MS.580         	3.117          	-0.38
MS.581         	3.112          	-0.384
MS.582         	3.105          	-0.392
MS.583         	3.1            	-0.423
MS.584         	3.092          	-0.425
MS.585         	3.087          	-0.409
MS.586         	3.08           	-0.435
MS.587         	3.075          	-0.45
MS.588         	3.07           	-0.421
MS.589         	3.062          	-0.428
MS.590         	3.057          	-0.441
MS.591         	3.05           	-0.431
MS.592         	3.045          	-0.425
MS.593         	3.037          	-0.385
MS.594         	3.033          	-0.433
MS.595         	3.025          	-0.396
MS.596         	3.02           	-0.381
MS.597         	3.015          	-0.417
MS.598         	3.007          	-0.427
MS.599         	3.002          	-0.449
MS.600         	2.995          	-0.426
MS.601         	2.99           	-0.42
MS.602         	2.985          	-0.406
MS.603         	2.977          	-0.433
MS.604         	2.972          	-0.413
MS.605         	2.965          	-0.386
MS.606         	2.96           	-0.414
MS.607         	2.955          	-0.419
MS.608         	2.947          	-0.419
MS.609         	2.942          	-0.45
MS.610         	2.938          	-0.423
MS.611         	2.93           	-0.419
MS.612         	2.925          	-0.421
MS.613         	2.92           	-0.419
MS.614         	2.912          	-0.446
MS.615         	2.908          	-0.405
MS.616         	2.902          	-0.415
MS.617         	2.895          	-0.413
MS.618         	2.89           	-0.438
MS.619         	2.885          	-0.404
MS.620         	2.877          	-0.443
MS.621         	2.872          	-0.406
MS.622         	2.867          	-0.405
MS.623         	2.862          	-0.422
MS.624         	2.855          	-0.402
MS.625         	2.85           	-0.384
MS.626         	2.845          	-0.388
MS.627         	2.837          	-0.435
MS.628         	2.832          	-0.409
MS.629         	2.827          	-0.419
MS.630         	2.822          	-0.428
MS.631         	2.815          	-0.406
MS.632         	2.81           	-0.431
MS.633         	2.805          	-0.426
MS.634         	2.8            	-0.42
MS.635         	2.793          	-0.397
MS.636         	2.787          	-0.412
MS.637         	2.783          	-0.396
MS.638         	2.777          	-0.4
MS.639         	2.77           	-0.419
MS.640         	2.765          	-0.391
MS.641         	2.76           	-0.415
MS.642         	2.755          	-0.402
MS.643         	2.75           	-0.374
MS.644         	2.742          	-0.401
MS.645         	2.737          	-0.379
MS.646         	2.732          	-0.399
MS.647         	2.727          	-0.415
MS.648         	2.722          	-0.372
MS.649         	2.717          	-0.4
MS.650         	2.71           	-0.374
MS.651         	2.705          	-0.391
MS.652         	2.7            	-0.374
MS.653         	2.695          	-0.383
MS.654         	2.69           	-0.384
MS.655         	2.685          	-0.355
MS.656         	2.678          	-0.387
MS.657         	2.672          	-0.371
MS.658         	2.668          	-0.383
MS.659         	2.662          	-0.381
MS.660         	2.658          	-0.377
MS.661         	2.652          	-0.373
MS.662         	2.648          	-0.374
MS.663         	2.642          	-0.389
MS.664         	2.635          	-0.385
MS.665         	2.63           	-0.4
MS.666         	2.625          	-0.386
MS.667         	2.62           	-0.397
MS.668         	2.615          	-0.391
MS.669         	2.61           	-0.377
MS.670         	2.605          	-0.394
MS.671         	2.6            	-0.372
MS.672         	2.595          	-0.383
MS.673         	2.59           	-0.373
MS.674         	2.585          	-0.366
MS.675         	2.577          	-0.363
MS.676         	2.572          	-0.378
MS.677         	2.567          	-0.383
MS.678         	2.562          	-0.334
DERIVED EXCITABILITY VARIABLES
Program = QTracP 27/06/2023
Threshold method = 6 (optimised for CAP, using data for present condition only)
SR method = 1 (using actual data values)
6.                 	0.000               	Peak response\(mV)
9.                 	30.2                	Temperature ( C)
17.                	23                  	Age (years)
18.                	2                   	Sex (M=1, F=2)

EXTRA VARIABLES

MScPeak(mV) = 6.17
MScS5(mA) = 3.86
MScS50(mA) = 5.23
MScNSteps = 0
MScSteps(%) = 0.0
MScStepMax(%) = 0.0
MScD50 = 85
MScSlope = 2.57
MScDuration(min) = 9
MSFTraces = 604
MSFPeakAmp(mV) = 6.2
MSFNUnits = 186
MSFMeanUnitAmp(uV) = 33.3
MSFHuntTime(m) = 2.14
MSFError(%) = 1.65
MSFNLarge = 70.66
MSFMedianAmp(%) = 0.5
MSFMedianAmp(mV) = 0.031
MSFHalfAmpAmp(%) = 0.537
MSFHalfAmpAmp(mV) = 0.0333
MSFLargestAmp(%) = 1.73
MSFLargestAmp(mV) = 0.107
MSFMeanRS(%) = 2.01
MSFSizeLimit(uV) = 20.7
MSFLimitType = 1
MSFSmallestAmp(uV) = 21
MSFOpts = 10104222032
MSFSDMax = 21.9
MSFSDMin = 18.6

EXTRA WAVEFORMS


!MScan Model
!186
	1	3.2	0.68	2
	2	3.34	0.54	2
	3	3.4	0.53	2
	4	3.43	0.36	2
	5	3.47	0.4	2
	6	3.5	0.46	2
	7	3.54	0.55	2
	8	3.56	0.4	2
	9	3.58	0.38	2
	10	3.61	0.81	2
	11	3.64	0.68	2
	12	3.66	0.53	2
	13	3.68	0.46	2
	14	3.7	0.54	2
	15	3.72	0.65	2
	16	3.74	0.61	2
	17	3.77	0.77	2
	18	3.8	0.95	2
	19	3.83	0.77	2
	20	3.86	0.61	2
	21	3.88	0.61	2
	22	3.9	0.59	2
	23	3.92	0.57	2
	24	3.94	0.42	2
	25	3.95	0.44	2
	26	3.97	0.61	2
	27	4	0.69	2
	28	4.01	0.34	2
	29	4.02	0.35	2
	30	4.03	0.36	2
	31	4.04	0.36	2
	32	4.06	0.49	2
	33	4.08	0.54	2
	34	4.09	0.61	2
	35	4.1	0.36	2
	36	4.11	0.38	2
	37	4.12	0.41	2
	38	4.13	0.5	2
	39	4.14	0.53	2
	40	4.16	0.56	2
	41	4.17	0.5	2
	42	4.19	0.58	2
	43	4.2	0.58	2
	44	4.23	0.72	2
	45	4.26	1.35	2.4
	46	4.3	1.52	2.4
	47	4.35	1.08	2
	48	4.38	0.92	2
	49	4.39	0.45	2
	50	4.41	0.36	2
	51	4.42	0.42	2
	52	4.43	0.42	2
	53	4.45	0.42	2
	54	4.46	0.44	2
	55	4.47	0.49	2
	56	4.49	0.58	2
	57	4.51	0.54	2
	58	4.52	0.51	2
	59	4.54	0.61	2
	60	4.55	0.62	2
	61	4.57	0.67	2
	62	4.59	0.62	2
	63	4.61	0.61	2
	64	4.63	0.62	2
	65	4.65	0.64	2
	66	4.66	0.58	2
	67	4.68	0.52	2
	68	4.69	0.54	2
	69	4.71	0.47	2
	70	4.72	0.38	2
	71	4.73	0.38	2
	72	4.74	0.39	2
	73	4.76	0.49	2
	74	4.77	0.52	2
	75	4.79	0.5	2
	76	4.8	0.52	2
	77	4.81	0.45	2
	78	4.83	0.44	2
	79	4.84	0.43	2
	80	4.85	0.37	2
	81	4.87	0.76	2
	82	4.89	0.9	2
	83	4.91	0.51	2
	84	4.92	0.35	2
	85	4.94	0.35	2
	86	4.95	0.36	2
	87	4.96	0.36	2
	88	4.97	0.36	2
	89	4.98	0.36	2
	90	4.99	0.37	2
	91	5.01	0.45	2
	92	5.03	0.54	2
	93	5.04	0.52	2
	94	5.06	0.59	2
	95	5.08	0.58	2
	96	5.1	0.56	2
	97	5.11	0.47	2
	98	5.13	0.47	2
	99	5.15	0.48	2
	100	5.16	0.47	2
	101	5.18	0.47	2
	102	5.19	0.47	2
	103	5.21	0.53	2
	104	5.23	0.55	2
	105	5.25	0.65	2
	106	5.27	0.5	2
	107	5.29	0.35	2
	108	5.3	0.36	2
	109	5.32	0.41	2
	110	5.33	0.41	2
	111	5.35	0.37	2
	112	5.36	0.43	2
	113	5.38	0.47	2
	114	5.4	0.44	2
	115	5.41	0.44	2
	116	5.43	0.39	2
	117	5.45	0.38	2
	118	5.47	0.38	2
	119	5.49	0.4	2
	120	5.51	0.38	2
	121	5.53	0.39	2
	122	5.55	0.45	2
	123	5.57	0.43	2
	124	5.59	0.42	2
	125	5.61	0.4	2
	126	5.63	0.41	2
	127	5.65	0.42	2
	128	5.67	0.42	2
	129	5.69	0.36	2
	130	5.71	0.49	2
	131	5.74	0.51	2
	132	5.76	0.53	2
	133	5.79	0.58	2
	134	5.82	0.58	2
	135	5.84	0.59	2
	136	5.87	0.6	2
	137	5.88	0.36	2
	138	5.9	0.37	2
	139	5.91	0.37	2
	140	5.93	0.4	2
	141	5.95	0.39	2
	142	5.96	0.4	2
	143	5.98	0.4	2
	144	6	0.4	2
	145	6.02	0.38	2
	146	6.03	0.37	2
	147	6.05	0.42	2
	148	6.07	0.42	2
	149	6.09	0.39	2
	150	6.12	0.5	2
	151	6.15	0.54	2
	152	6.18	0.64	2
	153	6.22	0.59	2
	154	6.27	0.72	2
	155	6.33	0.81	2
	156	6.39	0.75	2
	157	6.45	0.71	2
	158	6.51	0.67	2
	159	6.57	0.79	2
	160	6.64	0.93	2
	161	6.69	0.7	2
	162	6.73	0.49	2
	163	6.77	0.54	2
	164	6.81	0.52	2
	165	6.84	0.52	2
	166	6.88	0.55	2
	167	6.91	0.47	2
	168	6.93	0.46	2
	169	6.96	0.51	2
	170	7	0.49	2
	171	7.03	0.44	2
	172	7.05	0.4	2
	173	7.08	0.4	2
	174	7.12	0.58	2
	175	7.16	0.5	2
	176	7.21	0.7	2
	177	7.27	0.61	2
	178	7.33	0.6	2
	179	7.39	0.61	2
	180	7.44	0.49	2
	181	7.5	0.51	2
	182	7.56	0.52	2
	183	7.66	0.83	2
	184	8.25	1.38	2
	185	8.47	0.94	2
	186	9.48	1.73	2

