File:              	C:\Qtrac\Data\ME2C30712B.QZD
Name:              	 ME14L
Protocol:          	MSCAN-MV
Date:              	12/7/23
Date of birth:     	14/6/01
Age:               	22
Sex:               	M
Temperature:       	33.2
S/R sites:         	Knee CF-TA
NC/disease:        	NC
Operator:          	BY
Comments:
M-SCAN DATA (Repeat 3/3, 24.3-17.8m)
Scanpts: 17, 27, 507, 522
Stim. (mA)     	Amp. (mV)
MS.1           	17.5           	4.15
MS.2           	17.5           	4.15
MS.3           	17.5           	4.166
MS.4           	17.5           	4.126
MS.5           	17.5           	4.153
MS.6           	17.5           	4.156
MS.7           	17.5           	4.153
MS.8           	17.5           	4.11
MS.9           	17.5           	4.162
MS.10          	17.5           	4.164
MS.11          	17.5           	4.177
MS.12          	17.5           	4.158
MS.13          	17.5           	4.136
MS.14          	17.5           	4.109
MS.15          	17.5           	4.12
MS.16          	17.5           	4.158
MS.17          	17.5           	4.157
MS.18          	17.5           	4.133
MS.19          	17.5           	4.125
MS.20          	17.5           	4.097
MS.21          	17.5           	4.106
MS.22          	17.5           	4.137
MS.23          	17.5           	4.139
MS.24          	17.465         	4.117
MS.25          	17.43          	4.1
MS.26          	17.395         	4.145
MS.27          	17.36          	4.139
MS.28          	17.325         	4.142
MS.29          	17.292         	4.169
MS.30          	17.257         	4.122
MS.31          	17.222         	4.166
MS.32          	17.188         	4.141
MS.33          	17.153         	4.133
MS.34          	17.12          	4.108
MS.35          	17.085         	4.13
MS.36          	17.05          	4.166
MS.37          	17.017         	4.12
MS.38          	16.983         	4.129
MS.39          	16.95          	4.088
MS.40          	16.915         	4.141
MS.41          	16.88          	4.096
MS.42          	16.847         	4.133
MS.43          	16.815         	4.095
MS.44          	16.78          	4.106
MS.45          	16.747         	4.106
MS.46          	16.712         	4.12
MS.47          	16.68          	4.091
MS.48          	16.647         	4.106
MS.49          	16.612         	4.102
MS.50          	16.58          	4.048
MS.51          	16.547         	4.108
MS.52          	16.515         	4.089
MS.53          	16.48          	4.083
MS.54          	16.448         	4.098
MS.55          	16.415         	4.071
MS.56          	16.382         	4.088
MS.57          	16.35          	4.1
MS.58          	16.317         	4.07
MS.59          	16.285         	4.051
MS.60          	16.253         	4.05
MS.61          	16.22          	4.048
MS.62          	16.188         	4.07
MS.63          	16.155         	4.033
MS.64          	16.122         	4.008
MS.65          	16.09          	4.069
MS.66          	16.057         	4.052
MS.67          	16.025         	4.044
MS.68          	15.995         	4.066
MS.69          	15.962         	4.022
MS.70          	15.93          	4.048
MS.71          	15.898         	4.018
MS.72          	15.867         	4.028
MS.73          	15.835         	4.056
MS.74          	15.802         	4.005
MS.75          	15.773         	4.009
MS.76          	15.74          	4.043
MS.77          	15.707         	4.048
MS.78          	15.677         	3.989
MS.79          	15.645         	3.99
MS.80          	15.615         	3.996
MS.81          	15.582         	3.998
MS.82          	15.552         	4.022
MS.83          	15.52          	3.993
MS.84          	15.49          	4.001
MS.85          	15.46          	3.959
MS.86          	15.427         	3.978
MS.87          	15.398         	4.003
MS.88          	15.367         	3.957
MS.89          	15.335         	3.938
MS.90          	15.305         	3.975
MS.91          	15.275         	3.904
MS.92          	15.245         	3.95
MS.93          	15.215         	3.903
MS.94          	15.182         	3.854
MS.95          	15.152         	3.896
MS.96          	15.122         	3.885
MS.97          	15.092         	3.917
MS.98          	15.062         	3.894
MS.99          	15.032         	3.919
MS.100         	15.002         	3.865
MS.101         	14.972         	3.912
MS.102         	14.943         	3.888
MS.103         	14.912         	3.868
MS.104         	14.882         	3.86
MS.105         	14.852         	3.876
MS.106         	14.822         	3.864
MS.107         	14.792         	3.831
MS.108         	14.765         	3.829
MS.109         	14.735         	3.817
MS.110         	14.705         	3.82
MS.111         	14.675         	3.869
MS.112         	14.648         	3.831
MS.113         	14.617         	3.859
MS.114         	14.587         	3.838
MS.115         	14.56          	3.813
MS.116         	14.53          	3.79
MS.117         	14.5           	3.796
MS.118         	14.472         	3.837
MS.119         	14.443         	3.771
MS.120         	14.415         	3.778
MS.121         	14.385         	3.811
MS.122         	14.358         	3.76
MS.123         	14.327         	3.767
MS.124         	14.3           	3.766
MS.125         	14.27          	3.772
MS.126         	14.242         	3.759
MS.127         	14.212         	3.745
MS.128         	14.185         	3.765
MS.129         	14.157         	3.736
MS.130         	14.127         	3.788
MS.131         	14.1           	3.749
MS.132         	14.072         	3.721
MS.133         	14.045         	3.743
MS.134         	14.015         	3.719
MS.135         	13.987         	3.641
MS.136         	13.96          	3.724
MS.137         	13.932         	3.719
MS.138         	13.905         	3.684
MS.139         	13.877         	3.737
MS.140         	13.85          	3.691
MS.141         	13.82          	3.661
MS.142         	13.792         	3.544
MS.143         	13.765         	3.392
MS.144         	13.737         	3.419
MS.145         	13.71          	3.464
MS.146         	13.682         	3.45
MS.147         	13.657         	3.412
MS.148         	13.63          	3.53
MS.149         	13.602         	3.331
MS.150         	13.575         	3.35
MS.151         	13.547         	3.409
MS.152         	13.52          	3.277
MS.153         	13.492         	3.326
MS.154         	13.467         	3.29
MS.155         	13.44          	3.345
MS.156         	13.412         	3.32
MS.157         	13.385         	3.198
MS.158         	13.36          	3.35
MS.159         	13.332         	3.297
MS.160         	13.305         	3.235
MS.161         	13.28          	3.099
MS.162         	13.252         	3.134
MS.163         	13.225         	3.248
MS.164         	13.2           	3.234
MS.165         	13.172         	3.19
MS.166         	13.148         	3.251
MS.167         	13.12          	3.244
MS.168         	13.095         	3.297
MS.169         	13.068         	3.291
MS.170         	13.042         	3.102
MS.171         	13.017         	3.21
MS.172         	12.99          	3.177
MS.173         	12.965         	3.088
MS.174         	12.938         	3.251
MS.175         	12.912         	3.188
MS.176         	12.887         	3.172
MS.177         	12.86          	3.113
MS.178         	12.835         	3.016
MS.179         	12.81          	3.038
MS.180         	12.785         	3.099
MS.181         	12.757         	2.997
MS.182         	12.733         	3.098
MS.183         	12.707         	3.035
MS.184         	12.682         	3.032
MS.185         	12.657         	2.903
MS.186         	12.632         	2.958
MS.187         	12.608         	2.96
MS.188         	12.58          	3.014
MS.189         	12.555         	2.894
MS.190         	12.53          	2.894
MS.191         	12.505         	2.892
MS.192         	12.48          	2.854
MS.193         	12.455         	2.737
MS.194         	12.43          	2.842
MS.195         	12.405         	2.894
MS.196         	12.382         	2.773
MS.197         	12.358         	2.823
MS.198         	12.332         	2.742
MS.199         	12.307         	2.665
MS.200         	12.282         	2.729
MS.201         	12.257         	2.745
MS.202         	12.235         	2.751
MS.203         	12.21          	2.672
MS.204         	12.185         	2.774
MS.205         	12.16          	2.704
MS.206         	12.137         	2.628
MS.207         	12.113         	2.669
MS.208         	12.087         	2.582
MS.209         	12.062         	2.717
MS.210         	12.04          	2.632
MS.211         	12.015         	2.694
MS.212         	11.992         	2.551
MS.213         	11.967         	2.651
MS.214         	11.943         	2.629
MS.215         	11.92          	2.606
MS.216         	11.895         	2.679
MS.217         	11.872         	2.621
MS.218         	11.847         	2.644
MS.219         	11.825         	2.568
MS.220         	11.8           	2.561
MS.221         	11.778         	2.64
MS.222         	11.755         	2.529
MS.223         	11.73          	2.601
MS.224         	11.707         	2.56
MS.225         	11.685         	2.524
MS.226         	11.66          	2.48
MS.227         	11.637         	2.503
MS.228         	11.615         	2.495
MS.229         	11.59          	2.462
MS.230         	11.568         	2.49
MS.231         	11.545         	2.396
MS.232         	11.523         	2.434
MS.233         	11.497         	2.447
MS.234         	11.475         	2.542
MS.235         	11.452         	2.418
MS.236         	11.43          	2.386
MS.237         	11.407         	2.378
MS.238         	11.385         	2.381
MS.239         	11.36          	2.267
MS.240         	11.337         	2.188
MS.241         	11.315         	2.34
MS.242         	11.292         	2.303
MS.243         	11.27          	2.217
MS.244         	11.247         	2.19
MS.245         	11.225         	2.134
MS.246         	11.202         	2.213
MS.247         	11.18          	2.137
MS.248         	11.157         	2.26
MS.249         	11.135         	2.3
MS.250         	11.115         	2.275
MS.251         	11.092         	2.191
MS.252         	11.07          	2.092
MS.253         	11.047         	2.13
MS.254         	11.025         	2.254
MS.255         	11.002         	2.104
MS.256         	10.983         	2.07
MS.257         	10.96          	2.097
MS.258         	10.938         	2.098
MS.259         	10.915         	2.162
MS.260         	10.895         	1.982
MS.261         	10.872         	2.102
MS.262         	10.85          	2.097
MS.263         	10.827         	2.079
MS.264         	10.807         	1.995
MS.265         	10.785         	1.912
MS.266         	10.765         	1.82
MS.267         	10.742         	1.912
MS.268         	10.72          	1.901
MS.269         	10.7           	1.957
MS.270         	10.677         	1.857
MS.271         	10.657         	1.863
MS.272         	10.635         	1.77
MS.273         	10.615         	1.954
MS.274         	10.592         	1.949
MS.275         	10.573         	1.777
MS.276         	10.55          	1.808
MS.277         	10.53          	1.828
MS.278         	10.507         	1.71
MS.279         	10.488         	1.906
MS.280         	10.467         	1.747
MS.281         	10.445         	1.814
MS.282         	10.425         	1.744
MS.283         	10.405         	1.738
MS.284         	10.382         	1.592
MS.285         	10.363         	1.564
MS.286         	10.342         	1.546
MS.287         	10.32          	1.572
MS.288         	10.3           	1.624
MS.289         	10.28          	1.581
MS.290         	10.26          	1.448
MS.291         	10.24          	1.538
MS.292         	10.217         	1.411
MS.293         	10.198         	1.27
MS.294         	10.177         	1.375
MS.295         	10.157         	1.406
MS.296         	10.137         	1.259
MS.297         	10.117         	1.294
MS.298         	10.097         	1.165
MS.299         	10.077         	1.072
MS.300         	10.057         	1.177
MS.301         	10.035         	1.169
MS.302         	10.015         	1.184
MS.303         	9.995          	1.155
MS.304         	9.975          	1.13
MS.305         	9.955          	1.103
MS.306         	9.938          	0.938
MS.307         	9.917          	1.053
MS.308         	9.898          	0.902
MS.309         	9.877          	1.238
MS.310         	9.858          	0.971
MS.311         	9.837          	0.979
MS.312         	9.818          	0.972
MS.313         	9.797          	0.897
MS.314         	9.778          	0.933
MS.315         	9.76           	0.883
MS.316         	9.74           	0.878
MS.317         	9.72           	0.833
MS.318         	9.7            	0.757
MS.319         	9.682          	0.717
MS.320         	9.662          	0.869
MS.321         	9.642          	0.687
MS.322         	9.622          	0.743
MS.323         	9.605          	0.745
MS.324         	9.585          	0.737
MS.325         	9.565          	0.578
MS.326         	9.547          	0.754
MS.327         	9.528          	0.911
MS.328         	9.507          	0.773
MS.329         	9.49           	0.757
MS.330         	9.47           	0.781
MS.331         	9.452          	0.656
MS.332         	9.432          	0.706
MS.333         	9.415          	0.721
MS.334         	9.395          	0.704
MS.335         	9.377          	0.776
MS.336         	9.358          	0.679
MS.337         	9.34           	0.599
MS.338         	9.32           	0.505
MS.339         	9.302          	0.551
MS.340         	9.283          	0.494
MS.341         	9.265          	0.486
MS.342         	9.245          	0.518
MS.343         	9.227          	0.441
MS.344         	9.21           	0.475
MS.345         	9.19           	0.434
MS.346         	9.172          	0.397
MS.347         	9.155          	0.359
MS.348         	9.135          	0.338
MS.349         	9.117          	0.4
MS.350         	9.1            	0.469
MS.351         	9.08           	0.366
MS.352         	9.062          	0.316
MS.353         	9.045          	0.381
MS.354         	9.028          	0.38
MS.355         	9.01           	0.391
MS.356         	8.99           	0.379
MS.357         	8.972          	0.284
MS.358         	8.955          	0.304
MS.359         	8.938          	0.316
MS.360         	8.92           	0.2
MS.361         	8.903          	0.215
MS.362         	8.882          	0.229
MS.363         	8.865          	0.256
MS.364         	8.847          	0.255
MS.365         	8.83           	0.212
MS.366         	8.812          	0.266
MS.367         	8.795          	0.205
MS.368         	8.778          	0.107
MS.369         	8.76           	0.092
MS.370         	8.742          	0.156
MS.371         	8.725          	0.169
MS.372         	8.707          	0.272
MS.373         	8.69           	0.329
MS.374         	8.672          	0.331
MS.375         	8.655          	0.28
MS.376         	8.637          	0.306
MS.377         	8.62           	0.345
MS.378         	8.605          	0.349
MS.379         	8.587          	0.253
MS.380         	8.57           	0.375
MS.381         	8.552          	0.37
MS.382         	8.535          	0.252
MS.383         	8.517          	0.267
MS.384         	8.5            	0.27
MS.385         	8.485          	0.253
MS.386         	8.467          	0.251
MS.387         	8.45           	0.312
MS.388         	8.432          	0.25
MS.389         	8.417          	0.228
MS.390         	8.4            	0.228
MS.391         	8.382          	0.215
MS.392         	8.365          	0.129
MS.393         	8.35           	0.113
MS.394         	8.332          	0.275
MS.395         	8.315          	0.181
MS.396         	8.3            	-0.072
MS.397         	8.283          	0.006
MS.398         	8.267          	0.011
MS.399         	8.25           	0.117
MS.400         	8.233          	-0.018
MS.401         	8.217          	0.012
MS.402         	8.2            	-0.007
MS.403         	8.185          	-0.013
MS.404         	8.167          	0.000
MS.405         	8.153          	-0.024
MS.406         	8.135          	-0.005
MS.407         	8.12           	-0.032
MS.408         	8.102          	-0.042
MS.409         	8.087          	-0.041
MS.410         	8.07           	-0.007
MS.411         	8.055          	-0.016
MS.412         	8.037          	-0.025
MS.413         	8.023          	-0.021
MS.414         	8.005          	-0.025
MS.415         	7.99           	-0.032
MS.416         	7.975          	-0.015
MS.417         	7.957          	-0.006
MS.418         	7.942          	-0.023
MS.419         	7.927          	-0.042
MS.420         	7.91           	-0.023
MS.421         	7.895          	-0.042
MS.422         	7.88           	-0.026
MS.423         	7.862          	-0.06
MS.424         	7.847          	-0.016
MS.425         	7.832          	-0.073
MS.426         	7.815          	-0.04
MS.427         	7.8            	-0.039
MS.428         	7.785          	-0.043
MS.429         	7.77           	-0.074
MS.430         	7.755          	-0.067
MS.431         	7.737          	-0.06
MS.432         	7.722          	-0.057
MS.433         	7.707          	-0.046
MS.434         	7.692          	-0.057
MS.435         	7.677          	-0.07
MS.436         	7.662          	-0.038
MS.437         	7.645          	-0.059
MS.438         	7.63           	-0.065
MS.439         	7.615          	-0.051
MS.440         	7.6            	-0.048
MS.441         	7.585          	-0.063
MS.442         	7.57           	-0.063
MS.443         	7.555          	-0.04
MS.444         	7.54           	-0.074
MS.445         	7.525          	-0.058
MS.446         	7.51           	-0.067
MS.447         	7.495          	-0.073
MS.448         	7.48           	-0.047
MS.449         	7.465          	-0.071
MS.450         	7.45           	-0.053
MS.451         	7.435          	-0.051
MS.452         	7.42           	-0.043
MS.453         	7.405          	-0.065
MS.454         	7.39           	-0.064
MS.455         	7.375          	-0.056
MS.456         	7.36           	-0.045
MS.457         	7.347          	-0.054
MS.458         	7.332          	-0.043
MS.459         	7.317          	-0.046
MS.460         	7.302          	-0.062
MS.461         	7.287          	-0.052
MS.462         	7.273          	-0.053
MS.463         	7.257          	-0.049
MS.464         	7.245          	-0.068
MS.465         	7.23           	-0.063
MS.466         	7.215          	-0.063
MS.467         	7.2            	-0.023
MS.468         	7.188          	-0.063
MS.469         	7.172          	-0.044
MS.470         	7.157          	-0.046
MS.471         	7.142          	-0.061
MS.472         	7.13           	-0.067
MS.473         	7.115          	-0.045
MS.474         	7.1            	-0.047
MS.475         	7.087          	-0.059
MS.476         	7.072          	-0.062
MS.477         	7.057          	-0.06
MS.478         	7.045          	-0.062
MS.479         	7.03           	-0.065
MS.480         	7.015          	-0.066
MS.481         	7.003          	-0.048
MS.482         	6.987          	-0.044
MS.483         	6.975          	-0.051
MS.484         	6.96           	-0.047
MS.485         	6.945          	-0.048
MS.486         	6.932          	-0.048
MS.487         	6.918          	-0.045
MS.488         	6.905          	-0.05
MS.489         	6.89           	0.021
MS.490         	6.878          	0.262
MS.491         	6.862          	-0.066
MS.492         	6.85           	-0.047
MS.493         	6.835          	-0.065
MS.494         	6.822          	-0.062
MS.495         	6.807          	-0.053
MS.496         	6.795          	-0.051
MS.497         	6.782          	-0.043
MS.498         	6.767          	-0.047
MS.499         	6.755          	-0.05
MS.500         	6.74           	-0.043
MS.501         	6.727          	-0.063
MS.502         	6.715          	-0.066
MS.503         	6.7            	-0.047
MS.504         	6.688          	-0.044
MS.505         	6.675          	-0.048
MS.506         	6.66           	-0.065
MS.507         	6.648          	-0.063
MS.508         	6.635          	-0.048
MS.509         	6.62           	-0.047
MS.510         	6.608          	-0.048
MS.511         	6.595          	-0.048
MS.512         	6.58           	-0.045
MS.513         	6.567          	-0.044
MS.514         	6.555          	-0.065
MS.515         	6.543          	-0.045
MS.516         	6.527          	-0.043
MS.517         	6.515          	-0.064
MS.518         	6.503          	-0.041
MS.519         	6.49           	-0.04
MS.520         	6.477          	-0.042
MS.521         	6.462          	-0.042
MS.522         	6.45           	-0.046
MS.523         	6.438          	-0.046
MS.524         	6.425          	-0.045
MS.525         	6.412          	-0.045
MS.526         	6.4            	-0.044
MS.527         	6.387          	-0.045
MS.528         	6.375          	-0.042
DERIVED EXCITABILITY VARIABLES
Program = QTracP 27/06/2023
Threshold method = 6 (optimised for CAP, using data for present condition only)
SR method = 1 (using actual data values)
6.                 	0.000               	Peak response\(mV)
9.                 	33.2                	Temperature ( C)
17.                	22                  	Age (years)
18.                	1                   	Sex (M=1, F=2)

EXTRA VARIABLES

MScPeak(mV) = 4.19
MScS5(mA) = 8.24
MScS50(mA) = 10.96
MScS95(mA) = 15.43
MScNSteps = 3
MScSteps(%) = 6.5
MScStepMax(%) = 2.3
MScD50 = 53
MScSlope = 3.48
MScDuration(min) = 7
MSFTraces = 506
MSFPeakAmp(mV) = 4.18
MSFNUnits = 99
MSFMeanUnitAmp(uV) = 42.2
MSFHuntTime(m) = 1.58
MSFError(%) = 3.03
MSFNLarge = 29.56
MSFMedianAmp(%) = 0.845
MSFMedianAmp(mV) = 0.0353
MSFHalfAmpAmp(%) = 1.09
MSFHalfAmpAmp(mV) = 0.0455
MSFLargestAmp(%) = 2.95
MSFLargestAmp(mV) = 0.123
MSFMeanRS(%) = 2
MSFSizeLimit(uV) = 13.9
MSFLimitType = 1
MSFSmallestAmp(uV) = 15.3
MSFOpts = 10104222032
MSFSDMax = 19.5
MSFSDMin = 8.24

EXTRA WAVEFORMS


!MScan Model
!99
	1	8.11	0.68	2
	2	8.2	0.63	2
	3	8.25	1.22	2
	4	8.3	0.71	2
	5	8.36	1.21	2
	6	8.43	2.95	2
	7	8.89	0.69	2
	8	8.93	0.85	2
	9	8.99	0.58	2
	10	9.13	1.96	2
	11	9.19	0.8	2
	12	9.22	0.53	2
	13	9.23	0.37	2
	14	9.25	0.52	2
	15	9.26	0.48	2
	16	9.28	0.51	2
	17	9.29	0.51	2
	18	9.32	1.18	2
	19	9.36	0.4	2
	20	9.58	2.94	2
	21	9.68	0.92	2
	22	9.72	1.09	2
	23	9.77	1.4	2
	24	9.85	2.17	2
	25	9.96	2.45	2
	26	10	0.73	2
	27	10.04	1.11	2
	28	10.08	1.04	2
	29	10.09	0.44	2
	30	10.11	0.51	2
	31	10.13	0.53	2
	32	10.14	0.57	2
	33	10.16	0.68	2
	34	10.18	1.04	2
	35	10.2	1	2
	36	10.23	0.77	2
	37	10.25	0.75	2
	38	10.28	0.81	2
	39	10.31	1.28	2
	40	10.35	1.48	2
	41	10.38	1.05	2
	42	10.42	0.9	2
	43	10.45	0.75	2
	44	10.49	1.12	2
	45	10.66	2.48	2
	46	10.73	0.92	2
	47	10.77	0.72	2
	48	10.81	1.14	2
	49	10.87	0.86	2
	50	10.93	1.34	2
	51	11.13	2.22	2
	52	11.28	1.83	2
	53	11.32	0.44	2
	54	11.35	0.84	2
	55	11.4	1.1	2
	56	11.45	0.81	2
	57	11.53	1.48	2
	58	11.6	0.84	2
	59	11.66	0.47	2
	60	11.69	0.5	2
	61	11.75	0.7	2
	62	11.8	0.59	2
	63	12.07	1.8	2
	64	12.25	1.64	2
	65	12.33	0.85	2
	66	12.37	0.59	2
	67	12.42	0.75	2
	68	12.46	0.8	2
	69	12.51	0.69	2
	70	12.56	0.78	2
	71	12.63	1.27	2
	72	12.7	0.81	2
	73	12.76	1.01	2
	74	12.82	1.03	2
	75	12.9	0.87	2
	76	13.25	2.6	2
	77	13.38	0.98	2
	78	13.52	1.72	2
	79	13.62	1.15	2
	80	13.66	0.89	2
	81	13.7	1.02	2
	82	13.74	0.77	2
	83	13.79	1.38	2
	84	13.84	0.65	2
	85	13.91	2.62	2
	86	14.2	1.17	2
	87	14.42	0.95	2
	88	14.58	0.63	2
	89	14.75	0.72	2
	90	14.87	0.37	2
	91	14.94	0.4	2
	92	15.19	0.91	2
	93	15.35	0.8	2
	94	15.49	0.88	2
	95	15.64	0.47	2
	96	15.81	0.43	2
	97	16.17	0.81	2
	98	16.55	0.74	2
	99	16.84	0.48	2

