File:              	C:\Qtrac\Data\ME2C30706A.QZD
Name:              	 SH18U
Protocol:          	MSCAN-MV
Date:              	6/7/23
Date of birth:     	18/6/94
Age:               	29
Sex:               	F
Temperature:       	28.4
S/R sites:         	Knee CF-TA
NC/disease:        	NC
Operator:          	BY
Comments:
M-SCAN DATA (Repeat 1/3, 10.4-5.3m)
Scanpts: 24, 32, 422, 431
Stim. (mA)     	Amp. (mV)
MS.1           	15             	4.894
MS.2           	15             	4.883
MS.3           	15             	4.916
MS.4           	15             	4.907
MS.5           	15             	4.954
MS.6           	15             	4.884
MS.7           	15             	4.907
MS.8           	15             	4.882
MS.9           	15             	4.863
MS.10          	15             	4.867
MS.11          	15             	4.876
MS.12          	15             	4.895
MS.13          	15             	4.846
MS.14          	15             	4.874
MS.15          	15             	4.871
MS.16          	15             	4.861
MS.17          	15             	4.879
MS.18          	15             	4.911
MS.19          	15             	4.935
MS.20          	15             	4.87
MS.21          	15             	4.912
MS.22          	15             	4.94
MS.23          	15             	4.899
MS.24          	14.94          	4.866
MS.25          	14.91          	4.919
MS.26          	14.88          	4.871
MS.27          	14.85          	4.94
MS.28          	14.82          	4.919
MS.29          	14.792         	4.873
MS.30          	14.762         	4.875
MS.31          	14.733         	4.922
MS.32          	14.702         	4.884
MS.33          	14.672         	4.871
MS.34          	14.645         	4.963
MS.35          	14.615         	4.869
MS.36          	14.585         	4.893
MS.37          	14.557         	4.897
MS.38          	14.527         	4.904
MS.39          	14.497         	4.913
MS.40          	14.47          	4.893
MS.41          	14.44          	4.815
MS.42          	14.412         	4.94
MS.43          	14.382         	4.816
MS.44          	14.355         	4.937
MS.45          	14.325         	4.872
MS.46          	14.297         	4.888
MS.47          	14.267         	4.882
MS.48          	14.24          	4.876
MS.49          	14.212         	4.891
MS.50          	14.182         	4.831
MS.51          	14.155         	4.802
MS.52          	14.127         	4.877
MS.53          	14.097         	4.888
MS.54          	14.07          	4.879
MS.55          	14.042         	4.876
MS.56          	14.015         	4.87
MS.57          	13.985         	4.869
MS.58          	13.957         	4.809
MS.59          	13.93          	4.8
MS.60          	13.903         	4.876
MS.61          	13.875         	4.786
MS.62          	13.847         	4.866
MS.63          	13.82          	4.902
MS.64          	13.792         	4.844
MS.65          	13.765         	4.827
MS.66          	13.737         	4.838
MS.67          	13.71          	4.803
MS.68          	13.682         	4.811
MS.69          	13.655         	4.807
MS.70          	13.627         	4.813
MS.71          	13.6           	4.812
MS.72          	13.572         	4.814
MS.73          	13.545         	4.763
MS.74          	13.517         	4.818
MS.75          	13.492         	4.702
MS.76          	13.465         	4.734
MS.77          	13.438         	4.738
MS.78          	13.41          	4.758
MS.79          	13.385         	4.763
MS.80          	13.358         	4.769
MS.81          	13.33          	4.793
MS.82          	13.305         	4.717
MS.83          	13.278         	4.825
MS.84          	13.25          	4.808
MS.85          	13.225         	4.689
MS.86          	13.197         	4.682
MS.87          	13.172         	4.72
MS.88          	13.145         	4.671
MS.89          	13.12          	4.647
MS.90          	13.092         	4.637
MS.91          	13.068         	4.65
MS.92          	13.04          	4.604
MS.93          	13.015         	4.655
MS.94          	12.987         	4.625
MS.95          	12.962         	4.643
MS.96          	12.938         	4.656
MS.97          	12.91          	4.539
MS.98          	12.885         	4.6
MS.99          	12.86          	4.625
MS.100         	12.832         	4.715
MS.101         	12.807         	4.548
MS.102         	12.782         	4.531
MS.103         	12.757         	4.507
MS.104         	12.73          	4.498
MS.105         	12.705         	4.49
MS.106         	12.68          	4.489
MS.107         	12.655         	4.51
MS.108         	12.63          	4.553
MS.109         	12.605         	4.441
MS.110         	12.58          	4.403
MS.111         	12.555         	4.515
MS.112         	12.53          	4.453
MS.113         	12.505         	4.442
MS.114         	12.48          	4.429
MS.115         	12.455         	4.393
MS.116         	12.43          	4.388
MS.117         	12.405         	4.258
MS.118         	12.38          	4.2
MS.119         	12.355         	4.277
MS.120         	12.33          	4.242
MS.121         	12.305         	4.307
MS.122         	12.28          	4.242
MS.123         	12.257         	4.222
MS.124         	12.233         	4.167
MS.125         	12.207         	4.228
MS.126         	12.182         	4.161
MS.127         	12.157         	4.198
MS.128         	12.135         	4.283
MS.129         	12.11          	4.196
MS.130         	12.085         	4.07
MS.131         	12.062         	4.133
MS.132         	12.037         	4.067
MS.133         	12.012         	4.271
MS.134         	11.99          	4.146
MS.135         	11.965         	4.025
MS.136         	11.943         	4.015
MS.137         	11.917         	4.013
MS.138         	11.895         	3.932
MS.139         	11.87          	3.907
MS.140         	11.847         	3.954
MS.141         	11.822         	3.938
MS.142         	11.8           	3.896
MS.143         	11.775         	3.797
MS.144         	11.752         	3.859
MS.145         	11.73          	3.847
MS.146         	11.705         	3.753
MS.147         	11.682         	3.692
MS.148         	11.657         	3.723
MS.149         	11.635         	3.622
MS.150         	11.613         	3.722
MS.151         	11.59          	3.562
MS.152         	11.565         	3.618
MS.153         	11.542         	3.475
MS.154         	11.52          	3.604
MS.155         	11.497         	3.593
MS.156         	11.472         	3.49
MS.157         	11.45          	3.431
MS.158         	11.427         	3.31
MS.159         	11.405         	3.352
MS.160         	11.382         	3.255
MS.161         	11.36          	3.253
MS.162         	11.337         	3.295
MS.163         	11.315         	3.227
MS.164         	11.292         	3.187
MS.165         	11.27          	3.076
MS.166         	11.247         	3.281
MS.167         	11.225         	3.163
MS.168         	11.202         	3.13
MS.169         	11.18          	3.142
MS.170         	11.157         	3.026
MS.171         	11.135         	3.034
MS.172         	11.113         	3.032
MS.173         	11.09          	3.119
MS.174         	11.068         	3.057
MS.175         	11.045         	2.977
MS.176         	11.023         	2.947
MS.177         	11.002         	3.033
MS.178         	10.98          	2.941
MS.179         	10.957         	2.846
MS.180         	10.935         	2.83
MS.181         	10.915         	2.796
MS.182         	10.892         	2.649
MS.183         	10.87          	2.653
MS.184         	10.847         	2.601
MS.185         	10.827         	2.535
MS.186         	10.805         	2.604
MS.187         	10.785         	2.583
MS.188         	10.762         	2.42
MS.189         	10.74          	2.414
MS.190         	10.72          	2.378
MS.191         	10.698         	2.252
MS.192         	10.677         	2.346
MS.193         	10.655         	2.281
MS.194         	10.635         	2.347
MS.195         	10.613         	2.283
MS.196         	10.592         	2.347
MS.197         	10.57          	2.126
MS.198         	10.55          	2.123
MS.199         	10.528         	2.167
MS.200         	10.507         	2.217
MS.201         	10.485         	2.106
MS.202         	10.465         	2.04
MS.203         	10.445         	1.959
MS.204         	10.422         	1.907
MS.205         	10.403         	1.939
MS.206         	10.382         	2.032
MS.207         	10.36          	1.874
MS.208         	10.34          	1.932
MS.209         	10.32          	1.885
MS.210         	10.3           	1.809
MS.211         	10.278         	1.838
MS.212         	10.257         	1.835
MS.213         	10.238         	1.736
MS.214         	10.217         	1.674
MS.215         	10.198         	1.664
MS.216         	10.175         	1.683
MS.217         	10.155         	1.699
MS.218         	10.135         	1.484
MS.219         	10.115         	1.473
MS.220         	10.095         	1.453
MS.221         	10.075         	1.492
MS.222         	10.055         	1.458
MS.223         	10.035         	1.467
MS.224         	10.015         	1.334
MS.225         	9.995          	1.318
MS.226         	9.975          	1.305
MS.227         	9.955          	1.177
MS.228         	9.935          	1.143
MS.229         	9.915          	1.169
MS.230         	9.895          	1.114
MS.231         	9.875          	1.119
MS.232         	9.855          	1.002
MS.233         	9.835          	1.013
MS.234         	9.818          	1.114
MS.235         	9.797          	0.904
MS.236         	9.778          	0.938
MS.237         	9.757          	0.895
MS.238         	9.738          	0.942
MS.239         	9.717          	0.914
MS.240         	9.7            	0.72
MS.241         	9.68           	0.726
MS.242         	9.66           	0.739
MS.243         	9.64           	0.759
MS.244         	9.622          	0.648
MS.245         	9.602          	0.629
MS.246         	9.582          	0.576
MS.247         	9.565          	0.601
MS.248         	9.545          	0.628
MS.249         	9.525          	0.601
MS.250         	9.507          	0.525
MS.251         	9.488          	0.586
MS.252         	9.47           	0.582
MS.253         	9.45           	0.587
MS.254         	9.432          	0.448
MS.255         	9.412          	0.526
MS.256         	9.395          	0.449
MS.257         	9.375          	0.383
MS.258         	9.358          	0.422
MS.259         	9.337          	0.28
MS.260         	9.32           	0.331
MS.261         	9.3            	0.297
MS.262         	9.283          	0.333
MS.263         	9.262          	0.269
MS.264         	9.245          	0.306
MS.265         	9.225          	0.162
MS.266         	9.207          	0.208
MS.267         	9.19           	0.12
MS.268         	9.17           	0.135
MS.269         	9.153          	0.133
MS.270         	9.135          	0.135
MS.271         	9.115          	0.092
MS.272         	9.097          	0.008
MS.273         	9.08           	-0.032
MS.274         	9.062          	-0.009
MS.275         	9.042          	-0.078
MS.276         	9.025          	-0.096
MS.277         	9.007          	-0.074
MS.278         	8.99           	-0.116
MS.279         	8.972          	-0.121
MS.280         	8.952          	-0.141
MS.281         	8.935          	-0.124
MS.282         	8.917          	-0.196
MS.283         	8.9            	-0.201
MS.284         	8.882          	-0.237
MS.285         	8.865          	-0.224
MS.286         	8.847          	-0.209
MS.287         	8.83           	-0.192
MS.288         	8.812          	-0.209
MS.289         	8.795          	-0.302
MS.290         	8.775          	-0.24
MS.291         	8.757          	-0.25
MS.292         	8.74           	-0.34
MS.293         	8.722          	-0.303
MS.294         	8.707          	-0.424
MS.295         	8.69           	-0.377
MS.296         	8.672          	-0.416
MS.297         	8.655          	-0.421
MS.298         	8.637          	-0.394
MS.299         	8.62           	-0.442
MS.300         	8.602          	-0.52
MS.301         	8.585          	-0.493
MS.302         	8.568          	-0.535
MS.303         	8.55           	-0.507
MS.304         	8.535          	-0.548
MS.305         	8.517          	-0.586
MS.306         	8.5            	-0.536
MS.307         	8.483          	-0.673
MS.308         	8.465          	-0.623
MS.309         	8.45           	-0.685
MS.310         	8.432          	-0.619
MS.311         	8.415          	-0.617
MS.312         	8.398          	-0.665
MS.313         	8.382          	-0.659
MS.314         	8.365          	-0.679
MS.315         	8.347          	-0.674
MS.316         	8.332          	-0.676
MS.317         	8.315          	-0.726
MS.318         	8.297          	-0.758
MS.319         	8.283          	-0.718
MS.320         	8.265          	-0.77
MS.321         	8.247          	-0.759
MS.322         	8.233          	-0.769
MS.323         	8.215          	-0.812
MS.324         	8.2            	-0.765
MS.325         	8.182          	-0.821
MS.326         	8.167          	-0.826
MS.327         	8.15           	-0.844
MS.328         	8.135          	-0.764
MS.329         	8.117          	-0.8
MS.330         	8.102          	-0.762
MS.331         	8.085          	-0.742
MS.332         	8.07           	-0.847
MS.333         	8.052          	-0.776
MS.334         	8.037          	-0.845
MS.335         	8.02           	-0.847
MS.336         	8.005          	-0.87
MS.337         	7.99           	-0.872
MS.338         	7.972          	-0.862
MS.339         	7.957          	-0.864
MS.340         	7.94           	-0.84
MS.341         	7.925          	-0.873
MS.342         	7.91           	-0.866
MS.343         	7.892          	-0.872
MS.344         	7.878          	-0.887
MS.345         	7.862          	-0.895
MS.346         	7.847          	-0.914
MS.347         	7.83           	-0.915
MS.348         	7.815          	-0.908
MS.349         	7.8            	-0.917
MS.350         	7.785          	-0.887
MS.351         	7.767          	-0.905
MS.352         	7.753          	-0.936
MS.353         	7.737          	-0.903
MS.354         	7.722          	-0.933
MS.355         	7.707          	-0.895
MS.356         	7.69           	-0.898
MS.357         	7.675          	-0.889
MS.358         	7.66           	-0.943
MS.359         	7.645          	-0.917
MS.360         	7.63           	-0.876
MS.361         	7.615          	-0.932
MS.362         	7.6            	-0.903
MS.363         	7.585          	-0.948
MS.364         	7.57           	-0.927
MS.365         	7.555          	-0.924
MS.366         	7.537          	-0.9
MS.367         	7.523          	-0.934
MS.368         	7.507          	-0.916
MS.369         	7.492          	-0.929
MS.370         	7.477          	-0.9
MS.371         	7.462          	-0.942
MS.372         	7.447          	-0.957
MS.373         	7.435          	-0.926
MS.374         	7.42           	-0.936
MS.375         	7.405          	-0.97
MS.376         	7.39           	-0.928
MS.377         	7.375          	-0.958
MS.378         	7.36           	-0.955
MS.379         	7.345          	-0.923
MS.380         	7.33           	-0.938
MS.381         	7.315          	-0.953
MS.382         	7.302          	-0.95
MS.383         	7.287          	-0.924
MS.384         	7.273          	-0.95
MS.385         	7.257          	-0.958
MS.386         	7.242          	-0.945
MS.387         	7.227          	-0.945
MS.388         	7.215          	-0.961
MS.389         	7.2            	-0.961
MS.390         	7.185          	-0.924
MS.391         	7.17           	-0.941
MS.392         	7.157          	-0.923
MS.393         	7.142          	-0.924
MS.394         	7.128          	-0.947
MS.395         	7.115          	-0.93
MS.396         	7.1            	-0.958
MS.397         	7.085          	-0.934
MS.398         	7.072          	-0.913
MS.399         	7.057          	-0.947
MS.400         	7.043          	-0.981
MS.401         	7.03           	-0.944
MS.402         	7.015          	-0.914
MS.403         	7              	-0.883
MS.404         	6.987          	-0.933
MS.405         	6.972          	-0.964
MS.406         	6.96           	-0.913
MS.407         	6.945          	-0.947
MS.408         	6.932          	-0.942
MS.409         	6.918          	-0.931
MS.410         	6.902          	-0.923
MS.411         	6.89           	-0.93
MS.412         	6.875          	-0.896
MS.413         	6.862          	-0.928
MS.414         	6.847          	-0.936
MS.415         	6.835          	-0.934
MS.416         	6.822          	-0.95
MS.417         	6.807          	-0.935
MS.418         	6.795          	-0.961
MS.419         	6.78           	-0.9
MS.420         	6.767          	-0.948
MS.421         	6.753          	-0.941
MS.422         	6.74           	-0.898
MS.423         	6.727          	-0.939
MS.424         	6.712          	-0.901
MS.425         	6.7            	-0.942
MS.426         	6.685          	-0.943
MS.427         	6.672          	-0.903
MS.428         	6.66           	-0.949
MS.429         	6.645          	-0.927
MS.430         	6.632          	-0.93
MS.431         	6.62           	-0.901
DERIVED EXCITABILITY VARIABLES
Program = QTracP 27/06/2023
Threshold method = 6 (optimised for CAP, using data for present condition only)
SR method = 1 (using actual data values)
6.                 	0.000               	Peak response\(mV)
9.                 	28.4                	Temperature ( C)
17.                	29                  	Age (years)
18.                	2                   	Sex (M=1, F=2)

EXTRA VARIABLES

MScPeak(mV) = 5.82
MScS5(mA) = 9.29
MScS50(mA) = 10.97
MScNSteps = 5
MScSteps(%) = 12
MScStepMax(%) = 3
MScD50 = 43
MScSlope = 4.67
MScDuration(min) = 5.7
MSFTraces = 408
MSFPeakAmp(mV) = 5.82
MSFNUnits = 176
MSFMeanUnitAmp(uV) = 33.1
MSFHuntTime(m) = 1.47
MSFError(%) = 2.52
MSFNLarge = 66.7
MSFMedianAmp(%) = 0.525
MSFMedianAmp(mV) = 0.0305
MSFHalfAmpAmp(%) = 0.57
MSFHalfAmpAmp(mV) = 0.0332
MSFLargestAmp(%) = 1.51
MSFLargestAmp(mV) = 0.0879
MSFMeanRS(%) = 2
MSFSizeLimit(uV) = 19.4
MSFLimitType = 1
MSFSmallestAmp(uV) = 20.1
MSFOpts = 10104222032
MSFSDMax = 28.1
MSFSDMin = 20.4

EXTRA WAVEFORMS


!MScan Model
!176
	1	7.87	0.81	2
	2	7.95	0.38	2
	3	8	0.35	2
	4	8.16	0.96	2
	5	8.25	0.46	2
	6	8.29	0.44	2
	7	8.32	0.45	2
	8	8.36	0.44	2
	9	8.4	0.42	2
	10	8.43	0.86	2
	11	8.5	0.43	2
	12	8.53	0.58	2
	13	8.56	0.49	2
	14	8.58	0.49	2
	15	8.61	0.45	2
	16	8.63	0.42	2
	17	8.66	0.46	2
	18	8.68	0.5	2
	19	8.7	0.51	2
	20	8.72	0.37	2
	21	8.76	0.61	2
	22	8.79	0.41	2
	23	8.82	0.6	2
	24	8.86	0.63	2
	25	8.91	0.56	2
	26	8.94	0.39	2
	27	8.96	0.38	2
	28	8.99	0.55	2
	29	9.03	0.77	2
	30	9.05	0.56	2
	31	9.07	0.61	2
	32	9.12	0.7	2
	33	9.14	0.66	2
	34	9.15	0.39	2
	35	9.17	0.39	2
	36	9.18	0.37	2
	37	9.2	0.4	2
	38	9.21	0.38	2
	39	9.24	0.61	2
	40	9.27	0.73	2
	41	9.3	0.53	2
	42	9.32	0.65	2
	43	9.35	0.57	2
	44	9.37	0.51	2
	45	9.41	0.68	2
	46	9.43	0.57	2
	47	9.46	0.64	2
	48	9.49	0.67	2
	49	9.53	0.57	2
	50	9.56	0.47	2
	51	9.59	0.61	2
	52	9.61	0.36	2
	53	9.63	0.64	2
	54	9.66	0.49	2
	55	9.68	0.47	2
	56	9.69	0.35	2
	57	9.7	0.38	2
	58	9.72	0.44	2
	59	9.73	0.44	2
	60	9.74	0.41	2
	61	9.76	0.53	2
	62	9.79	0.54	2
	63	9.8	0.39	2
	64	9.81	0.39	2
	65	9.83	0.52	2
	66	9.85	0.53	2
	67	9.87	0.53	2
	68	9.89	0.54	2
	69	9.91	0.65	2
	70	9.92	0.38	2
	71	9.93	0.4	2
	72	9.96	0.65	2
	73	9.97	0.41	2
	74	9.99	0.69	2
	75	10.01	0.93	2
	76	10.04	0.95	2
	77	10.07	0.75	2
	78	10.09	0.71	2
	79	10.11	0.64	2
	80	10.13	0.5	2
	81	10.15	0.62	2
	82	10.17	0.62	2
	83	10.19	0.47	2
	84	10.21	0.63	2
	85	10.23	0.64	2
	86	10.25	0.68	2
	87	10.27	0.53	2
	88	10.29	0.44	2
	89	10.31	0.41	2
	90	10.33	0.45	2
	91	10.35	0.52	2
	92	10.37	0.48	2
	93	10.38	0.42	2
	94	10.4	0.42	2
	95	10.42	0.58	2
	96	10.46	0.52	2
	97	10.48	0.46	2
	98	10.49	0.51	2
	99	10.52	0.65	2
	100	10.55	0.78	2
	101	10.59	0.72	2
	102	10.61	0.46	2
	103	10.63	0.42	2
	104	10.65	0.58	2
	105	10.67	0.58	2
	106	10.7	0.54	2
	107	10.72	0.53	2
	108	10.74	0.62	2
	109	10.76	0.39	2
	110	10.77	0.37	2
	111	10.79	0.39	2
	112	10.8	0.52	2
	113	10.82	0.54	2
	114	10.83	0.55	2
	115	10.85	0.56	2
	116	10.87	0.6	2
	117	10.88	0.78	2
	118	10.91	0.7	2
	119	10.92	0.53	2
	120	10.94	0.67	2
	121	10.98	0.45	2
	122	11	0.47	2
	123	11.02	0.42	2
	124	11.07	0.57	2
	125	11.07	1.27	2
	126	11.15	1.46	2
	127	11.19	0.44	2
	128	11.22	0.41	2
	129	11.25	0.5	2
	130	11.27	0.35	2
	131	11.29	0.36	2
	132	11.31	0.39	2
	133	11.33	0.61	2
	134	11.37	1	2
	135	11.41	0.41	2
	136	11.45	0.63	2
	137	11.47	0.44	2
	138	11.49	0.51	2
	139	11.51	0.53	2
	140	11.53	0.57	2
	141	11.55	0.62	2
	142	11.57	0.57	2
	143	11.59	0.44	2
	144	11.61	0.44	2
	145	11.64	0.54	2
	146	11.66	0.48	2
	147	11.69	0.45	2
	148	11.71	0.51	2
	149	11.73	0.48	2
	150	11.76	0.47	2
	151	11.78	0.45	2
	152	11.8	0.42	2
	153	11.82	0.45	2
	154	11.83	0.52	2
	155	11.85	0.45	2
	156	11.89	0.76	2
	157	11.93	0.78	2
	158	12.02	1.51	2
	159	12.12	1.07	2
	160	12.18	0.5	2
	161	12.22	0.39	2
	162	12.31	0.73	2
	163	12.35	0.45	2
	164	12.38	0.43	2
	165	12.42	0.46	2
	166	12.47	0.69	2
	167	12.53	0.87	2
	168	12.59	0.62	2
	169	12.68	0.92	2
	170	12.76	0.56	2
	171	12.91	1.15	2
	172	13.06	0.65	2
	173	13.11	0.41	2
	174	13.38	1.41	2
	175	13.58	0.52	2
	176	13.95	1.11	2

