File:              	C:\Qtrac\Data\ME2C30629A.QZD
Name:              	 HA02N
Protocol:          	MSCAN-MV
Date:              	29/6/23
Date of birth:     	2/3/00
Age:               	23
Sex:               	M
Temperature:       	33.7
S/R sites:         	Knee CF-TA
NC/disease:        	NC
Operator:          	BY
Comments:
M-SCAN DATA (Repeat 2/3, 26.4-14.2m)
Scanpts: 1, 29, 886, 939
Stim. (mA)     	Amp. (mV)
MS.1           	15             	5.142
MS.2           	15             	5.143
MS.3           	15             	5.145
MS.4           	15             	5.143
MS.5           	15             	5.129
MS.6           	15             	5.157
MS.7           	15             	5.152
MS.8           	15             	5.137
MS.9           	15             	5.106
MS.10          	15             	5.135
MS.11          	15             	5.122
MS.12          	15             	5.134
MS.13          	15             	5.129
MS.14          	15             	5.15
MS.15          	15             	5.108
MS.16          	15             	5.136
MS.17          	15             	5.126
MS.18          	15             	5.142
MS.19          	15             	5.143
MS.20          	15             	5.141
MS.21          	15             	5.146
MS.22          	15             	5.142
MS.23          	15             	5.158
MS.24          	14.97          	5.131
MS.25          	14.94          	5.145
MS.26          	14.91          	5.159
MS.27          	14.88          	5.149
MS.28          	14.85          	5.152
MS.29          	14.82          	5.146
MS.30          	14.792         	5.125
MS.31          	14.762         	5.147
MS.32          	14.733         	5.139
MS.33          	14.702         	5.124
MS.34          	14.672         	5.132
MS.35          	14.645         	5.164
MS.36          	14.615         	5.059
MS.37          	14.585         	5.128
MS.38          	14.557         	5.121
MS.39          	14.527         	5.132
MS.40          	14.497         	5.148
MS.41          	14.47          	5.07
MS.42          	14.44          	5.121
MS.43          	14.412         	5.053
MS.44          	14.382         	5.121
MS.45          	14.355         	5.048
MS.46          	14.325         	5.066
MS.47          	14.297         	5.045
MS.48          	14.267         	5.029
MS.49          	14.24          	5.059
MS.50          	14.212         	5.126
MS.51          	14.182         	5.063
MS.52          	14.155         	5.057
MS.53          	14.127         	5.048
MS.54          	14.097         	5.045
MS.55          	14.07          	5.025
MS.56          	14.042         	5.042
MS.57          	14.015         	5.043
MS.58          	13.985         	5.041
MS.59          	13.957         	5.057
MS.60          	13.93          	5.037
MS.61          	13.903         	5.047
MS.62          	13.875         	5.039
MS.63          	13.847         	5.013
MS.64          	13.82          	5.033
MS.65          	13.792         	5.023
MS.66          	13.765         	5.027
MS.67          	13.737         	5.042
MS.68          	13.71          	5.026
MS.69          	13.682         	5.029
MS.70          	13.655         	5.036
MS.71          	13.627         	5.016
MS.72          	13.6           	5.027
MS.73          	13.572         	5.032
MS.74          	13.545         	4.99
MS.75          	13.517         	5.01
MS.76          	13.492         	5.064
MS.77          	13.465         	5.044
MS.78          	13.438         	5.018
MS.79          	13.41          	5.032
MS.80          	13.385         	5.013
MS.81          	13.358         	5.034
MS.82          	13.33          	5.048
MS.83          	13.305         	5.029
MS.84          	13.278         	5.029
MS.85          	13.25          	5.031
MS.86          	13.225         	5.026
MS.87          	13.197         	5.034
MS.88          	13.172         	5.012
MS.89          	13.145         	4.998
MS.90          	13.12          	5.004
MS.91          	13.092         	4.999
MS.92          	13.068         	4.99
MS.93          	13.04          	4.989
MS.94          	13.015         	5.009
MS.95          	12.987         	5.01
MS.96          	12.962         	5.017
MS.97          	12.938         	5.001
MS.98          	12.91          	4.973
MS.99          	12.885         	5.007
MS.100         	12.86          	4.994
MS.101         	12.832         	4.993
MS.102         	12.807         	5.007
MS.103         	12.782         	4.984
MS.104         	12.757         	5.02
MS.105         	12.73          	4.994
MS.106         	12.705         	5.017
MS.107         	12.68          	4.998
MS.108         	12.655         	4.99
MS.109         	12.63          	4.975
MS.110         	12.605         	4.988
MS.111         	12.58          	4.99
MS.112         	12.555         	4.982
MS.113         	12.53          	4.992
MS.114         	12.505         	4.962
MS.115         	12.48          	4.971
MS.116         	12.455         	4.97
MS.117         	12.43          	4.995
MS.118         	12.405         	4.958
MS.119         	12.38          	4.979
MS.120         	12.355         	4.982
MS.121         	12.33          	4.963
MS.122         	12.305         	4.977
MS.123         	12.28          	4.95
MS.124         	12.257         	4.955
MS.125         	12.233         	4.949
MS.126         	12.207         	4.958
MS.127         	12.182         	4.998
MS.128         	12.16          	4.946
MS.129         	12.135         	4.973
MS.130         	12.11          	4.98
MS.131         	12.085         	4.963
MS.132         	12.062         	4.969
MS.133         	12.037         	4.963
MS.134         	12.012         	4.954
MS.135         	11.99          	4.991
MS.136         	11.965         	4.944
MS.137         	11.943         	4.965
MS.138         	11.917         	4.93
MS.139         	11.895         	4.984
MS.140         	11.87          	4.933
MS.141         	11.847         	4.993
MS.142         	11.822         	4.922
MS.143         	11.8           	4.932
MS.144         	11.775         	4.907
MS.145         	11.752         	4.952
MS.146         	11.73          	4.933
MS.147         	11.705         	4.914
MS.148         	11.682         	4.924
MS.149         	11.657         	4.905
MS.150         	11.635         	4.955
MS.151         	11.613         	4.948
MS.152         	11.59          	4.941
MS.153         	11.565         	4.901
MS.154         	11.542         	4.904
MS.155         	11.52          	4.905
MS.156         	11.497         	4.868
MS.157         	11.472         	4.888
MS.158         	11.45          	4.896
MS.159         	11.427         	4.916
MS.160         	11.405         	4.89
MS.161         	11.382         	4.952
MS.162         	11.36          	4.911
MS.163         	11.337         	4.896
MS.164         	11.315         	4.908
MS.165         	11.292         	4.89
MS.166         	11.27          	4.799
MS.167         	11.247         	4.874
MS.168         	11.225         	4.891
MS.169         	11.202         	4.897
MS.170         	11.18          	4.844
MS.171         	11.157         	4.88
MS.172         	11.135         	4.918
MS.173         	11.113         	4.871
MS.174         	11.09          	4.891
MS.175         	11.068         	4.885
MS.176         	11.045         	4.878
MS.177         	11.023         	4.885
MS.178         	11.002         	4.879
MS.179         	10.98          	4.886
MS.180         	10.957         	4.874
MS.181         	10.935         	4.85
MS.182         	10.915         	4.874
MS.183         	10.892         	4.855
MS.184         	10.87          	4.845
MS.185         	10.85          	4.883
MS.186         	10.827         	4.833
MS.187         	10.805         	4.861
MS.188         	10.785         	4.909
MS.189         	10.762         	4.844
MS.190         	10.74          	4.862
MS.191         	10.72          	4.843
MS.192         	10.698         	4.843
MS.193         	10.677         	4.85
MS.194         	10.655         	4.809
MS.195         	10.635         	4.86
MS.196         	10.613         	4.855
MS.197         	10.592         	4.827
MS.198         	10.57          	4.859
MS.199         	10.55          	4.83
MS.200         	10.528         	4.819
MS.201         	10.507         	4.828
MS.202         	10.485         	4.847
MS.203         	10.465         	4.83
MS.204         	10.445         	4.809
MS.205         	10.422         	4.808
MS.206         	10.403         	4.811
MS.207         	10.382         	4.821
MS.208         	10.36          	4.859
MS.209         	10.34          	4.785
MS.210         	10.32          	4.817
MS.211         	10.3           	4.781
MS.212         	10.278         	4.799
MS.213         	10.257         	4.817
MS.214         	10.238         	4.81
MS.215         	10.217         	4.79
MS.216         	10.198         	4.8
MS.217         	10.175         	4.772
MS.218         	10.155         	4.794
MS.219         	10.135         	4.758
MS.220         	10.115         	4.777
MS.221         	10.095         	4.788
MS.222         	10.075         	4.771
MS.223         	10.055         	4.775
MS.224         	10.035         	4.766
MS.225         	10.015         	4.753
MS.226         	9.995          	4.741
MS.227         	9.975          	4.771
MS.228         	9.955          	4.713
MS.229         	9.935          	4.763
MS.230         	9.915          	4.771
MS.231         	9.895          	4.739
MS.232         	9.875          	4.763
MS.233         	9.855          	4.763
MS.234         	9.835          	4.677
MS.235         	9.818          	4.75
MS.236         	9.797          	4.747
MS.237         	9.778          	4.698
MS.238         	9.757          	4.692
MS.239         	9.738          	4.711
MS.240         	9.717          	4.699
MS.241         	9.7            	4.677
MS.242         	9.68           	4.705
MS.243         	9.66           	4.678
MS.244         	9.64           	4.695
MS.245         	9.622          	4.672
MS.246         	9.602          	4.694
MS.247         	9.582          	4.708
MS.248         	9.565          	4.659
MS.249         	9.545          	4.692
MS.250         	9.525          	4.722
MS.251         	9.507          	4.677
MS.252         	9.488          	4.659
MS.253         	9.47           	4.678
MS.254         	9.45           	4.642
MS.255         	9.432          	4.623
MS.256         	9.412          	4.638
MS.257         	9.395          	4.633
MS.258         	9.375          	4.63
MS.259         	9.358          	4.606
MS.260         	9.337          	4.617
MS.261         	9.32           	4.634
MS.262         	9.3            	4.646
MS.263         	9.283          	4.617
MS.264         	9.262          	4.626
MS.265         	9.245          	4.607
MS.266         	9.225          	4.57
MS.267         	9.207          	4.597
MS.268         	9.19           	4.619
MS.269         	9.17           	4.621
MS.270         	9.153          	4.601
MS.271         	9.135          	4.604
MS.272         	9.115          	4.61
MS.273         	9.097          	4.611
MS.274         	9.08           	4.563
MS.275         	9.062          	4.626
MS.276         	9.042          	4.54
MS.277         	9.025          	4.563
MS.278         	9.007          	4.537
MS.279         	8.99           	4.539
MS.280         	8.972          	4.523
MS.281         	8.952          	4.536
MS.282         	8.935          	4.54
MS.283         	8.917          	4.553
MS.284         	8.9            	4.545
MS.285         	8.882          	4.506
MS.286         	8.865          	4.517
MS.287         	8.847          	4.492
MS.288         	8.83           	4.515
MS.289         	8.812          	4.374
MS.290         	8.795          	4.496
MS.291         	8.778          	4.443
MS.292         	8.757          	4.504
MS.293         	8.74           	4.354
MS.294         	8.725          	4.442
MS.295         	8.707          	4.488
MS.296         	8.69           	4.397
MS.297         	8.672          	4.396
MS.298         	8.655          	4.401
MS.299         	8.637          	4.353
MS.300         	8.62           	4.401
MS.301         	8.602          	4.465
MS.302         	8.585          	4.463
MS.303         	8.568          	4.435
MS.304         	8.55           	4.426
MS.305         	8.535          	4.368
MS.306         	8.517          	4.396
MS.307         	8.5            	4.37
MS.308         	8.483          	4.307
MS.309         	8.465          	4.36
MS.310         	8.45           	4.304
MS.311         	8.432          	4.221
MS.312         	8.415          	4.279
MS.313         	8.398          	4.304
MS.314         	8.382          	4.264
MS.315         	8.365          	4.283
MS.316         	8.347          	4.271
MS.317         	8.332          	4.337
MS.318         	8.315          	4.305
MS.319         	8.297          	4.285
MS.320         	8.283          	4.219
MS.321         	8.265          	4.266
MS.322         	8.247          	4.27
MS.323         	8.233          	4.299
MS.324         	8.215          	4.234
MS.325         	8.2            	4.225
MS.326         	8.182          	4.175
MS.327         	8.167          	4.219
MS.328         	8.15           	4.197
MS.329         	8.135          	4.255
MS.330         	8.117          	4.207
MS.331         	8.102          	4.23
MS.332         	8.085          	4.184
MS.333         	8.07           	4.194
MS.334         	8.052          	4.304
MS.335         	8.037          	4.3
MS.336         	8.02           	4.189
MS.337         	8.005          	4.213
MS.338         	7.99           	4.194
MS.339         	7.972          	4.16
MS.340         	7.957          	4.268
MS.341         	7.94           	4.227
MS.342         	7.925          	4.175
MS.343         	7.91           	4.202
MS.344         	7.892          	4.222
MS.345         	7.878          	4.225
MS.346         	7.862          	4.189
MS.347         	7.847          	4.208
MS.348         	7.83           	4.16
MS.349         	7.815          	4.061
MS.350         	7.8            	4.152
MS.351         	7.785          	4.196
MS.352         	7.767          	4.095
MS.353         	7.753          	4.047
MS.354         	7.737          	4.048
MS.355         	7.722          	4.136
MS.356         	7.707          	4.151
MS.357         	7.69           	4.096
MS.358         	7.675          	4.12
MS.359         	7.66           	3.94
MS.360         	7.645          	4.058
MS.361         	7.63           	4.039
MS.362         	7.615          	4.117
MS.363         	7.6            	4.013
MS.364         	7.585          	4.064
MS.365         	7.57           	4.087
MS.366         	7.555          	4.022
MS.367         	7.537          	4.036
MS.368         	7.523          	3.92
MS.369         	7.507          	3.934
MS.370         	7.492          	3.878
MS.371         	7.477          	3.96
MS.372         	7.462          	3.899
MS.373         	7.45           	3.875
MS.374         	7.435          	3.811
MS.375         	7.42           	3.802
MS.376         	7.405          	3.89
MS.377         	7.39           	3.765
MS.378         	7.375          	3.815
MS.379         	7.36           	3.788
MS.380         	7.345          	3.718
MS.381         	7.33           	3.688
MS.382         	7.315          	3.731
MS.383         	7.302          	3.74
MS.384         	7.287          	3.706
MS.385         	7.273          	3.77
MS.386         	7.257          	3.724
MS.387         	7.242          	3.663
MS.388         	7.227          	3.605
MS.389         	7.215          	3.678
MS.390         	7.2            	3.608
MS.391         	7.185          	3.557
MS.392         	7.17           	3.636
MS.393         	7.157          	3.542
MS.394         	7.142          	3.528
MS.395         	7.128          	3.541
MS.396         	7.115          	3.573
MS.397         	7.1            	3.593
MS.398         	7.085          	3.536
MS.399         	7.072          	3.554
MS.400         	7.057          	3.469
MS.401         	7.043          	3.445
MS.402         	7.03           	3.427
MS.403         	7.015          	3.524
MS.404         	7              	3.354
MS.405         	6.987          	3.333
MS.406         	6.972          	3.436
MS.407         	6.96           	3.464
MS.408         	6.945          	3.406
MS.409         	6.932          	3.328
MS.410         	6.918          	3.348
MS.411         	6.902          	3.366
MS.412         	6.89           	3.445
MS.413         	6.875          	3.24
MS.414         	6.862          	3.306
MS.415         	6.847          	3.247
MS.416         	6.835          	3.251
MS.417         	6.822          	3.216
MS.418         	6.807          	3.3
MS.419         	6.795          	3.265
MS.420         	6.78           	3.223
MS.421         	6.767          	3.186
MS.422         	6.753          	3.267
MS.423         	6.74           	3.213
MS.424         	6.727          	3.199
MS.425         	6.712          	3.098
MS.426         	6.7            	3.139
MS.427         	6.685          	3.116
MS.428         	6.672          	3.079
MS.429         	6.66           	3.106
MS.430         	6.645          	3.137
MS.431         	6.632          	3.171
MS.432         	6.62           	3.06
MS.433         	6.608          	3.157
MS.434         	6.592          	2.915
MS.435         	6.58           	3.018
MS.436         	6.567          	3.058
MS.437         	6.555          	2.917
MS.438         	6.54           	2.927
MS.439         	6.527          	2.931
MS.440         	6.515          	2.942
MS.441         	6.503          	2.947
MS.442         	6.487          	2.833
MS.443         	6.475          	2.762
MS.444         	6.462          	2.865
MS.445         	6.45           	2.771
MS.446         	6.438          	2.736
MS.447         	6.425          	2.734
MS.448         	6.41           	2.78
MS.449         	6.398          	2.661
MS.450         	6.385          	2.651
MS.451         	6.372          	2.609
MS.452         	6.36           	2.622
MS.453         	6.347          	2.626
MS.454         	6.335          	2.676
MS.455         	6.322          	2.44
MS.456         	6.31           	2.49
MS.457         	6.297          	2.641
MS.458         	6.285          	2.424
MS.459         	6.273          	2.363
MS.460         	6.26           	2.397
MS.461         	6.247          	2.255
MS.462         	6.235          	2.402
MS.463         	6.222          	2.358
MS.464         	6.21           	2.438
MS.465         	6.197          	2.328
MS.466         	6.185          	2.368
MS.467         	6.172          	2.261
MS.468         	6.16           	2.265
MS.469         	6.148          	2.252
MS.470         	6.135          	2.236
MS.471         	6.122          	2.271
MS.472         	6.11           	2.088
MS.473         	6.097          	2.091
MS.474         	6.088          	2.205
MS.475         	6.075          	2.099
MS.476         	6.062          	2.083
MS.477         	6.05           	2.127
MS.478         	6.037          	2.068
MS.479         	6.025          	2.151
MS.480         	6.015          	2.062
MS.481         	6.003          	1.929
MS.482         	5.99           	2.008
MS.483         	5.977          	1.881
MS.484         	5.965          	1.962
MS.485         	5.955          	1.997
MS.486         	5.942          	1.942
MS.487         	5.93           	1.781
MS.488         	5.918          	1.968
MS.489         	5.907          	1.902
MS.490         	5.895          	1.848
MS.491         	5.882          	1.824
MS.492         	5.87           	1.864
MS.493         	5.86           	1.753
MS.494         	5.847          	1.777
MS.495         	5.835          	1.711
MS.496         	5.825          	1.73
MS.497         	5.812          	1.608
MS.498         	5.8            	1.738
MS.499         	5.79           	1.738
MS.500         	5.777          	1.564
MS.501         	5.767          	1.634
MS.502         	5.755          	1.585
MS.503         	5.742          	1.62
MS.504         	5.733          	1.551
MS.505         	5.72           	1.474
MS.506         	5.71           	1.655
MS.507         	5.697          	1.611
MS.508         	5.685          	1.481
MS.509         	5.675          	1.504
MS.510         	5.662          	1.58
MS.511         	5.652          	1.454
MS.512         	5.64           	1.578
MS.513         	5.63           	1.373
MS.514         	5.617          	1.519
MS.515         	5.608          	1.407
MS.516         	5.595          	1.296
MS.517         	5.585          	1.354
MS.518         	5.572          	1.397
MS.519         	5.562          	1.238
MS.520         	5.552          	1.331
MS.521         	5.54           	1.334
MS.522         	5.53           	1.307
MS.523         	5.517          	1.278
MS.524         	5.507          	1.166
MS.525         	5.495          	1.229
MS.526         	5.485          	1.209
MS.527         	5.475          	1.226
MS.528         	5.463          	1.232
MS.529         	5.452          	1.208
MS.530         	5.443          	1.248
MS.531         	5.43           	1.199
MS.532         	5.42           	1.14
MS.533         	5.41           	1.204
MS.534         	5.398          	1.231
MS.535         	5.387          	1.174
MS.536         	5.378          	1.241
MS.537         	5.365          	1.113
MS.538         	5.355          	1.062
MS.539         	5.345          	1.216
MS.540         	5.332          	1.039
MS.541         	5.322          	1.061
MS.542         	5.312          	1.063
MS.543         	5.302          	1.061
MS.544         	5.29           	1.117
MS.545         	5.28           	1.044
MS.546         	5.27           	1.11
MS.547         	5.26           	1.022
MS.548         	5.25           	1.179
MS.549         	5.237          	0.975
MS.550         	5.227          	1.011
MS.551         	5.217          	1.035
MS.552         	5.207          	0.893
MS.553         	5.197          	0.895
MS.554         	5.188          	0.876
MS.555         	5.175          	0.887
MS.556         	5.165          	0.862
MS.557         	5.155          	0.928
MS.558         	5.145          	0.901
MS.559         	5.135          	0.901
MS.560         	5.125          	0.82
MS.561         	5.115          	0.747
MS.562         	5.105          	0.782
MS.563         	5.095          	0.674
MS.564         	5.085          	0.74
MS.565         	5.072          	0.704
MS.566         	5.062          	0.674
MS.567         	5.052          	0.786
MS.568         	5.043          	0.656
MS.569         	5.032          	0.69
MS.570         	5.023          	0.556
MS.571         	5.012          	0.695
MS.572         	5.003          	0.653
MS.573         	4.992          	0.624
MS.574         	4.983          	0.582
MS.575         	4.972          	0.59
MS.576         	4.963          	0.607
MS.577         	4.952          	0.62
MS.578         	4.943          	0.599
MS.579         	4.932          	0.581
MS.580         	4.922          	0.585
MS.581         	4.915          	0.579
MS.582         	4.905          	0.532
MS.583         	4.895          	0.56
MS.584         	4.885          	0.491
MS.585         	4.875          	0.454
MS.586         	4.865          	0.561
MS.587         	4.855          	0.452
MS.588         	4.845          	0.536
MS.589         	4.835          	0.455
MS.590         	4.825          	0.505
MS.591         	4.818          	0.536
MS.592         	4.807          	0.377
MS.593         	4.797          	0.434
MS.594         	4.787          	0.405
MS.595         	4.777          	0.4
MS.596         	4.767          	0.455
MS.597         	4.76           	0.334
MS.598         	4.75           	0.323
MS.599         	4.74           	0.349
MS.600         	4.73           	0.274
MS.601         	4.72           	0.318
MS.602         	4.713          	0.389
MS.603         	4.702          	0.342
MS.604         	4.693          	0.254
MS.605         	4.682          	0.282
MS.606         	4.675          	0.286
MS.607         	4.665          	0.344
MS.608         	4.655          	0.27
MS.609         	4.645          	0.316
MS.610         	4.637          	0.287
MS.611         	4.628          	0.297
MS.612         	4.617          	0.33
MS.613         	4.61           	0.273
MS.614         	4.6            	0.231
MS.615         	4.59           	0.242
MS.616         	4.582          	0.258
MS.617         	4.572          	0.284
MS.618         	4.562          	0.243
MS.619         	4.555          	0.245
MS.620         	4.545          	0.222
MS.621         	4.535          	0.251
MS.622         	4.527          	0.275
MS.623         	4.517          	0.28
MS.624         	4.51           	0.253
MS.625         	4.5            	0.298
MS.626         	4.49           	0.208
MS.627         	4.483          	0.208
MS.628         	4.472          	0.233
MS.629         	4.465          	0.247
MS.630         	4.455          	0.176
MS.631         	4.445          	0.197
MS.632         	4.438          	0.21
MS.633         	4.427          	0.215
MS.634         	4.42           	0.229
MS.635         	4.41           	0.199
MS.636         	4.402          	0.228
MS.637         	4.392          	0.241
MS.638         	4.385          	0.237
MS.639         	4.375          	0.233
MS.640         	4.367          	0.137
MS.641         	4.358          	0.177
MS.642         	4.35           	0.206
MS.643         	4.34           	0.202
MS.644         	4.332          	0.231
MS.645         	4.322          	0.178
MS.646         	4.315          	0.19
MS.647         	4.305          	0.208
MS.648         	4.298          	0.197
MS.649         	4.29           	0.148
MS.650         	4.28           	0.256
MS.651         	4.273          	0.181
MS.652         	4.262          	0.218
MS.653         	4.255          	0.164
MS.654         	4.247          	0.154
MS.655         	4.237          	0.172
MS.656         	4.23           	0.164
MS.657         	4.22           	0.177
MS.658         	4.213          	0.156
MS.659         	4.205          	0.133
MS.660         	4.195          	0.147
MS.661         	4.188          	0.147
MS.662         	4.18           	0.15
MS.663         	4.17           	0.147
MS.664         	4.162          	0.153
MS.665         	4.155          	0.153
MS.666         	4.145          	0.129
MS.667         	4.137          	0.098
MS.668         	4.13           	0.137
MS.669         	4.12           	0.113
MS.670         	4.112          	0.13
MS.671         	4.105          	0.095
MS.672         	4.095          	0.116
MS.673         	4.088          	0.099
MS.674         	4.08           	0.112
MS.675         	4.072          	0.115
MS.676         	4.062          	0.104
MS.677         	4.055          	0.095
MS.678         	4.048          	0.131
MS.679         	4.04           	0.112
MS.680         	4.03           	0.092
MS.681         	4.023          	0.09
MS.682         	4.015          	0.092
MS.683         	4.007          	0.101
MS.684         	4              	0.127
MS.685         	3.99           	0.1
MS.686         	3.982          	0.106
MS.687         	3.975          	0.1
MS.688         	3.967          	0.092
MS.689         	3.96           	0.112
MS.690         	3.952          	0.087
MS.691         	3.942          	0.098
MS.692         	3.935          	0.132
MS.693         	3.928          	0.103
MS.694         	3.92           	0.093
MS.695         	3.912          	0.107
MS.696         	3.905          	0.091
MS.697         	3.897          	0.095
MS.698         	3.887          	0.09
MS.699         	3.88           	0.092
MS.700         	3.872          	0.091
MS.701         	3.865          	0.092
MS.702         	3.857          	0.093
MS.703         	3.85           	0.092
MS.704         	3.842          	0.09
MS.705         	3.835          	0.09
MS.706         	3.827          	0.093
MS.707         	3.82           	0.088
MS.708         	3.812          	0.093
MS.709         	3.805          	0.091
MS.710         	3.797          	0.085
MS.711         	3.79           	0.09
MS.712         	3.78           	0.09
MS.713         	3.772          	0.09
MS.714         	3.765          	0.088
MS.715         	3.757          	0.088
MS.716         	3.75           	0.089
MS.717         	3.742          	0.09
MS.718         	3.735          	0.091
MS.719         	3.727          	0.085
MS.720         	3.72           	0.089
MS.721         	3.715          	0.09
MS.722         	3.707          	0.09
MS.723         	3.7            	0.087
MS.724         	3.692          	0.093
MS.725         	3.685          	0.096
MS.726         	3.678          	0.091
MS.727         	3.67           	0.09
MS.728         	3.662          	0.091
MS.729         	3.655          	0.092
MS.730         	3.647          	0.089
MS.731         	3.64           	0.099
MS.732         	3.632          	0.06
MS.733         	3.625          	0.093
MS.734         	3.617          	0.06
MS.735         	3.61           	0.088
MS.736         	3.605          	0.06
MS.737         	3.597          	0.062
MS.738         	3.59           	0.082
MS.739         	3.582          	0.086
MS.740         	3.575          	0.061
MS.741         	3.567          	0.086
MS.742         	3.56           	0.089
MS.743         	3.555          	0.089
MS.744         	3.547          	0.065
MS.745         	3.54           	0.093
MS.746         	3.533          	0.087
MS.747         	3.525          	0.06
MS.748         	3.517          	0.084
MS.749         	3.512          	0.092
MS.750         	3.505          	0.054
MS.751         	3.497          	0.073
MS.752         	3.49           	0.056
MS.753         	3.482          	0.063
MS.754         	3.477          	0.073
MS.755         	3.47           	0.063
MS.756         	3.462          	0.063
MS.757         	3.455          	0.053
MS.758         	3.45           	0.02
MS.759         	3.442          	0.053
MS.760         	3.435          	0.062
MS.761         	3.428          	0.029
MS.762         	3.422          	0.063
MS.763         	3.415          	0.063
MS.764         	3.408          	0.061
MS.765         	3.4            	0.023
MS.766         	3.395          	0.023
MS.767         	3.387          	0.072
MS.768         	3.38           	0.062
MS.769         	3.375          	0.031
MS.770         	3.367          	0.057
MS.771         	3.36           	0.022
MS.772         	3.352          	0.062
MS.773         	3.347          	0.062
MS.774         	3.34           	0.02
MS.775         	3.332          	0.052
MS.776         	3.327          	0.063
MS.777         	3.32           	0.02
MS.778         	3.312          	0.021
MS.779         	3.307          	0.062
MS.780         	3.3            	0.02
MS.781         	3.295          	0.063
MS.782         	3.287          	0.063
MS.783         	3.28           	0.057
MS.784         	3.275          	0.019
MS.785         	3.267          	0.017
MS.786         	3.26           	0.024
MS.787         	3.255          	0.013
MS.788         	3.247          	0.019
MS.789         	3.242          	0.019
MS.790         	3.235          	0.022
MS.791         	3.227          	0.029
MS.792         	3.222          	0.022
MS.793         	3.215          	0.062
MS.794         	3.21           	0.093
MS.795         	3.202          	0.016
MS.796         	3.197          	0.02
MS.797         	3.19           	0.06
MS.798         	3.182          	0.019
MS.799         	3.178          	0.018
MS.800         	3.17           	0.062
MS.801         	3.165          	0.017
MS.802         	3.158          	0.02
MS.803         	3.152          	0.017
MS.804         	3.145          	0.019
MS.805         	3.14           	0.028
MS.806         	3.132          	0.019
MS.807         	3.127          	0.045
MS.808         	3.12           	0.027
MS.809         	3.115          	0.031
MS.810         	3.107          	0.018
MS.811         	3.102          	0.034
MS.812         	3.095          	0.018
MS.813         	3.09           	0.02
MS.814         	3.082          	0.024
MS.815         	3.077          	0.02
MS.816         	3.07           	0.014
MS.817         	3.065          	0.021
MS.818         	3.06           	0.018
MS.819         	3.053          	0.016
MS.820         	3.047          	0.017
MS.821         	3.04           	0.016
MS.822         	3.035          	0.016
MS.823         	3.027          	0.018
MS.824         	3.023          	0.018
MS.825         	3.017          	0.018
MS.826         	3.01           	0.017
MS.827         	3.005          	0.018
MS.828         	2.997          	0.018
MS.829         	2.992          	0.016
MS.830         	2.987          	0.017
MS.831         	2.98           	0.02
MS.832         	2.975          	0.018
MS.833         	2.967          	0.018
MS.834         	2.962          	0.039
MS.835         	2.957          	0.021
MS.836         	2.95           	0.016
MS.837         	2.945          	0.016
MS.838         	2.94           	0.049
MS.839         	2.932          	0.018
MS.840         	2.928          	0.016
MS.841         	2.922          	0.018
MS.842         	2.915          	0.014
MS.843         	2.91           	0.016
MS.844         	2.905          	0.027
MS.845         	2.898          	0.018
MS.846         	2.892          	0.023
MS.847         	2.888          	0.016
MS.848         	2.88           	0.02
MS.849         	2.875          	0.016
MS.850         	2.87           	0.021
MS.851         	2.862          	0.017
MS.852         	2.857          	0.018
MS.853         	2.852          	0.016
MS.854         	2.847          	0.019
MS.855         	2.84           	0.015
MS.856         	2.835          	0.016
MS.857         	2.83           	0.016
MS.858         	2.822          	0.015
MS.859         	2.817          	0.021
MS.860         	2.812          	0.014
MS.861         	2.807          	0.02
MS.862         	2.8            	0.019
MS.863         	2.795          	0.014
MS.864         	2.79           	0.016
MS.865         	2.785          	0.027
MS.866         	2.78           	0.01
MS.867         	2.773          	0.016
MS.868         	2.767          	0.017
MS.869         	2.763          	0.031
MS.870         	2.757          	0.016
MS.871         	2.75           	0.016
MS.872         	2.745          	0.016
MS.873         	2.74           	0.057
MS.874         	2.735          	0.015
MS.875         	2.73           	0.016
MS.876         	2.725          	0.063
MS.877         	2.717          	0.017
MS.878         	2.712          	0.016
MS.879         	2.707          	0.016
MS.880         	2.702          	0.018
MS.881         	2.697          	0.017
MS.882         	2.692          	0.015
MS.883         	2.685          	0.017
MS.884         	2.68           	0.016
MS.885         	2.675          	0.027
MS.886         	2.67           	0.017
MS.887         	2.665          	0.018
MS.888         	2.66           	0.026
MS.889         	2.655          	0.016
MS.890         	2.648          	0.017
MS.891         	2.642          	0.016
MS.892         	2.638          	0.016
MS.893         	2.632          	0.015
MS.894         	2.628          	0.014
MS.895         	2.622          	0.017
MS.896         	2.617          	0.016
MS.897         	2.612          	0.02
MS.898         	2.607          	0.019
MS.899         	2.602          	0.015
MS.900         	2.595          	0.016
MS.901         	2.59           	0.015
MS.902         	2.585          	0.016
MS.903         	2.58           	0.016
MS.904         	2.575          	0.016
MS.905         	2.57           	0.013
MS.906         	2.565          	0.017
MS.907         	2.56           	0.015
MS.908         	2.555          	0.016
MS.909         	2.55           	0.015
MS.910         	2.545          	0.015
MS.911         	2.54           	0.028
MS.912         	2.535          	0.02
MS.913         	2.53           	0.018
MS.914         	2.525          	0.015
MS.915         	2.52           	0.038
MS.916         	2.515          	0.015
MS.917         	2.51           	0.018
MS.918         	2.505          	0.016
MS.919         	2.5            	0.014
MS.920         	2.495          	0.015
MS.921         	2.49           	0.015
MS.922         	2.485          	0.015
MS.923         	2.48           	0.015
MS.924         	2.475          	0.015
MS.925         	2.47           	0.017
MS.926         	2.465          	0.015
MS.927         	2.46           	0.014
MS.928         	2.455          	0.014
MS.929         	2.45           	0.012
MS.930         	2.445          	0.015
MS.931         	2.44           	0.014
MS.932         	2.435          	0.015
MS.933         	2.43           	0.015
MS.934         	2.425          	0.016
MS.935         	2.42           	0.015
MS.936         	2.415          	0.014
MS.937         	2.41           	0.015
MS.938         	2.405          	0.015
MS.939         	2.402          	0.01
MS.940         	2.398          	0.016
MS.941         	2.392          	0.018
MS.942         	2.388          	0.014
MS.943         	2.382          	0.015
MS.944         	2.378          	0.015
MS.945         	2.372          	0.026
MS.946         	2.367          	0.008
MS.947         	2.362          	0.022
MS.948         	2.357          	0.104
MS.949         	2.355          	0.015
MS.950         	2.35           	0.015
MS.951         	2.345          	0.015
MS.952         	2.34           	0.015
MS.953         	2.335          	0.015
MS.954         	2.33           	0.013
MS.955         	2.325          	0.016
MS.956         	2.32           	0.013
MS.957         	2.317          	0.015
MS.958         	2.312          	0.03
MS.959         	2.307          	0.013
MS.960         	2.303          	0.015
MS.961         	2.297          	0.016
MS.962         	2.293          	0.015
MS.963         	2.29           	0.016
DERIVED EXCITABILITY VARIABLES
Program = QTracP 27/06/2023
Threshold method = 6 (optimised for CAP, using data for present condition only)
SR method = 1 (using actual data values)
6.                 	0.000               	Peak response\(mV)
9.                 	33.7                	Temperature ( C)
17.                	23                  	Age (years)
18.                	1                   	Sex (M=1, F=2)

EXTRA VARIABLES

MScPeak(mV) = 5.12
MScS5(mA) = 4.58
MScS50(mA) = 6.31
MScS95(mA) = 10.96
MScNSteps = 1
MScSteps(%) = 2.3
MScStepMax(%) = 2.3
MScD50 = 78
MScSlope = 3.37
MScDuration(min) = 12.8
MSFTraces = 939
MSFPeakAmp(mV) = 5.12
MSFNUnits = 137
MSFMeanUnitAmp(uV) = 37.4
MSFHuntTime(m) = 2.5
MSFError(%) = 1.22
MSFNLarge = 44.71
MSFMedianAmp(%) = 0.648
MSFMedianAmp(mV) = 0.0332
MSFHalfAmpAmp(%) = 0.809
MSFHalfAmpAmp(mV) = 0.0414
MSFLargestAmp(%) = 2.16
MSFLargestAmp(mV) = 0.111
MSFMeanRS(%) = 2
MSFSizeLimit(uV) = 17.1
MSFLimitType = 1
MSFSmallestAmp(uV) = 17.4
MSFOpts = 10104222032
MSFSDMax = 13.4
MSFSDMin = 4.08

EXTRA WAVEFORMS


!MScan Model
!137
	1	3.32	0.56	2
	2	3.61	0.79	2
	3	4.13	0.84	2
	4	4.19	0.59	2
	5	4.33	0.81	2
	6	4.46	0.52	2
	7	4.57	0.88	2
	8	4.69	0.86	2
	9	4.74	0.68	2
	10	4.76	0.53	2
	11	4.78	0.65	2
	12	4.81	0.7	2
	13	4.85	1.04	2
	14	4.88	0.54	2
	15	4.91	0.67	2
	16	4.94	0.58	2
	17	4.98	0.68	2
	18	5.02	0.69	2
	19	5.05	0.59	2
	20	5.07	0.43	2
	21	5.08	0.62	2
	22	5.1	0.71	2
	23	5.11	1.32	2
	24	5.13	0.53	2
	25	5.15	0.86	2
	26	5.19	1.61	2
	27	5.21	0.89	2
	28	5.24	0.87	2
	29	5.38	1.01	2
	30	5.47	1.55	2
	31	5.51	0.67	2
	32	5.53	0.5	2
	33	5.56	1.19	2
	34	5.59	0.78	2
	35	5.61	0.39	2
	36	5.63	0.8	2
	37	5.7	2.16	2
	38	5.74	0.91	2
	39	5.77	0.66	2
	40	5.79	0.44	2
	41	5.8	0.48	2
	42	5.83	0.91	2
	43	5.85	0.99	2
	44	5.88	0.81	2
	45	5.91	1	2
	46	5.93	0.77	2
	47	5.96	1	2
	48	6	1.04	2
	49	6.03	0.68	2
	50	6.06	0.89	2
	51	6.09	1.37	2
	52	6.12	0.66	2
	53	6.14	0.73	2
	54	6.17	0.82	2
	55	6.21	1.28	2
	56	6.24	1	2
	57	6.26	0.52	2
	58	6.28	0.34	2
	59	6.29	0.8	2
	60	6.31	0.91	2
	61	6.33	1.08	2
	62	6.36	0.74	2
	63	6.37	0.6	2
	64	6.39	0.5	2
	65	6.4	0.51	2
	66	6.42	0.53	2
	67	6.43	0.62	2
	68	6.44	0.38	2
	69	6.45	0.4	2
	70	6.46	0.45	2
	71	6.47	0.35	2
	72	6.48	0.35	2
	73	6.5	0.49	2
	74	6.51	0.55	2
	75	6.53	0.37	2
	76	6.54	0.74	2
	77	6.55	0.61	2
	78	6.57	0.91	2
	79	6.67	1.95	2
	80	6.73	0.54	2
	81	6.75	0.48	2
	82	6.79	1.06	2
	83	6.83	0.68	2
	84	6.86	0.34	2
	85	6.88	0.56	2
	86	6.96	1.35	2
	87	6.99	0.59	2
	88	7.03	0.78	2
	89	7.08	0.97	2
	90	7.12	0.56	2
	91	7.14	0.63	2
	92	7.17	0.47	2
	93	7.19	0.38	2
	94	7.22	0.4	2
	95	7.24	0.45	2
	96	7.27	0.51	2
	97	7.29	0.52	2
	98	7.32	0.61	2
	99	7.37	0.78	2
	100	7.39	0.34	2
	101	7.4	0.34	2
	102	7.42	0.34	2
	103	7.44	0.6	2
	104	7.46	0.35	2
	105	7.47	1.42	2
	106	7.47	0.37	2
	107	7.49	0.38	2
	108	7.5	0.45	2
	109	7.52	0.38	2
	110	7.54	0.36	2
	111	7.65	1.96	2
	112	8.11	1.3	2.4
	113	8.38	1.29	2
	114	8.47	0.81	2
	115	8.49	0.42	2
	116	8.72	1.52	2
	117	8.79	0.59	2
	118	8.83	0.4	2
	119	8.92	0.93	2
	120	9	0.56	2
	121	9.08	0.48	2
	122	9.34	0.86	2
	123	9.45	0.63	2
	124	9.78	1.16	2
	125	9.99	0.89	2
	126	10.17	0.5	2
	127	10.35	0.51	2
	128	10.96	1.17	2
	129	11.49	0.73	2
	130	11.72	0.48	2
	131	12.05	0.57	2
	132	12.53	0.35	2
	133	12.99	0.34	2
	134	13.19	0.35	2
	135	13.99	0.48	2
	136	14.38	0.74	2
	137	14.6	0.81	2

