File:              	C:\Qtrac\Data\ME2C30622A.QZD
Name:              	 ME27D
Protocol:          	MSCAN-MV
Date:              	22/6/23
Date of birth:     	27/11/02
Age:               	20
Sex:               	M
Temperature:       	31.3
S/R sites:         	Knee CF-TA
NC/disease:        	NC
Operator:          	BY
Comments:
M-SCAN DATA (Repeat 4/4, 32.2-22.7m)
Scanpts: 18, 40, 661, 755
Stim. (mA)     	Amp. (mV)
MS.1           	7.5            	10.583
MS.2           	7.5            	10.609
MS.3           	7.5            	10.676
MS.4           	7.5            	10.661
MS.5           	7.5            	10.637
MS.6           	7.5            	10.71
MS.7           	7.5            	10.743
MS.8           	7.5            	10.782
MS.9           	7.5            	10.764
MS.10          	7.5            	10.707
MS.11          	7.5            	10.769
MS.12          	7.5            	10.784
MS.13          	7.5            	10.754
MS.14          	7.5            	10.73
MS.15          	7.5            	10.765
MS.16          	7.5            	10.771
MS.17          	7.5            	10.814
MS.18          	7.5            	10.832
MS.19          	7.5            	10.822
MS.20          	7.5            	10.795
MS.21          	7.5            	10.777
MS.22          	7.5            	10.781
MS.23          	7.5            	10.768
MS.24          	7.485          	10.779
MS.25          	7.47           	10.866
MS.26          	7.455          	10.727
MS.27          	7.44           	10.768
MS.28          	7.425          	10.789
MS.29          	7.41           	10.847
MS.30          	7.395          	10.829
MS.31          	7.38           	10.855
MS.32          	7.365          	10.767
MS.33          	7.352          	10.851
MS.34          	7.337          	10.782
MS.35          	7.322          	10.792
MS.36          	7.307          	10.799
MS.37          	7.293          	10.867
MS.38          	7.277          	10.867
MS.39          	7.265          	10.809
MS.40          	7.25           	10.734
MS.41          	7.235          	10.792
MS.42          	7.22           	10.741
MS.43          	7.205          	10.849
MS.44          	7.192          	10.733
MS.45          	7.177          	10.81
MS.46          	7.162          	10.788
MS.47          	7.148          	10.745
MS.48          	7.135          	10.709
MS.49          	7.12           	10.828
MS.50          	7.105          	10.757
MS.51          	7.092          	10.703
MS.52          	7.077          	10.716
MS.53          	7.062          	10.665
MS.54          	7.05           	10.692
MS.55          	7.035          	10.678
MS.56          	7.02           	10.676
MS.57          	7.007          	10.725
MS.58          	6.992          	10.225
MS.59          	6.98           	10.654
MS.60          	6.965          	10.761
MS.61          	6.95           	10.72
MS.62          	6.938          	10.649
MS.63          	6.922          	10.564
MS.64          	6.91           	10.718
MS.65          	6.895          	10.784
MS.66          	6.882          	10.759
MS.67          	6.867          	10.743
MS.68          	6.855          	10.636
MS.69          	6.84           	10.375
MS.70          	6.827          	10.639
MS.71          	6.812          	10.397
MS.72          	6.8            	10.586
MS.73          	6.787          	9.854
MS.74          	6.773          	10.259
MS.75          	6.76           	10.546
MS.76          	6.745          	10.491
MS.77          	6.733          	10.507
MS.78          	6.72           	10.262
MS.79          	6.705          	10.571
MS.80          	6.692          	10.035
MS.81          	6.677          	10.095
MS.82          	6.665          	10.081
MS.83          	6.652          	10.122
MS.84          	6.637          	10.043
MS.85          	6.625          	10.199
MS.86          	6.612          	9.824
MS.87          	6.6            	9.78
MS.88          	6.585          	10.023
MS.89          	6.572          	9.842
MS.90          	6.56           	9.818
MS.91          	6.547          	10.079
MS.92          	6.532          	10.06
MS.93          	6.52           	9.733
MS.94          	6.507          	9.934
MS.95          	6.495          	9.852
MS.96          	6.48           	9.716
MS.97          	6.467          	9.527
MS.98          	6.455          	9.76
MS.99          	6.442          	9.774
MS.100         	6.43           	9.606
MS.101         	6.418          	9.645
MS.102         	6.405          	9.913
MS.103         	6.39           	9.673
MS.104         	6.378          	9.664
MS.105         	6.365          	9.538
MS.106         	6.352          	9.354
MS.107         	6.34           	9.34
MS.108         	6.327          	9.507
MS.109         	6.315          	9.407
MS.110         	6.302          	9.542
MS.111         	6.29           	9.337
MS.112         	6.277          	9.383
MS.113         	6.265          	9.188
MS.114         	6.253          	9.352
MS.115         	6.24           	9.531
MS.116         	6.227          	9.349
MS.117         	6.215          	9.363
MS.118         	6.202          	9.185
MS.119         	6.19           	9.196
MS.120         	6.177          	9.261
MS.121         	6.165          	9.459
MS.122         	6.152          	9.301
MS.123         	6.14           	9.177
MS.124         	6.128          	9.229
MS.125         	6.115          	9.322
MS.126         	6.102          	9.359
MS.127         	6.092          	9.324
MS.128         	6.08           	9.045
MS.129         	6.067          	9.122
MS.130         	6.055          	9.479
MS.131         	6.043          	9.219
MS.132         	6.03           	9.387
MS.133         	6.02           	8.86
MS.134         	6.007          	9.209
MS.135         	5.995          	9.147
MS.136         	5.983          	9.083
MS.137         	5.97           	8.924
MS.138         	5.96           	9.014
MS.139         	5.947          	9.07
MS.140         	5.935          	9.083
MS.141         	5.922          	8.889
MS.142         	5.912          	8.822
MS.143         	5.9            	8.916
MS.144         	5.887          	8.825
MS.145         	5.875          	8.647
MS.146         	5.865          	8.67
MS.147         	5.852          	8.555
MS.148         	5.84           	8.613
MS.149         	5.83           	8.473
MS.150         	5.817          	8.657
MS.151         	5.805          	8.544
MS.152         	5.795          	8.391
MS.153         	5.782          	8.399
MS.154         	5.773          	8.726
MS.155         	5.76           	8.625
MS.156         	5.747          	8.33
MS.157         	5.737          	8.411
MS.158         	5.725          	8.142
MS.159         	5.715          	8.109
MS.160         	5.702          	8.582
MS.161         	5.69           	8.564
MS.162         	5.68           	7.983
MS.163         	5.668          	8.277
MS.164         	5.657          	8.391
MS.165         	5.645          	8.24
MS.166         	5.635          	7.766
MS.167         	5.622          	8.058
MS.168         	5.612          	8.04
MS.169         	5.6            	8.018
MS.170         	5.59           	8.19
MS.171         	5.577          	8.306
MS.172         	5.567          	7.852
MS.173         	5.555          	7.889
MS.174         	5.545          	7.744
MS.175         	5.535          	7.772
MS.176         	5.523          	7.787
MS.177         	5.512          	7.639
MS.178         	5.5            	7.895
MS.179         	5.49           	7.563
MS.180         	5.48           	7.388
MS.181         	5.467          	7.637
MS.182         	5.457          	7.616
MS.183         	5.445          	7.922
MS.184         	5.435          	7.139
MS.185         	5.425          	7.665
MS.186         	5.412          	7.17
MS.187         	5.402          	7.555
MS.188         	5.392          	7.106
MS.189         	5.38           	7.694
MS.190         	5.37           	7.381
MS.191         	5.36           	7.345
MS.192         	5.35           	7.316
MS.193         	5.338          	6.938
MS.194         	5.327          	7.363
MS.195         	5.318          	6.999
MS.196         	5.307          	6.948
MS.197         	5.295          	6.899
MS.198         	5.285          	6.893
MS.199         	5.275          	6.837
MS.200         	5.265          	6.779
MS.201         	5.253          	7.05
MS.202         	5.242          	6.787
MS.203         	5.233          	6.849
MS.204         	5.222          	6.337
MS.205         	5.213          	6.564
MS.206         	5.202          	6.457
MS.207         	5.19           	6.539
MS.208         	5.18           	6.139
MS.209         	5.17           	6.414
MS.210         	5.16           	6.367
MS.211         	5.15           	6.286
MS.212         	5.14           	6.281
MS.213         	5.13           	6.247
MS.214         	5.117          	6.278
MS.215         	5.108          	6.318
MS.216         	5.097          	6.143
MS.217         	5.088          	6.064
MS.218         	5.077          	6.379
MS.219         	5.068          	5.8
MS.220         	5.057          	6.46
MS.221         	5.047          	5.963
MS.222         	5.037          	6.176
MS.223         	5.027          	6.078
MS.224         	5.017          	5.715
MS.225         	5.007          	5.682
MS.226         	4.997          	5.983
MS.227         	4.987          	5.816
MS.228         	4.977          	5.613
MS.229         	4.967          	5.648
MS.230         	4.957          	5.518
MS.231         	4.947          	5.566
MS.232         	4.938          	5.434
MS.233         	4.927          	5.483
MS.234         	4.918          	5.297
MS.235         	4.907          	5.388
MS.236         	4.898          	5.29
MS.237         	4.887          	5.277
MS.238         	4.88           	5.149
MS.239         	4.87           	5.045
MS.240         	4.86           	5.118
MS.241         	4.85           	5.352
MS.242         	4.84           	4.887
MS.243         	4.83           	4.928
MS.244         	4.82           	5.062
MS.245         	4.81           	4.919
MS.246         	4.802          	4.745
MS.247         	4.793          	4.443
MS.248         	4.782          	4.67
MS.249         	4.773          	4.78
MS.250         	4.762          	4.384
MS.251         	4.753          	4.344
MS.252         	4.745          	4.113
MS.253         	4.735          	4.323
MS.254         	4.725          	4.447
MS.255         	4.715          	4.512
MS.256         	4.707          	4.375
MS.257         	4.697          	4.199
MS.258         	4.688          	4.163
MS.259         	4.677          	4.288
MS.260         	4.67           	3.878
MS.261         	4.66           	3.868
MS.262         	4.65           	4.21
MS.263         	4.64           	3.974
MS.264         	4.632          	3.78
MS.265         	4.622          	3.597
MS.266         	4.612          	3.614
MS.267         	4.605          	3.45
MS.268         	4.595          	3.68
MS.269         	4.585          	3.812
MS.270         	4.577          	3.486
MS.271         	4.568          	3.295
MS.272         	4.557          	3.263
MS.273         	4.55           	3.409
MS.274         	4.54           	3.275
MS.275         	4.53           	3.387
MS.276         	4.523          	3.117
MS.277         	4.512          	3.201
MS.278         	4.503          	3.157
MS.279         	4.495          	3.304
MS.280         	4.485          	3.3
MS.281         	4.477          	2.971
MS.282         	4.467          	2.957
MS.283         	4.46           	2.896
MS.284         	4.45           	2.929
MS.285         	4.44           	2.961
MS.286         	4.432          	2.866
MS.287         	4.423          	2.775
MS.288         	4.415          	2.623
MS.289         	4.405          	2.714
MS.290         	4.398          	2.743
MS.291         	4.387          	2.426
MS.292         	4.38           	2.414
MS.293         	4.37           	2.527
MS.294         	4.362          	2.601
MS.295         	4.352          	2.562
MS.296         	4.345          	2.451
MS.297         	4.335          	2.343
MS.298         	4.327          	2.265
MS.299         	4.318          	2.271
MS.300         	4.31           	2.275
MS.301         	4.3            	2.245
MS.302         	4.293          	2.216
MS.303         	4.285          	2.169
MS.304         	4.275          	2.119
MS.305         	4.267          	2.266
MS.306         	4.257          	1.902
MS.307         	4.25           	2.191
MS.308         	4.242          	2.138
MS.309         	4.233          	1.906
MS.310         	4.225          	2.053
MS.311         	4.215          	1.924
MS.312         	4.207          	1.81
MS.313         	4.2            	1.761
MS.314         	4.19           	1.905
MS.315         	4.182          	1.856
MS.316         	4.175          	1.737
MS.317         	4.165          	1.66
MS.318         	4.157          	1.566
MS.319         	4.15           	1.61
MS.320         	4.14           	1.728
MS.321         	4.132          	1.581
MS.322         	4.125          	1.49
MS.323         	4.115          	1.534
MS.324         	4.108          	1.538
MS.325         	4.1            	1.61
MS.326         	4.092          	1.652
MS.327         	4.082          	1.476
MS.328         	4.075          	1.662
MS.329         	4.068          	1.456
MS.330         	4.06           	1.501
MS.331         	4.05           	1.575
MS.332         	4.043          	1.409
MS.333         	4.035          	1.401
MS.334         	4.027          	1.531
MS.335         	4.017          	1.514
MS.336         	4.01           	1.429
MS.337         	4.003          	1.471
MS.338         	3.995          	1.497
MS.339         	3.987          	1.474
MS.340         	3.977          	1.423
MS.341         	3.97           	1.451
MS.342         	3.962          	1.456
MS.343         	3.955          	1.457
MS.344         	3.947          	1.412
MS.345         	3.94           	1.447
MS.346         	3.93           	1.384
MS.347         	3.922          	1.356
MS.348         	3.915          	1.447
MS.349         	3.908          	1.422
MS.350         	3.9            	1.432
MS.351         	3.892          	1.382
MS.352         	3.885          	1.432
MS.353         	3.877          	1.378
MS.354         	3.867          	1.361
MS.355         	3.86           	1.348
MS.356         	3.852          	1.296
MS.357         	3.845          	1.297
MS.358         	3.837          	1.323
MS.359         	3.83           	1.308
MS.360         	3.822          	1.311
MS.361         	3.815          	1.298
MS.362         	3.807          	1.311
MS.363         	3.8            	1.301
MS.364         	3.793          	1.296
MS.365         	3.785          	1.298
MS.366         	3.777          	1.307
MS.367         	3.77           	1.201
MS.368         	3.762          	1.241
MS.369         	3.755          	1.323
MS.370         	3.747          	1.226
MS.371         	3.74           	1.229
MS.372         	3.732          	1.27
MS.373         	3.725          	1.176
MS.374         	3.717          	1.188
MS.375         	3.71           	1.232
MS.376         	3.702          	1.18
MS.377         	3.695          	1.215
MS.378         	3.688          	1.201
MS.379         	3.68           	1.174
MS.380         	3.672          	1.132
MS.381         	3.665          	1.133
MS.382         	3.658          	1.1
MS.383         	3.65           	1.069
MS.384         	3.642          	1.118
MS.385         	3.635          	1.112
MS.386         	3.63           	1.108
MS.387         	3.622          	1.05
MS.388         	3.615          	1.094
MS.389         	3.607          	1.063
MS.390         	3.6            	1.031
MS.391         	3.592          	1.111
MS.392         	3.585          	1.027
MS.393         	3.577          	1.039
MS.394         	3.57           	0.984
MS.395         	3.565          	1.072
MS.396         	3.557          	1.014
MS.397         	3.55           	0.965
MS.398         	3.543          	0.996
MS.399         	3.535          	0.928
MS.400         	3.527          	1.006
MS.401         	3.523          	0.988
MS.402         	3.515          	0.916
MS.403         	3.507          	0.906
MS.404         	3.5            	1.034
MS.405         	3.492          	0.997
MS.406         	3.487          	0.917
MS.407         	3.48           	0.992
MS.408         	3.472          	0.936
MS.409         	3.465          	0.807
MS.410         	3.457          	0.787
MS.411         	3.452          	0.839
MS.412         	3.445          	0.731
MS.413         	3.438          	0.771
MS.414         	3.43           	0.76
MS.415         	3.425          	0.835
MS.416         	3.418          	0.723
MS.417         	3.41           	0.815
MS.418         	3.405          	0.707
MS.419         	3.398          	0.776
MS.420         	3.39           	0.722
MS.421         	3.382          	0.655
MS.422         	3.377          	0.707
MS.423         	3.37           	0.74
MS.424         	3.362          	0.715
MS.425         	3.357          	0.689
MS.426         	3.35           	0.72
MS.427         	3.342          	0.712
MS.428         	3.337          	0.694
MS.429         	3.33           	0.633
MS.430         	3.322          	0.629
MS.431         	3.317          	0.625
MS.432         	3.31           	0.665
MS.433         	3.303          	0.523
MS.434         	3.297          	0.653
MS.435         	3.29           	0.557
MS.436         	3.283          	0.594
MS.437         	3.277          	0.531
MS.438         	3.27           	0.559
MS.439         	3.265          	0.597
MS.440         	3.257          	0.526
MS.441         	3.25           	0.515
MS.442         	3.245          	0.517
MS.443         	3.237          	0.516
MS.444         	3.232          	0.485
MS.445         	3.225          	0.484
MS.446         	3.217          	0.523
MS.447         	3.212          	0.535
MS.448         	3.205          	0.499
MS.449         	3.2            	0.53
MS.450         	3.192          	0.508
MS.451         	3.188          	0.437
MS.452         	3.18           	0.46
MS.453         	3.172          	0.451
MS.454         	3.168          	0.455
MS.455         	3.16           	0.516
MS.456         	3.155          	0.483
MS.457         	3.148          	0.497
MS.458         	3.142          	0.439
MS.459         	3.135          	0.47
MS.460         	3.13           	0.424
MS.461         	3.122          	0.428
MS.462         	3.117          	0.375
MS.463         	3.11           	0.405
MS.464         	3.105          	0.408
MS.465         	3.097          	0.43
MS.466         	3.092          	0.396
MS.467         	3.085          	0.473
MS.468         	3.08           	0.456
MS.469         	3.075          	0.411
MS.470         	3.067          	0.387
MS.471         	3.062          	0.408
MS.472         	3.055          	0.364
MS.473         	3.05           	0.365
MS.474         	3.043          	0.373
MS.475         	3.037          	0.395
MS.476         	3.03           	0.347
MS.477         	3.025          	0.363
MS.478         	3.02           	0.334
MS.479         	3.013          	0.347
MS.480         	3.007          	0.336
MS.481         	3              	0.314
MS.482         	2.995          	0.345
MS.483         	2.99           	0.299
MS.484         	2.982          	0.28
MS.485         	2.977          	0.309
MS.486         	2.97           	0.28
MS.487         	2.965          	0.308
MS.488         	2.96           	0.223
MS.489         	2.952          	0.294
MS.490         	2.947          	0.254
MS.491         	2.942          	0.242
MS.492         	2.935          	0.258
MS.493         	2.93           	0.193
MS.494         	2.925          	0.188
MS.495         	2.918          	0.203
MS.496         	2.912          	0.19
MS.497         	2.908          	0.184
MS.498         	2.9            	0.195
MS.499         	2.895          	0.234
MS.500         	2.89           	0.162
MS.501         	2.882          	0.189
MS.502         	2.877          	0.176
MS.503         	2.872          	0.181
MS.504         	2.865          	0.184
MS.505         	2.86           	0.15
MS.506         	2.855          	0.157
MS.507         	2.85           	0.139
MS.508         	2.842          	0.147
MS.509         	2.837          	0.131
MS.510         	2.832          	0.116
MS.511         	2.825          	0.131
MS.512         	2.82           	0.135
MS.513         	2.815          	0.137
MS.514         	2.81           	0.131
MS.515         	2.803          	0.143
MS.516         	2.797          	0.099
MS.517         	2.793          	0.115
MS.518         	2.787          	0.11
MS.519         	2.783          	0.093
MS.520         	2.775          	0.078
MS.521         	2.77           	0.081
MS.522         	2.765          	0.094
MS.523         	2.76           	0.102
MS.524         	2.753          	0.076
MS.525         	2.747          	0.096
MS.526         	2.742          	0.078
MS.527         	2.737          	0.087
MS.528         	2.732          	0.083
MS.529         	2.725          	0.085
MS.530         	2.72           	0.06
MS.531         	2.715          	0.066
MS.532         	2.71           	0.083
MS.533         	2.705          	0.076
MS.534         	2.7            	0.077
MS.535         	2.692          	0.076
MS.536         	2.688          	0.084
MS.537         	2.682          	0.054
MS.538         	2.678          	0.073
MS.539         	2.672          	0.056
MS.540         	2.668          	0.068
MS.541         	2.662          	0.061
MS.542         	2.655          	0.046
MS.543         	2.65           	0.067
MS.544         	2.645          	0.059
MS.545         	2.64           	0.075
MS.546         	2.635          	0.06
MS.547         	2.63           	0.052
MS.548         	2.625          	0.063
MS.549         	2.62           	0.063
MS.550         	2.615          	0.046
MS.551         	2.61           	0.065
MS.552         	2.602          	0.055
MS.553         	2.597          	0.05
MS.554         	2.592          	0.053
MS.555         	2.587          	0.063
MS.556         	2.582          	0.046
MS.557         	2.577          	0.058
MS.558         	2.572          	0.044
MS.559         	2.567          	0.048
MS.560         	2.562          	0.051
MS.561         	2.557          	0.049
MS.562         	2.553          	0.051
MS.563         	2.547          	0.046
MS.564         	2.543          	0.048
MS.565         	2.537          	0.048
MS.566         	2.533          	0.047
MS.567         	2.527          	0.043
MS.568         	2.523          	0.05
MS.569         	2.517          	0.045
MS.570         	2.513          	0.046
MS.571         	2.507          	0.047
MS.572         	2.503          	0.045
MS.573         	2.497          	0.048
MS.574         	2.492          	0.044
MS.575         	2.487          	0.046
MS.576         	2.482          	0.046
MS.577         	2.477          	0.046
MS.578         	2.472          	0.046
MS.579         	2.467          	0.046
MS.580         	2.462          	0.046
MS.581         	2.457          	0.046
MS.582         	2.452          	0.046
MS.583         	2.447          	0.043
MS.584         	2.442          	0.043
MS.585         	2.438          	0.048
MS.586         	2.432          	0.17
MS.587         	2.428          	0.049
MS.588         	2.422          	0.049
MS.589         	2.418          	0.048
MS.590         	2.412          	0.047
MS.591         	2.408          	0.046
MS.592         	2.402          	0.048
MS.593         	2.398          	0.05
MS.594         	2.395          	0.044
MS.595         	2.39           	0.047
MS.596         	2.385          	0.046
MS.597         	2.38           	0.046
MS.598         	2.375          	0.048
MS.599         	2.37           	0.046
MS.600         	2.365          	0.045
MS.601         	2.36           	0.045
MS.602         	2.355          	0.043
MS.603         	2.35           	0.044
MS.604         	2.347          	0.044
MS.605         	2.342          	0.046
MS.606         	2.337          	0.046
MS.607         	2.332          	0.049
MS.608         	2.327          	0.044
MS.609         	2.322          	0.044
MS.610         	2.317          	0.043
MS.611         	2.315          	0.044
MS.612         	2.31           	0.046
MS.613         	2.305          	0.043
MS.614         	2.3            	0.045
MS.615         	2.295          	0.045
MS.616         	2.29           	0.043
MS.617         	2.285          	0.045
MS.618         	2.283          	0.044
MS.619         	2.277          	0.043
MS.620         	2.273          	0.045
MS.621         	2.267          	0.045
MS.622         	2.263          	0.043
MS.623         	2.26           	0.042
MS.624         	2.255          	0.046
MS.625         	2.25           	0.043
MS.626         	2.245          	0.041
MS.627         	2.24           	0.043
MS.628         	2.237          	0.042
MS.629         	2.232          	0.046
MS.630         	2.227          	0.039
MS.631         	2.222          	0.044
MS.632         	2.217          	0.042
MS.633         	2.215          	0.044
MS.634         	2.21           	0.043
MS.635         	2.205          	0.041
MS.636         	2.2            	0.042
MS.637         	2.197          	0.043
MS.638         	2.192          	0.046
MS.639         	2.188          	0.045
MS.640         	2.182          	0.043
MS.641         	2.18           	0.043
MS.642         	2.175          	0.045
MS.643         	2.17           	0.043
MS.644         	2.165          	0.041
MS.645         	2.162          	0.045
MS.646         	2.158          	0.043
MS.647         	2.152          	0.044
MS.648         	2.15           	0.041
MS.649         	2.145          	0.04
MS.650         	2.14           	0.042
MS.651         	2.135          	0.043
MS.652         	2.132          	0.041
MS.653         	2.128          	0.042
MS.654         	2.122          	0.042
MS.655         	2.12           	0.039
MS.656         	2.115          	0.045
MS.657         	2.11           	0.042
MS.658         	2.105          	0.048
MS.659         	2.102          	0.04
MS.660         	2.097          	0.042
MS.661         	2.092          	0.04
MS.662         	2.09           	0.043
MS.663         	2.085          	0.04
MS.664         	2.08           	0.045
MS.665         	2.077          	0.043
MS.666         	2.072          	0.042
MS.667         	2.067          	0.043
MS.668         	2.065          	0.04
MS.669         	2.06           	0.042
MS.670         	2.057          	0.04
MS.671         	2.053          	0.043
MS.672         	2.047          	0.04
MS.673         	2.045          	0.043
MS.674         	2.04           	0.038
MS.675         	2.035          	0.042
MS.676         	2.033          	0.043
MS.677         	2.027          	0.042
MS.678         	2.023          	0.042
MS.679         	2.02           	0.038
MS.680         	2.015          	0.04
MS.681         	2.013          	0.042
MS.682         	2.007          	0.04
MS.683         	2.003          	0.039
MS.684         	2              	0.039
MS.685         	1.995          	0.04
MS.686         	1.992          	0.042
MS.687         	1.987          	0.04
MS.688         	1.982          	0.04
MS.689         	1.98           	0.041
MS.690         	1.975          	0.041
MS.691         	1.972          	0.041
MS.692         	1.967          	0.043
MS.693         	1.965          	0.04
MS.694         	1.96           	0.042
MS.695         	1.955          	0.041
MS.696         	1.952          	0.041
MS.697         	1.947          	0.042
MS.698         	1.945          	0.042
MS.699         	1.94           	0.042
MS.700         	1.938          	0.04
MS.701         	1.933          	0.042
MS.702         	1.93           	0.04
MS.703         	1.925          	0.038
MS.704         	1.92           	0.042
MS.705         	1.917          	0.04
MS.706         	1.912          	0.039
MS.707         	1.91           	0.038
MS.708         	1.905          	0.036
MS.709         	1.902          	0.039
MS.710         	1.897          	0.04
MS.711         	1.895          	0.04
MS.712         	1.89           	0.04
MS.713         	1.887          	0.039
MS.714         	1.882          	0.04
MS.715         	1.88           	0.037
MS.716         	1.875          	0.038
MS.717         	1.872          	0.038
MS.718         	1.867          	0.039
MS.719         	1.865          	0.039
MS.720         	1.86           	0.038
MS.721         	1.857          	0.037
MS.722         	1.852          	0.042
MS.723         	1.85           	0.038
MS.724         	1.845          	0.039
MS.725         	1.842          	0.037
MS.726         	1.837          	0.038
MS.727         	1.835          	0.034
MS.728         	1.83           	0.038
MS.729         	1.827          	0.038
MS.730         	1.825          	0.038
MS.731         	1.82           	0.038
MS.732         	1.817          	0.038
MS.733         	1.812          	0.039
MS.734         	1.81           	0.038
MS.735         	1.805          	0.037
MS.736         	1.803          	0.037
MS.737         	1.798          	0.043
MS.738         	1.795          	0.038
MS.739         	1.79           	0.037
MS.740         	1.787          	0.039
MS.741         	1.785          	0.04
MS.742         	1.78           	0.038
MS.743         	1.777          	0.039
MS.744         	1.772          	0.037
MS.745         	1.77           	0.039
MS.746         	1.767          	0.031
MS.747         	1.762          	0.035
MS.748         	1.76           	0.038
MS.749         	1.755          	0.03
MS.750         	1.752          	0.037
MS.751         	1.75           	0.031
MS.752         	1.745          	0.039
MS.753         	1.742          	0.031
MS.754         	1.737          	0.031
MS.755         	1.735          	0.037
MS.756         	1.732          	0.031
DERIVED EXCITABILITY VARIABLES
Program = QTracP 05/05/2023
Threshold method = 6 (optimised for CAP, using data for present condition only)
SR method = 1 (using actual data values)
6.                 	0.000               	Peak response\(mV)
9.                 	31.3                	Temperature ( C)
17.                	20                  	Age (years)
18.                	1                   	Sex (M=1, F=2)

EXTRA VARIABLES

MScPeak(mV) = 10.7
MScS5(mA) = 3.26
MScS50(mA) = 4.91
MScS95(mA) = 6.7
MScNSteps = 1
MScSteps(%) = 2
MScStepMax(%) = 2
MScD50 = 68
MScSlope = 4.02
MScDuration(min) = 10.1
MSFTraces = 738
MSFPeakAmp(mV) = 10.8
MSFNUnits = 113
MSFMeanUnitAmp(uV) = 95.3
MSFHuntTime(m) = 2.12
MSFError(%) = 3.66
MSFNLarge = 31.13
MSFMedianAmp(%) = 0.708
MSFMedianAmp(mV) = 0.0762
MSFHalfAmpAmp(%) = 1.03
MSFHalfAmpAmp(mV) = 0.111
MSFLargestAmp(%) = 3.69
MSFLargestAmp(mV) = 0.397
MSFMeanRS(%) = 2
MSFSizeLimit(uV) = 35.8
MSFLimitType = 1
MSFSmallestAmp(uV) = 37.4
MSFOpts = 10104222032
MSFSDMax = 41.9
MSFSDMin = 2.85

EXTRA WAVEFORMS


!MScan Model
!113
	1	2.6	0.38	2
	2	2.8	0.55	2
	3	2.91	0.7	2
	4	2.95	0.5	2
	5	3.01	0.67	2
	6	3.06	0.56	2
	7	3.13	0.51	2
	8	3.19	0.4	2
	9	3.25	0.62	2
	10	3.3	0.56	2
	11	3.35	0.67	2
	12	3.39	0.5	2
	13	3.41	0.44	2
	14	3.44	0.4	2
	15	3.47	0.38	2
	16	3.49	0.38	2
	17	3.52	0.42	2
	18	3.56	0.46	2
	19	3.59	0.45	2
	20	3.62	0.36	2
	21	3.66	0.47	2
	22	3.7	0.41	2
	23	3.73	0.35	2
	24	3.77	0.47	2
	25	3.82	0.51	2
	26	3.9	0.62	2
	27	3.99	0.76	2
	28	4.07	1.03	2
	29	4.14	0.4	2
	30	4.17	0.7	2
	31	4.19	0.56	2
	32	4.2	0.54	2
	33	4.22	0.52	2
	34	4.24	0.53	2
	35	4.25	0.55	2
	36	4.27	0.48	2
	37	4.28	0.93	2
	38	4.28	0.49	2
	39	4.29	0.51	2
	40	4.3	0.52	2
	41	4.32	0.43	2
	42	4.33	0.47	2
	43	4.34	0.48	2
	44	4.35	0.48	2
	45	4.36	0.45	2
	46	4.37	0.45	2
	47	4.38	0.44	2
	48	4.39	0.46	2
	49	4.41	0.47	2
	50	4.42	0.48	2
	51	4.43	0.47	2
	52	4.44	0.52	2
	53	4.45	0.57	2
	54	4.47	0.57	2
	55	4.48	0.66	2
	56	4.5	0.7	2
	57	4.51	0.73	2
	58	4.53	0.73	2
	59	4.54	0.68	2
	60	4.55	0.68	2
	61	4.57	0.78	2
	62	4.59	0.8	2
	63	4.6	0.78	2
	64	4.62	0.81	2
	65	4.64	0.89	2
	66	4.65	0.87	2
	67	4.67	0.83	2
	68	4.69	0.84	2
	69	4.7	0.87	2
	70	4.72	0.83	2
	71	4.73	0.81	2
	72	4.75	0.79	2
	73	4.76	0.72	2
	74	4.78	0.71	2
	75	4.79	0.71	2
	76	4.81	0.7	2
	77	4.82	0.71	2
	78	4.83	0.71	2
	79	4.85	0.87	2
	80	4.87	1.03	2
	81	4.89	1.04	2
	82	4.91	0.98	2
	83	4.93	0.91	2
	84	4.95	1.07	2
	85	4.98	1.14	2
	86	5.01	1.02	2
	87	5.04	1.1	2
	88	5.07	1.28	2
	89	5.1	1.34	2
	90	5.14	1.82	2
	91	5.18	1.68	2
	92	5.22	1.04	2
	93	5.26	1.52	2
	94	5.3	1.33	2
	95	5.34	1.38	2
	96	5.38	1.66	2
	97	5.43	1.76	2
	98	5.49	2.1	2
	99	5.57	2.38	2
	100	5.65	1.88	2
	101	5.71	1.62	2
	102	5.77	1.61	2
	103	5.83	1.28	2
	104	5.89	1.81	2
	105	5.96	1.48	2
	106	6.07	1.85	2
	107	6.34	1.1	2
	108	6.42	1.45	2
	109	6.51	1.24	2
	110	6.51	2.63	2
	111	6.61	1.58	2
	112	6.72	3.69	2
	113	6.93	1.97	2

