File:              	C:\Qtrac\Data\ME2C30706A.QZD
Name:              	 SH18U
Protocol:          	MSCAN-MV
Date:              	6/7/23
Date of birth:     	18/6/94
Age:               	29
Sex:               	F
Temperature:       	28.4
S/R sites:         	Knee CF-TA
NC/disease:        	NC
Operator:          	BY
Comments:
M-SCAN DATA (Repeat 2/3, 18.3-11.7m)
Scanpts: 1, 13, 475, 546
Stim. (mA)     	Amp. (mV)
MS.1           	15             	5.3
MS.2           	15             	5.33
MS.3           	15             	5.306
MS.4           	15             	5.32
MS.5           	15             	5.291
MS.6           	15             	5.307
MS.7           	15             	5.312
MS.8           	15             	5.298
MS.9           	15             	5.314
MS.10          	15             	5.303
MS.11          	15             	5.306
MS.12          	15             	5.304
MS.13          	15             	5.317
MS.14          	15             	5.326
MS.15          	15             	5.329
MS.16          	15             	5.315
MS.17          	15             	5.3
MS.18          	15             	5.297
MS.19          	15             	5.291
MS.20          	15             	5.293
MS.21          	15             	5.297
MS.22          	15             	5.281
MS.23          	15             	5.307
MS.24          	14.97          	5.269
MS.25          	14.94          	5.267
MS.26          	14.91          	5.271
MS.27          	14.88          	5.255
MS.28          	14.85          	5.273
MS.29          	14.82          	5.264
MS.30          	14.792         	5.269
MS.31          	14.762         	5.266
MS.32          	14.733         	5.247
MS.33          	14.702         	5.247
MS.34          	14.672         	5.268
MS.35          	14.645         	5.257
MS.36          	14.615         	5.237
MS.37          	14.585         	5.244
MS.38          	14.557         	5.251
MS.39          	14.527         	5.209
MS.40          	14.497         	5.237
MS.41          	14.47          	5.251
MS.42          	14.44          	5.229
MS.43          	14.412         	5.207
MS.44          	14.382         	5.212
MS.45          	14.355         	5.2
MS.46          	14.325         	5.229
MS.47          	14.297         	5.198
MS.48          	14.267         	5.222
MS.49          	14.24          	5.224
MS.50          	14.212         	5.192
MS.51          	14.182         	5.193
MS.52          	14.155         	5.178
MS.53          	14.127         	5.215
MS.54          	14.097         	5.166
MS.55          	14.07          	5.143
MS.56          	14.042         	5.174
MS.57          	14.015         	5.178
MS.58          	13.985         	5.17
MS.59          	13.957         	5.181
MS.60          	13.93          	5.125
MS.61          	13.903         	5.129
MS.62          	13.875         	5.117
MS.63          	13.847         	5.123
MS.64          	13.82          	5.126
MS.65          	13.792         	5.076
MS.66          	13.765         	5.094
MS.67          	13.737         	5.11
MS.68          	13.71          	5.042
MS.69          	13.682         	5.025
MS.70          	13.655         	5.015
MS.71          	13.627         	5.051
MS.72          	13.6           	5.035
MS.73          	13.572         	5.043
MS.74          	13.545         	5.013
MS.75          	13.517         	4.958
MS.76          	13.492         	5.031
MS.77          	13.465         	4.958
MS.78          	13.438         	4.94
MS.79          	13.41          	4.959
MS.80          	13.385         	4.95
MS.81          	13.358         	4.937
MS.82          	13.33          	4.913
MS.83          	13.305         	4.92
MS.84          	13.278         	4.916
MS.85          	13.25          	4.857
MS.86          	13.225         	4.862
MS.87          	13.197         	4.847
MS.88          	13.172         	4.888
MS.89          	13.145         	4.857
MS.90          	13.12          	4.847
MS.91          	13.092         	4.821
MS.92          	13.068         	4.802
MS.93          	13.04          	4.85
MS.94          	13.015         	4.819
MS.95          	12.987         	4.768
MS.96          	12.962         	4.78
MS.97          	12.938         	4.62
MS.98          	12.91          	4.731
MS.99          	12.885         	4.651
MS.100         	12.86          	4.698
MS.101         	12.832         	4.722
MS.102         	12.807         	4.633
MS.103         	12.782         	4.628
MS.104         	12.757         	4.508
MS.105         	12.73          	4.578
MS.106         	12.705         	4.595
MS.107         	12.68          	4.555
MS.108         	12.655         	4.531
MS.109         	12.63          	4.514
MS.110         	12.605         	4.519
MS.111         	12.58          	4.517
MS.112         	12.555         	4.463
MS.113         	12.53          	4.468
MS.114         	12.505         	4.431
MS.115         	12.48          	4.375
MS.116         	12.455         	4.467
MS.117         	12.43          	4.364
MS.118         	12.405         	4.389
MS.119         	12.38          	4.423
MS.120         	12.355         	4.318
MS.121         	12.33          	4.342
MS.122         	12.305         	4.315
MS.123         	12.28          	4.325
MS.124         	12.257         	4.297
MS.125         	12.233         	4.29
MS.126         	12.207         	4.269
MS.127         	12.182         	4.276
MS.128         	12.16          	4.219
MS.129         	12.135         	4.2
MS.130         	12.11          	4.183
MS.131         	12.085         	4.152
MS.132         	12.062         	4.16
MS.133         	12.037         	4.135
MS.134         	12.012         	4.075
MS.135         	11.99          	4.088
MS.136         	11.965         	4.109
MS.137         	11.943         	4.037
MS.138         	11.917         	4.022
MS.139         	11.895         	4.005
MS.140         	11.87          	3.989
MS.141         	11.847         	3.94
MS.142         	11.822         	3.972
MS.143         	11.8           	3.871
MS.144         	11.775         	3.907
MS.145         	11.752         	3.871
MS.146         	11.73          	3.813
MS.147         	11.705         	3.709
MS.148         	11.682         	3.691
MS.149         	11.657         	3.766
MS.150         	11.635         	3.704
MS.151         	11.613         	3.615
MS.152         	11.59          	3.629
MS.153         	11.565         	3.647
MS.154         	11.542         	3.486
MS.155         	11.52          	3.481
MS.156         	11.497         	3.443
MS.157         	11.472         	3.547
MS.158         	11.45          	3.437
MS.159         	11.427         	3.434
MS.160         	11.405         	3.322
MS.161         	11.382         	3.394
MS.162         	11.36          	3.339
MS.163         	11.337         	3.308
MS.164         	11.315         	3.3
MS.165         	11.292         	3.275
MS.166         	11.27          	3.265
MS.167         	11.247         	3.23
MS.168         	11.225         	3.23
MS.169         	11.202         	3.06
MS.170         	11.18          	3.167
MS.171         	11.157         	3.15
MS.172         	11.135         	3.118
MS.173         	11.113         	3.086
MS.174         	11.09          	3.048
MS.175         	11.068         	3.038
MS.176         	11.045         	2.953
MS.177         	11.023         	2.976
MS.178         	11.002         	2.949
MS.179         	10.98          	2.874
MS.180         	10.957         	2.834
MS.181         	10.935         	2.87
MS.182         	10.915         	2.711
MS.183         	10.892         	2.825
MS.184         	10.87          	2.769
MS.185         	10.85          	2.701
MS.186         	10.827         	2.64
MS.187         	10.805         	2.65
MS.188         	10.785         	2.542
MS.189         	10.762         	2.537
MS.190         	10.74          	2.576
MS.191         	10.72          	2.491
MS.192         	10.698         	2.466
MS.193         	10.677         	2.467
MS.194         	10.655         	2.409
MS.195         	10.635         	2.377
MS.196         	10.613         	2.354
MS.197         	10.592         	2.401
MS.198         	10.57          	2.391
MS.199         	10.55          	2.325
MS.200         	10.528         	2.261
MS.201         	10.507         	2.195
MS.202         	10.485         	2.195
MS.203         	10.465         	2.172
MS.204         	10.445         	2.157
MS.205         	10.422         	2.084
MS.206         	10.403         	2.166
MS.207         	10.382         	2.071
MS.208         	10.36          	2.018
MS.209         	10.34          	2.071
MS.210         	10.32          	2.007
MS.211         	10.3           	1.977
MS.212         	10.278         	1.969
MS.213         	10.257         	1.953
MS.214         	10.238         	1.882
MS.215         	10.217         	1.868
MS.216         	10.198         	1.843
MS.217         	10.175         	1.786
MS.218         	10.155         	1.758
MS.219         	10.135         	1.837
MS.220         	10.115         	1.754
MS.221         	10.095         	1.689
MS.222         	10.075         	1.653
MS.223         	10.055         	1.669
MS.224         	10.035         	1.626
MS.225         	10.015         	1.625
MS.226         	9.995          	1.608
MS.227         	9.975          	1.541
MS.228         	9.955          	1.534
MS.229         	9.935          	1.484
MS.230         	9.915          	1.491
MS.231         	9.895          	1.541
MS.232         	9.875          	1.469
MS.233         	9.855          	1.433
MS.234         	9.835          	1.427
MS.235         	9.818          	1.407
MS.236         	9.797          	1.374
MS.237         	9.778          	1.308
MS.238         	9.757          	1.318
MS.239         	9.738          	1.281
MS.240         	9.717          	1.347
MS.241         	9.7            	1.27
MS.242         	9.68           	1.288
MS.243         	9.66           	1.279
MS.244         	9.64           	1.194
MS.245         	9.622          	1.169
MS.246         	9.602          	1.163
MS.247         	9.582          	1.149
MS.248         	9.565          	1.149
MS.249         	9.545          	1.096
MS.250         	9.525          	1.034
MS.251         	9.507          	1.073
MS.252         	9.488          	1.064
MS.253         	9.47           	0.971
MS.254         	9.45           	1.008
MS.255         	9.432          	0.974
MS.256         	9.412          	0.968
MS.257         	9.395          	0.941
MS.258         	9.375          	0.955
MS.259         	9.358          	0.875
MS.260         	9.337          	0.846
MS.261         	9.32           	0.887
MS.262         	9.3            	0.858
MS.263         	9.283          	0.799
MS.264         	9.262          	0.825
MS.265         	9.245          	0.822
MS.266         	9.225          	0.729
MS.267         	9.207          	0.738
MS.268         	9.19           	0.786
MS.269         	9.17           	0.764
MS.270         	9.153          	0.748
MS.271         	9.135          	0.729
MS.272         	9.115          	0.726
MS.273         	9.097          	0.739
MS.274         	9.08           	0.688
MS.275         	9.062          	0.674
MS.276         	9.042          	0.685
MS.277         	9.025          	0.607
MS.278         	9.007          	0.607
MS.279         	8.99           	0.638
MS.280         	8.972          	0.593
MS.281         	8.952          	0.551
MS.282         	8.935          	0.515
MS.283         	8.917          	0.519
MS.284         	8.9            	0.529
MS.285         	8.882          	0.513
MS.286         	8.865          	0.488
MS.287         	8.847          	0.406
MS.288         	8.83           	0.467
MS.289         	8.812          	0.477
MS.290         	8.795          	0.428
MS.291         	8.778          	0.433
MS.292         	8.757          	0.391
MS.293         	8.74           	0.364
MS.294         	8.725          	0.37
MS.295         	8.707          	0.376
MS.296         	8.69           	0.358
MS.297         	8.672          	0.374
MS.298         	8.655          	0.309
MS.299         	8.637          	0.341
MS.300         	8.62           	0.276
MS.301         	8.602          	0.293
MS.302         	8.585          	0.303
MS.303         	8.568          	0.272
MS.304         	8.55           	0.25
MS.305         	8.535          	0.291
MS.306         	8.517          	0.254
MS.307         	8.5            	0.222
MS.308         	8.483          	0.222
MS.309         	8.465          	0.212
MS.310         	8.45           	0.201
MS.311         	8.432          	0.188
MS.312         	8.415          	0.192
MS.313         	8.398          	0.16
MS.314         	8.382          	0.187
MS.315         	8.365          	0.178
MS.316         	8.347          	0.164
MS.317         	8.332          	0.173
MS.318         	8.315          	0.127
MS.319         	8.297          	0.12
MS.320         	8.283          	0.141
MS.321         	8.265          	0.134
MS.322         	8.247          	0.103
MS.323         	8.233          	0.1
MS.324         	8.215          	0.097
MS.325         	8.2            	0.093
MS.326         	8.182          	0.093
MS.327         	8.167          	0.099
MS.328         	8.15           	0.061
MS.329         	8.135          	0.099
MS.330         	8.117          	0.089
MS.331         	8.102          	0.082
MS.332         	8.085          	0.085
MS.333         	8.07           	0.062
MS.334         	8.052          	0.072
MS.335         	8.037          	0.062
MS.336         	8.02           	0.051
MS.337         	8.005          	0.078
MS.338         	7.99           	0.055
MS.339         	7.972          	0.041
MS.340         	7.957          	0.032
MS.341         	7.94           	0.047
MS.342         	7.925          	0.044
MS.343         	7.91           	0.04
MS.344         	7.892          	0.023
MS.345         	7.878          	0.031
MS.346         	7.862          	0.006
MS.347         	7.847          	0.013
MS.348         	7.83           	0.032
MS.349         	7.815          	0.045
MS.350         	7.8            	0.031
MS.351         	7.785          	0.04
MS.352         	7.767          	0.036
MS.353         	7.753          	0.013
MS.354         	7.737          	0.01
MS.355         	7.722          	0.019
MS.356         	7.707          	0.004
MS.357         	7.69           	0.018
MS.358         	7.675          	-0.002
MS.359         	7.66           	-0.012
MS.360         	7.645          	0.001
MS.361         	7.63           	0.02
MS.362         	7.615          	-0.002
MS.363         	7.6            	-0.006
MS.364         	7.585          	-0.003
MS.365         	7.57           	0.004
MS.366         	7.555          	-0.018
MS.367         	7.537          	-0.031
MS.368         	7.523          	-0.018
MS.369         	7.507          	-0.035
MS.370         	7.492          	-0.035
MS.371         	7.477          	-0.021
MS.372         	7.462          	-0.024
MS.373         	7.45           	-0.038
MS.374         	7.435          	-0.024
MS.375         	7.42           	-0.029
MS.376         	7.405          	-0.048
MS.377         	7.39           	-0.035
MS.378         	7.375          	-0.035
MS.379         	7.36           	-0.043
MS.380         	7.345          	-0.039
MS.381         	7.33           	-0.04
MS.382         	7.315          	-0.043
MS.383         	7.302          	-0.044
MS.384         	7.287          	-0.052
MS.385         	7.273          	-0.059
MS.386         	7.257          	-0.048
MS.387         	7.242          	-0.052
MS.388         	7.227          	-0.049
MS.389         	7.215          	-0.065
MS.390         	7.2            	-0.061
MS.391         	7.185          	-0.052
MS.392         	7.17           	-0.056
MS.393         	7.157          	-0.058
MS.394         	7.142          	-0.049
MS.395         	7.128          	-0.049
MS.396         	7.115          	-0.053
MS.397         	7.1            	-0.06
MS.398         	7.085          	-0.057
MS.399         	7.072          	-0.063
MS.400         	7.057          	-0.068
MS.401         	7.043          	-0.052
MS.402         	7.03           	-0.066
MS.403         	7.015          	-0.061
MS.404         	7              	-0.06
MS.405         	6.987          	-0.059
MS.406         	6.972          	-0.07
MS.407         	6.96           	-0.068
MS.408         	6.945          	-0.062
MS.409         	6.932          	-0.067
MS.410         	6.918          	-0.055
MS.411         	6.902          	-0.068
MS.412         	6.89           	-0.063
MS.413         	6.875          	-0.059
MS.414         	6.862          	-0.067
MS.415         	6.847          	-0.064
MS.416         	6.835          	-0.067
MS.417         	6.822          	-0.065
MS.418         	6.807          	-0.065
MS.419         	6.795          	-0.058
MS.420         	6.78           	-0.065
MS.421         	6.767          	-0.063
MS.422         	6.753          	-0.065
MS.423         	6.74           	-0.064
MS.424         	6.727          	-0.066
MS.425         	6.712          	-0.067
MS.426         	6.7            	-0.06
MS.427         	6.685          	-0.065
MS.428         	6.672          	-0.062
MS.429         	6.66           	-0.063
MS.430         	6.645          	-0.068
MS.431         	6.632          	-0.068
MS.432         	6.62           	-0.063
MS.433         	6.608          	-0.065
MS.434         	6.592          	-0.062
MS.435         	6.58           	-0.065
MS.436         	6.567          	-0.065
MS.437         	6.555          	-0.063
MS.438         	6.54           	-0.062
MS.439         	6.527          	-0.064
MS.440         	6.515          	-0.065
MS.441         	6.503          	-0.064
MS.442         	6.487          	-0.063
MS.443         	6.475          	-0.065
MS.444         	6.462          	-0.057
MS.445         	6.45           	-0.06
MS.446         	6.438          	-0.06
MS.447         	6.425          	-0.058
MS.448         	6.41           	-0.059
MS.449         	6.398          	-0.06
MS.450         	6.385          	-0.067
MS.451         	6.372          	-0.06
MS.452         	6.36           	-0.062
MS.453         	6.347          	-0.059
MS.454         	6.335          	-0.064
MS.455         	6.322          	-0.057
MS.456         	6.31           	-0.061
MS.457         	6.297          	-0.061
MS.458         	6.285          	-0.062
MS.459         	6.273          	-0.059
MS.460         	6.26           	-0.061
MS.461         	6.247          	-0.062
MS.462         	6.235          	-0.063
MS.463         	6.222          	-0.057
MS.464         	6.21           	-0.057
MS.465         	6.197          	-0.067
MS.466         	6.185          	-0.062
MS.467         	6.172          	-0.061
MS.468         	6.16           	-0.061
MS.469         	6.148          	-0.059
MS.470         	6.135          	-0.052
MS.471         	6.122          	-0.06
MS.472         	6.11           	-0.059
MS.473         	6.097          	-0.058
MS.474         	6.088          	-0.059
MS.475         	6.075          	-0.063
MS.476         	6.062          	-0.057
MS.477         	6.05           	-0.054
MS.478         	6.037          	-0.062
MS.479         	6.025          	-0.062
MS.480         	6.015          	-0.056
MS.481         	6.003          	-0.056
MS.482         	5.99           	-0.057
MS.483         	5.977          	-0.063
MS.484         	5.965          	-0.061
MS.485         	5.955          	-0.057
MS.486         	5.942          	-0.062
MS.487         	5.93           	-0.062
MS.488         	5.918          	-0.061
MS.489         	5.907          	-0.056
MS.490         	5.895          	-0.062
MS.491         	5.882          	-0.055
MS.492         	5.87           	-0.057
MS.493         	5.86           	-0.055
MS.494         	5.847          	-0.056
MS.495         	5.835          	-0.059
MS.496         	5.825          	-0.062
MS.497         	5.812          	-0.054
MS.498         	5.8            	-0.058
MS.499         	5.79           	-0.057
MS.500         	5.777          	-0.056
MS.501         	5.767          	-0.057
MS.502         	5.755          	-0.057
MS.503         	5.742          	-0.059
MS.504         	5.733          	-0.056
MS.505         	5.72           	-0.054
MS.506         	5.71           	-0.059
MS.507         	5.697          	-0.061
MS.508         	5.685          	-0.052
MS.509         	5.675          	-0.059
MS.510         	5.662          	-0.059
MS.511         	5.652          	-0.058
MS.512         	5.64           	-0.056
MS.513         	5.63           	-0.058
MS.514         	5.617          	-0.054
MS.515         	5.608          	-0.054
MS.516         	5.595          	-0.052
MS.517         	5.585          	-0.055
MS.518         	5.572          	-0.06
MS.519         	5.562          	-0.052
MS.520         	5.552          	-0.048
MS.521         	5.54           	-0.051
MS.522         	5.53           	-0.051
MS.523         	5.517          	-0.052
MS.524         	5.507          	-0.058
MS.525         	5.495          	-0.052
MS.526         	5.485          	-0.057
MS.527         	5.475          	-0.053
MS.528         	5.463          	-0.054
MS.529         	5.452          	-0.052
MS.530         	5.443          	-0.054
MS.531         	5.43           	-0.051
MS.532         	5.42           	-0.054
MS.533         	5.41           	-0.055
MS.534         	5.398          	-0.052
MS.535         	5.387          	-0.054
MS.536         	5.378          	-0.052
MS.537         	5.365          	-0.054
MS.538         	5.355          	-0.052
MS.539         	5.345          	-0.052
MS.540         	5.332          	-0.048
MS.541         	5.322          	-0.051
MS.542         	5.312          	-0.054
MS.543         	5.302          	-0.053
MS.544         	5.29           	-0.047
MS.545         	5.28           	-0.052
MS.546         	5.27           	-0.052
DERIVED EXCITABILITY VARIABLES
Program = QTracP 27/06/2023
Threshold method = 6 (optimised for CAP, using data for present condition only)
SR method = 1 (using actual data values)
6.                 	0.000               	Peak response\(mV)
9.                 	28.4                	Temperature ( C)
17.                	29                  	Age (years)
18.                	2                   	Sex (M=1, F=2)

EXTRA VARIABLES

MScPeak(mV) = 5.36
MScS5(mA) = 8.54
MScS50(mA) = 10.84
MScS95(mA) = 13.77
MScNSteps = 0
MScSteps(%) = 0.0
MScStepMax(%) = 0.0
MScD50 = 57
MScSlope = 4.99
MScDuration(min) = 7.3
MSFTraces = 546
MSFPeakAmp(mV) = 5.36
MSFNUnits = 198
MSFMeanUnitAmp(uV) = 27.1
MSFHuntTime(m) = 2.55
MSFError(%) = 0.932
MSFNLarge = 76.66
MSFMedianAmp(%) = 0.449
MSFMedianAmp(mV) = 0.0241
MSFHalfAmpAmp(%) = 0.511
MSFHalfAmpAmp(mV) = 0.0274
MSFLargestAmp(%) = 1.1
MSFLargestAmp(mV) = 0.0589
MSFMeanRS(%) = 2
MSFSizeLimit(uV) = 17.9
MSFLimitType = 1
MSFSmallestAmp(uV) = 18
MSFOpts = 10104222032
MSFSDMax = 9.92
MSFSDMin = 3.81

EXTRA WAVEFORMS


!MScan Model
!198
	1	7.46	0.68	1.6
	2	7.72	0.64	2
	3	7.95	0.61	2
	4	8.05	0.35	2
	5	8.14	0.38	2
	6	8.24	0.6	2
	7	8.31	0.43	2
	8	8.39	0.69	2
	9	8.44	0.51	2
	10	8.49	0.66	2
	11	8.56	0.61	2
	12	8.62	0.61	2
	13	8.66	0.57	2
	14	8.69	0.41	2
	15	8.72	0.38	2
	16	8.76	0.44	2
	17	8.79	0.4	2
	18	8.81	0.34	2
	19	8.83	0.38	2
	20	8.88	0.67	2
	21	8.9	0.36	2
	22	8.92	0.42	2
	23	8.94	0.36	2
	24	8.98	0.66	2
	25	9.01	0.53	2
	26	9.04	0.43	2
	27	9.08	0.6	2
	28	9.11	0.59	2
	29	9.15	0.53	2
	30	9.18	0.51	2
	31	9.22	0.44	2
	32	9.25	0.46	2
	33	9.28	0.34	2
	34	9.3	0.39	2
	35	9.32	0.4	2
	36	9.35	0.53	2
	37	9.38	0.54	2
	38	9.41	0.58	2
	39	9.44	0.57	2
	40	9.47	0.52	2
	41	9.5	0.59	2
	42	9.52	0.36	2
	43	9.54	0.41	2
	44	9.56	0.38	2
	45	9.59	0.7	2
	46	9.61	0.39	2
	47	9.63	0.38	2
	48	9.65	0.38	2
	49	9.67	0.39	2
	50	9.68	0.4	2
	51	9.7	0.39	2
	52	9.72	0.46	2
	53	9.75	0.45	2
	54	9.77	0.4	2
	55	9.79	0.4	2
	56	9.81	0.42	2
	57	9.83	0.37	2
	58	9.85	0.34	2
	59	9.86	0.34	2
	60	9.88	0.35	2
	61	9.9	0.34	2
	62	9.93	0.61	2
	63	9.95	0.36	2
	64	9.96	0.39	2
	65	9.98	0.39	2
	66	10.01	0.65	2
	67	10.03	0.48	2
	68	10.05	0.38	2
	69	10.07	0.43	2
	70	10.09	0.48	2
	71	10.11	0.57	2
	72	10.14	0.59	2
	73	10.16	0.58	2
	74	10.19	0.74	2
	75	10.22	0.8	2
	76	10.24	0.43	2
	77	10.26	0.41	2
	78	10.28	0.37	2
	79	10.29	0.4	2
	80	10.31	0.38	2
	81	10.33	0.37	2
	82	10.34	0.39	2
	83	10.36	0.45	2
	84	10.38	0.48	2
	85	10.41	0.4	2
	86	10.43	0.42	2
	87	10.45	0.45	2
	88	10.47	0.4	2
	89	10.48	0.38	2
	90	10.5	0.41	2
	91	10.5	0.44	2
	92	10.52	0.42	2
	93	10.54	0.42	2
	94	10.56	0.41	2
	95	10.57	0.38	2
	96	10.59	0.4	2
	97	10.61	0.44	2
	98	10.63	0.43	2
	99	10.65	0.49	2
	100	10.67	0.67	2
	101	10.7	0.73	2
	102	10.72	0.57	2
	103	10.73	0.38	2
	104	10.75	0.37	2
	105	10.76	0.38	2
	106	10.79	0.61	2
	107	10.81	0.34	2
	108	10.82	0.41	2
	109	10.84	0.41	2
	110	10.85	0.4	2
	111	10.86	0.41	2
	112	10.88	0.41	2
	113	10.89	0.41	2
	114	10.91	0.42	2
	115	10.92	0.41	2
	116	10.94	0.48	2
	117	10.97	0.66	2
	118	10.99	0.65	2
	119	11.01	0.59	2
	120	11.04	0.56	2
	121	11.06	0.58	2
	122	11.08	0.45	2
	123	11.1	0.39	2
	124	11.11	0.39	2
	125	11.13	0.36	2
	126	11.14	0.37	2
	127	11.17	0.46	2
	128	11.2	0.69	2
	129	11.23	0.73	2
	130	11.26	0.65	2
	131	11.29	0.62	2
	132	11.32	0.69	2
	133	11.36	0.66	1.8
	134	11.39	0.69	2
	135	11.42	0.58	2
	136	11.45	0.51	2
	137	11.47	0.78	2
	138	11.5	0.58	2
	139	11.53	0.64	2
	140	11.56	0.58	2
	141	11.58	0.62	2
	142	11.61	0.65	2
	143	11.63	0.55	2
	144	11.65	0.53	2
	145	11.67	0.49	2
	146	11.69	0.45	2
	147	11.71	0.46	2
	148	11.73	0.52	2
	149	11.75	0.51	2
	150	11.77	0.5	2
	151	11.79	0.49	2
	152	11.81	0.41	2
	153	11.83	0.4	2
	154	11.85	0.41	2
	155	11.87	0.39	2
	156	11.89	0.38	2
	157	11.91	0.48	2
	158	11.93	0.4	2
	159	11.97	0.67	2
	160	12.02	0.67	2
	161	12.04	0.38	2
	162	12.06	0.34	2
	163	12.1	0.65	2
	164	12.15	0.64	2
	165	12.19	0.57	2
	166	12.24	0.65	2
	167	12.28	0.53	2
	168	12.32	0.44	2
	169	12.36	0.44	2
	170	12.39	0.44	2
	171	12.43	0.46	2
	172	12.47	0.43	2
	173	12.52	0.62	2
	174	12.59	0.74	2
	175	12.66	0.81	2
	176	12.74	0.87	2
	177	12.81	0.96	2
	178	12.88	1.02	2
	179	12.97	0.78	2
	180	13.06	1.1	2
	181	13.14	0.83	2
	182	13.23	0.87	2
	183	13.29	0.45	2
	184	13.35	0.39	2
	185	13.41	0.49	2
	186	13.47	0.39	2
	187	13.54	0.49	2
	188	13.61	0.49	2
	189	13.67	0.44	2
	190	13.73	0.41	2
	191	13.8	0.45	2
	192	13.88	0.38	2
	193	13.99	0.65	2
	194	14.14	0.65	2
	195	14.4	0.66	2
	196	14.62	0.43	2
	197	14.83	0.42	2
	198	15.03	0.37	2

