File:              	C:\Qtrac\Data\Daniel M Sørensen\MScan multicentre study\Data from centres\Toronto\Processed data\MSCC01120F.QZD
Name:              	CA.TOR.NC.5.2
Protocol:          	MSCAN-R2
Date:              	20/11/20
Start time:        	14:28:12
Age:               	53
Sex:               	M
Temperature:       	31.1
S/R sites:         	TA
NC/disease:        	NC
Operator:          	LP
Comments:
M-SCAN DATA (Repeat 3/3, 13.9-6.6m)
Scanpts: 5, 11, 660, 670
Stim. (mA)     	Amp. (mV)
MS.1           	22.5           	5.583
MS.2           	22.5           	5.575
MS.3           	22.455         	5.533
MS.4           	22.41          	5.531
MS.5           	22.365         	5.53
MS.6           	22.32          	5.516
MS.7           	22.275         	5.57
MS.8           	22.233         	5.546
MS.9           	22.188         	5.551
MS.10          	22.142         	5.554
MS.11          	22.097         	5.518
MS.12          	22.055         	5.521
MS.13          	22.01          	5.509
MS.14          	21.967         	5.531
MS.15          	21.922         	5.563
MS.16          	21.877         	5.544
MS.17          	21.835         	5.516
MS.18          	21.792         	5.542
MS.19          	21.747         	5.485
MS.20          	21.705         	5.508
MS.21          	21.66          	5.525
MS.22          	21.618         	5.477
MS.23          	21.575         	5.531
MS.24          	21.532         	5.502
MS.25          	21.487         	5.502
MS.26          	21.445         	5.52
MS.27          	21.403         	5.515
MS.28          	21.36          	5.511
MS.29          	21.317         	5.516
MS.30          	21.275         	5.514
MS.31          	21.233         	5.471
MS.32          	21.19          	5.466
MS.33          	21.147         	5.485
MS.34          	21.105         	5.487
MS.35          	21.062         	5.469
MS.36          	21.02          	5.502
MS.37          	20.98          	5.47
MS.38          	20.938         	5.443
MS.39          	20.895         	5.464
MS.40          	20.852         	5.481
MS.41          	20.812         	5.494
MS.42          	20.77          	5.488
MS.43          	20.727         	5.466
MS.44          	20.688         	5.486
MS.45          	20.645         	5.465
MS.46          	20.605         	5.45
MS.47          	20.562         	5.468
MS.48          	20.522         	5.468
MS.49          	20.483         	5.455
MS.50          	20.44          	5.46
MS.51          	20.4           	5.421
MS.52          	20.36          	5.461
MS.53          	20.317         	5.463
MS.54          	20.278         	5.432
MS.55          	20.237         	5.443
MS.56          	20.198         	5.42
MS.57          	20.157         	5.433
MS.58          	20.115         	5.439
MS.59          	20.075         	5.402
MS.60          	20.035         	5.4
MS.61          	19.995         	5.404
MS.62          	19.955         	5.439
MS.63          	19.915         	5.428
MS.64          	19.875         	5.364
MS.65          	19.837         	5.354
MS.66          	19.797         	5.365
MS.67          	19.757         	5.404
MS.68          	19.717         	5.41
MS.69          	19.677         	5.38
MS.70          	19.64          	5.376
MS.71          	19.6           	5.381
MS.72          	19.56          	5.283
MS.73          	19.522         	5.371
MS.74          	19.483         	5.342
MS.75          	19.442         	5.358
MS.76          	19.405         	5.353
MS.77          	19.365         	5.358
MS.78          	19.327         	5.311
MS.79          	19.288         	5.278
MS.80          	19.25          	5.291
MS.81          	19.212         	5.244
MS.82          	19.172         	5.326
MS.83          	19.135         	5.294
MS.84          	19.097         	5.331
MS.85          	19.057         	5.33
MS.86          	19.02          	5.305
MS.87          	18.983         	5.277
MS.88          	18.945         	5.233
MS.89          	18.907         	5.219
MS.90          	18.87          	5.222
MS.91          	18.83          	5.309
MS.92          	18.792         	5.31
MS.93          	18.755         	5.209
MS.94          	18.717         	5.286
MS.95          	18.68          	5.222
MS.96          	18.645         	5.229
MS.97          	18.608         	5.175
MS.98          	18.57          	5.165
MS.99          	18.532         	5.146
MS.100         	18.495         	5.193
MS.101         	18.458         	5.157
MS.102         	18.422         	5.239
MS.103         	18.385         	5.167
MS.104         	18.347         	5.154
MS.105         	18.312         	5.173
MS.106         	18.275         	5.208
MS.107         	18.237         	5.103
MS.108         	18.202         	5.162
MS.109         	18.165         	5.176
MS.110         	18.13          	5.156
MS.111         	18.092         	5.176
MS.112         	18.057         	5.103
MS.113         	18.02          	5.125
MS.114         	17.985         	5.179
MS.115         	17.948         	5.154
MS.116         	17.913         	5.149
MS.117         	17.878         	5.156
MS.118         	17.842         	5.151
MS.119         	17.805         	5.151
MS.120         	17.77          	5.137
MS.121         	17.735         	5.278
MS.122         	17.7           	5.118
MS.123         	17.665         	5.09
MS.124         	17.628         	5.247
MS.125         	17.592         	5.208
MS.126         	17.557         	5.122
MS.127         	17.522         	5.078
MS.128         	17.487         	5.079
MS.129         	17.452         	5.168
MS.130         	17.417         	5.17
MS.131         	17.382         	5.231
MS.132         	17.347         	5.175
MS.133         	17.315         	5.007
MS.134         	17.28          	5.121
MS.135         	17.245         	5.101
MS.136         	17.21          	5.061
MS.137         	17.175         	5.167
MS.138         	17.142         	5.145
MS.139         	17.108         	5.203
MS.140         	17.073         	5.17
MS.141         	17.04          	5.177
MS.142         	17.005         	5.165
MS.143         	16.97          	5.153
MS.144         	16.938         	5.183
MS.145         	16.903         	5.128
MS.146         	16.87          	5.137
MS.147         	16.835         	5.144
MS.148         	16.802         	5.132
MS.149         	16.767         	5.168
MS.150         	16.735         	5.125
MS.151         	16.702         	5.133
MS.152         	16.667         	5.1
MS.153         	16.635         	5.133
MS.154         	16.602         	5.107
MS.155         	16.567         	5.12
MS.156         	16.535         	5.153
MS.157         	16.503         	5.083
MS.158         	16.47          	5.076
MS.159         	16.438         	5.105
MS.160         	16.405         	5.116
MS.161         	16.37          	5.083
MS.162         	16.337         	5.072
MS.163         	16.305         	5.081
MS.164         	16.272         	5.062
MS.165         	16.24          	5.06
MS.166         	16.208         	5.06
MS.167         	16.175         	5.039
MS.168         	16.142         	5.022
MS.169         	16.11          	5.01
MS.170         	16.08          	4.996
MS.171         	16.047         	5.012
MS.172         	16.015         	4.988
MS.173         	15.983         	4.998
MS.174         	15.95          	5.027
MS.175         	15.92          	4.946
MS.176         	15.887         	4.967
MS.177         	15.855         	4.984
MS.178         	15.825         	4.98
MS.179         	15.792         	4.923
MS.180         	15.76          	4.952
MS.181         	15.73          	4.918
MS.182         	15.697         	4.944
MS.183         	15.667         	4.958
MS.184         	15.635         	4.944
MS.185         	15.605         	4.927
MS.186         	15.572         	4.919
MS.187         	15.542         	4.927
MS.188         	15.51          	4.905
MS.189         	15.48          	4.954
MS.190         	15.447         	4.85
MS.191         	15.417         	4.93
MS.192         	15.387         	4.821
MS.193         	15.355         	4.955
MS.194         	15.325         	4.783
MS.195         	15.295         	4.822
MS.196         	15.265         	4.869
MS.197         	15.235         	4.807
MS.198         	15.202         	4.835
MS.199         	15.172         	4.783
MS.200         	15.142         	4.833
MS.201         	15.112         	4.847
MS.202         	15.082         	4.835
MS.203         	15.052         	4.795
MS.204         	15.023         	4.779
MS.205         	14.992         	4.725
MS.206         	14.962         	4.803
MS.207         	14.932         	4.774
MS.208         	14.902         	4.801
MS.209         	14.872         	4.78
MS.210         	14.842         	4.74
MS.211         	14.812         	4.783
MS.212         	14.782         	4.744
MS.213         	14.755         	4.779
MS.214         	14.725         	4.767
MS.215         	14.695         	4.781
MS.216         	14.665         	4.735
MS.217         	14.637         	4.719
MS.218         	14.608         	4.756
MS.219         	14.577         	4.74
MS.220         	14.55          	4.698
MS.221         	14.52          	4.713
MS.222         	14.49          	4.708
MS.223         	14.462         	4.675
MS.224         	14.432         	4.65
MS.225         	14.405         	4.707
MS.226         	14.375         	4.658
MS.227         	14.347         	4.658
MS.228         	14.318         	4.698
MS.229         	14.29          	4.662
MS.230         	14.26          	4.696
MS.231         	14.233         	4.631
MS.232         	14.205         	4.637
MS.233         	14.175         	4.658
MS.234         	14.148         	4.607
MS.235         	14.12          	4.635
MS.236         	14.09          	4.625
MS.237         	14.062         	4.606
MS.238         	14.035         	4.591
MS.239         	14.007         	4.615
MS.240         	13.977         	4.617
MS.241         	13.95          	4.589
MS.242         	13.922         	4.576
MS.243         	13.895         	4.558
MS.244         	13.867         	4.535
MS.245         	13.84          	4.585
MS.246         	13.812         	4.576
MS.247         	13.785         	4.563
MS.248         	13.757         	4.584
MS.249         	13.73          	4.534
MS.250         	13.702         	4.572
MS.251         	13.675         	4.514
MS.252         	13.648         	4.482
MS.253         	13.62          	4.497
MS.254         	13.592         	4.51
MS.255         	13.565         	4.513
MS.256         	13.537         	4.518
MS.257         	13.51          	4.452
MS.258         	13.485         	4.49
MS.259         	13.457         	4.481
MS.260         	13.43          	4.418
MS.261         	13.403         	4.495
MS.262         	13.377         	4.449
MS.263         	13.35          	4.459
MS.264         	13.322         	4.47
MS.265         	13.297         	4.417
MS.266         	13.27          	4.407
MS.267         	13.242         	4.404
MS.268         	13.217         	4.408
MS.269         	13.19          	4.374
MS.270         	13.165         	4.39
MS.271         	13.137         	4.358
MS.272         	13.112         	4.387
MS.273         	13.085         	4.312
MS.274         	13.06          	4.353
MS.275         	13.032         	4.327
MS.276         	13.007         	4.392
MS.277         	12.983         	4.272
MS.278         	12.955         	4.235
MS.279         	12.93          	4.283
MS.280         	12.903         	4.219
MS.281         	12.877         	4.229
MS.282         	12.852         	4.12
MS.283         	12.827         	4.252
MS.284         	12.8           	4.114
MS.285         	12.775         	4.111
MS.286         	12.75          	4.012
MS.287         	12.725         	4.105
MS.288         	12.7           	4.171
MS.289         	12.672         	4.071
MS.290         	12.648         	3.925
MS.291         	12.622         	3.947
MS.292         	12.597         	4.027
MS.293         	12.572         	3.997
MS.294         	12.547         	3.956
MS.295         	12.523         	3.873
MS.296         	12.497         	3.89
MS.297         	12.472         	3.834
MS.298         	12.447         	3.812
MS.299         	12.422         	3.94
MS.300         	12.398         	3.804
MS.301         	12.372         	3.855
MS.302         	12.347         	3.76
MS.303         	12.322         	3.829
MS.304         	12.3           	3.824
MS.305         	12.275         	3.615
MS.306         	12.25          	3.657
MS.307         	12.225         	3.718
MS.308         	12.2           	3.556
MS.309         	12.177         	3.533
MS.310         	12.153         	3.514
MS.311         	12.127         	3.484
MS.312         	12.102         	3.688
MS.313         	12.08          	3.47
MS.314         	12.055         	3.546
MS.315         	12.032         	3.563
MS.316         	12.007         	3.405
MS.317         	11.983         	3.325
MS.318         	11.96          	3.317
MS.319         	11.935         	3.26
MS.320         	11.912         	3.245
MS.321         	11.887         	3.27
MS.322         	11.865         	3.263
MS.323         	11.84          	3.174
MS.324         	11.818         	3.18
MS.325         	11.792         	3.22
MS.326         	11.77          	3.258
MS.327         	11.745         	3.12
MS.328         	11.722         	3.336
MS.329         	11.7           	3.125
MS.330         	11.675         	3.215
MS.331         	11.653         	3.081
MS.332         	11.63          	3.171
MS.333         	11.605         	3.062
MS.334         	11.582         	3.097
MS.335         	11.56          	3.02
MS.336         	11.537         	3.068
MS.337         	11.512         	2.949
MS.338         	11.49          	2.971
MS.339         	11.467         	2.905
MS.340         	11.445         	2.927
MS.341         	11.422         	2.803
MS.342         	11.4           	2.833
MS.343         	11.375         	2.827
MS.344         	11.352         	2.864
MS.345         	11.33          	2.872
MS.346         	11.307         	2.854
MS.347         	11.285         	2.737
MS.348         	11.262         	2.805
MS.349         	11.24          	2.797
MS.350         	11.217         	2.816
MS.351         	11.195         	2.802
MS.352         	11.172         	2.656
MS.353         	11.15          	2.665
MS.354         	11.127         	2.646
MS.355         	11.108         	2.677
MS.356         	11.085         	2.733
MS.357         	11.062         	2.689
MS.358         	11.04          	2.593
MS.359         	11.017         	2.498
MS.360         	10.995         	2.542
MS.361         	10.975         	2.573
MS.362         	10.952         	2.561
MS.363         	10.93          	2.555
MS.364         	10.907         	2.548
MS.365         	10.887         	2.421
MS.366         	10.865         	2.399
MS.367         	10.842         	2.515
MS.368         	10.823         	2.413
MS.369         	10.8           	2.344
MS.370         	10.778         	2.461
MS.371         	10.757         	2.39
MS.372         	10.735         	2.355
MS.373         	10.712         	2.373
MS.374         	10.693         	2.36
MS.375         	10.67          	2.351
MS.376         	10.65          	2.185
MS.377         	10.627         	2.323
MS.378         	10.608         	2.158
MS.379         	10.585         	2.207
MS.380         	10.565         	2.12
MS.381         	10.542         	2.167
MS.382         	10.523         	2.278
MS.383         	10.502         	2.195
MS.384         	10.48          	2.122
MS.385         	10.46          	2.147
MS.386         	10.438         	2.256
MS.387         	10.417         	2.026
MS.388         	10.398         	2.117
MS.389         	10.375         	1.87
MS.390         	10.355         	2.114
MS.391         	10.335         	2.098
MS.392         	10.315         	1.986
MS.393         	10.292         	1.877
MS.394         	10.273         	2.124
MS.395         	10.252         	1.873
MS.396         	10.233         	1.89
MS.397         	10.212         	1.877
MS.398         	10.19          	1.783
MS.399         	10.17          	1.813
MS.400         	10.15          	1.793
MS.401         	10.13          	1.782
MS.402         	10.11          	1.921
MS.403         	10.09          	1.802
MS.404         	10.07          	1.808
MS.405         	10.05          	1.766
MS.406         	10.03          	1.737
MS.407         	10.01          	1.702
MS.408         	9.99           	1.685
MS.409         	9.97           	1.608
MS.410         	9.95           	1.62
MS.411         	9.93           	1.616
MS.412         	9.91           	1.553
MS.413         	9.89           	1.515
MS.414         	9.87           	1.573
MS.415         	9.85           	1.624
MS.416         	9.83           	1.532
MS.417         	9.81           	1.542
MS.418         	9.792          	1.476
MS.419         	9.773          	1.445
MS.420         	9.752          	1.526
MS.421         	9.733          	1.498
MS.422         	9.712          	1.588
MS.423         	9.695          	1.459
MS.424         	9.675          	1.475
MS.425         	9.655          	1.282
MS.426         	9.635          	1.467
MS.427         	9.617          	1.489
MS.428         	9.597          	1.439
MS.429         	9.577          	1.429
MS.430         	9.56           	1.204
MS.431         	9.54           	1.367
MS.432         	9.52           	1.311
MS.433         	9.502          	1.14
MS.434         	9.483          	1.215
MS.435         	9.465          	1.237
MS.436         	9.445          	1.173
MS.437         	9.427          	1.27
MS.438         	9.407          	1.262
MS.439         	9.39           	1.189
MS.440         	9.37           	1.206
MS.441         	9.352          	1.168
MS.442         	9.332          	1.161
MS.443         	9.315          	1.035
MS.444         	9.295          	1.106
MS.445         	9.278          	0.995
MS.446         	9.257          	1.014
MS.447         	9.24           	0.997
MS.448         	9.222          	0.995
MS.449         	9.202          	0.95
MS.450         	9.185          	0.908
MS.451         	9.165          	1.006
MS.452         	9.148          	0.992
MS.453         	9.13           	0.992
MS.454         	9.113          	1.073
MS.455         	9.092          	0.962
MS.456         	9.075          	1.011
MS.457         	9.057          	1.058
MS.458         	9.037          	0.984
MS.459         	9.02           	0.901
MS.460         	9.002          	0.991
MS.461         	8.985          	0.942
MS.462         	8.967          	0.791
MS.463         	8.95           	0.93
MS.464         	8.93           	0.808
MS.465         	8.912          	0.846
MS.466         	8.895          	0.852
MS.467         	8.877          	0.845
MS.468         	8.86           	0.825
MS.469         	8.842          	0.811
MS.470         	8.825          	0.803
MS.471         	8.807          	0.754
MS.472         	8.79           	0.819
MS.473         	8.773          	0.803
MS.474         	8.755          	0.797
MS.475         	8.738          	0.764
MS.476         	8.72           	0.834
MS.477         	8.702          	0.797
MS.478         	8.685          	0.857
MS.479         	8.667          	0.851
MS.480         	8.65           	0.763
MS.481         	8.632          	0.688
MS.482         	8.615          	0.732
MS.483         	8.597          	0.696
MS.484         	8.58           	0.646
MS.485         	8.562          	0.704
MS.486         	8.547          	0.643
MS.487         	8.53           	0.776
MS.488         	8.512          	0.714
MS.489         	8.495          	0.704
MS.490         	8.477          	0.673
MS.491         	8.462          	0.719
MS.492         	8.445          	0.702
MS.493         	8.427          	0.618
MS.494         	8.41           	0.693
MS.495         	8.395          	0.646
MS.496         	8.377          	0.625
MS.497         	8.36           	0.585
MS.498         	8.345          	0.586
MS.499         	8.327          	0.662
MS.500         	8.31           	0.59
MS.501         	8.295          	0.56
MS.502         	8.278          	0.519
MS.503         	8.26           	0.5
MS.504         	8.245          	0.504
MS.505         	8.227          	0.465
MS.506         	8.212          	0.458
MS.507         	8.195          	0.521
MS.508         	8.177          	0.472
MS.509         	8.162          	0.47
MS.510         	8.145          	0.53
MS.511         	8.13           	0.463
MS.512         	8.113          	0.408
MS.513         	8.097          	0.485
MS.514         	8.08           	0.487
MS.515         	8.065          	0.414
MS.516         	8.047          	0.444
MS.517         	8.033          	0.413
MS.518         	8.017          	0.463
MS.519         	8              	0.386
MS.520         	7.985          	0.391
MS.521         	7.967          	0.465
MS.522         	7.952          	0.391
MS.523         	7.938          	0.372
MS.524         	7.92           	0.391
MS.525         	7.905          	0.343
MS.526         	7.89           	0.388
MS.527         	7.872          	0.383
MS.528         	7.857          	0.391
MS.529         	7.842          	0.349
MS.530         	7.827          	0.323
MS.531         	7.81           	0.323
MS.532         	7.795          	0.323
MS.533         	7.78           	0.32
MS.534         	7.765          	0.306
MS.535         	7.747          	0.352
MS.536         	7.732          	0.298
MS.537         	7.717          	0.27
MS.538         	7.702          	0.27
MS.539         	7.688          	0.308
MS.540         	7.672          	0.267
MS.541         	7.655          	0.265
MS.542         	7.64           	0.267
MS.543         	7.625          	0.238
MS.544         	7.61           	0.256
MS.545         	7.595          	0.272
MS.546         	7.58           	0.249
MS.547         	7.565          	0.238
MS.548         	7.55           	0.244
MS.549         	7.535          	0.233
MS.550         	7.52           	0.238
MS.551         	7.505          	0.237
MS.552         	7.49           	0.243
MS.553         	7.475          	0.24
MS.554         	7.46           	0.222
MS.555         	7.445          	0.254
MS.556         	7.43           	0.22
MS.557         	7.415          	0.233
MS.558         	7.4            	0.255
MS.559         	7.385          	0.19
MS.560         	7.37           	0.221
MS.561         	7.355          	0.233
MS.562         	7.342          	0.237
MS.563         	7.327          	0.215
MS.564         	7.312          	0.215
MS.565         	7.297          	0.209
MS.566         	7.282          	0.219
MS.567         	7.267          	0.219
MS.568         	7.253          	0.214
MS.569         	7.24           	0.198
MS.570         	7.225          	0.222
MS.571         	7.21           	0.208
MS.572         	7.195          	0.168
MS.573         	7.182          	0.214
MS.574         	7.168          	0.179
MS.575         	7.152          	0.177
MS.576         	7.137          	0.193
MS.577         	7.125          	0.181
MS.578         	7.11           	0.217
MS.579         	7.095          	0.205
MS.580         	7.082          	0.164
MS.581         	7.067          	0.168
MS.582         	7.052          	0.146
MS.583         	7.04           	0.171
MS.584         	7.025          	0.166
MS.585         	7.01           	0.181
MS.586         	6.997          	0.155
MS.587         	6.983          	0.137
MS.588         	6.97           	0.083
MS.589         	6.955          	0.146
MS.590         	6.942          	0.144
MS.591         	6.927          	0.155
MS.592         	6.915          	0.142
MS.593         	6.9            	0.146
MS.594         	6.885          	0.095
MS.595         	6.872          	0.159
MS.596         	6.858          	0.128
MS.597         	6.845          	0.14
MS.598         	6.832          	0.132
MS.599         	6.817          	0.078
MS.600         	6.805          	0.078
MS.601         	6.79           	0.071
MS.602         	6.777          	0.066
MS.603         	6.762          	0.066
MS.604         	6.75           	0.066
MS.605         	6.737          	0.068
MS.606         	6.722          	0.062
MS.607         	6.71           	0.132
MS.608         	6.695          	0.077
MS.609         	6.682          	0.072
MS.610         	6.67           	0.068
MS.611         	6.655          	0.066
MS.612         	6.642          	0.126
MS.613         	6.63           	0.071
MS.614         	6.615          	0.063
MS.615         	6.602          	0.051
MS.616         	6.59           	0.061
MS.617         	6.577          	0.059
MS.618         	6.562          	0.072
MS.619         	6.55           	0.063
MS.620         	6.537          	0.071
MS.621         	6.525          	0.055
MS.622         	6.51           	0.059
MS.623         	6.497          	0.057
MS.624         	6.485          	0.057
MS.625         	6.472          	0.052
MS.626         	6.46           	0.073
MS.627         	6.447          	0.054
MS.628         	6.432          	0.074
MS.629         	6.42           	0.038
MS.630         	6.407          	0.062
MS.631         	6.395          	0.059
MS.632         	6.382          	0.045
MS.633         	6.37           	0.05
MS.634         	6.358          	0.028
MS.635         	6.345          	0.035
MS.636         	6.332          	0.068
MS.637         	6.317          	0.022
MS.638         	6.305          	0.039
MS.639         	6.293          	0.027
MS.640         	6.28           	0.042
MS.641         	6.267          	0.026
MS.642         	6.255          	0.028
MS.643         	6.242          	0.043
MS.644         	6.23           	0.043
MS.645         	6.217          	0.023
MS.646         	6.205          	0.021
MS.647         	6.192          	0.026
MS.648         	6.18           	0.028
MS.649         	6.17           	0.05
MS.650         	6.157          	0.027
MS.651         	6.145          	0.027
MS.652         	6.132          	0.027
MS.653         	6.12           	0.028
MS.654         	6.108          	0.024
MS.655         	6.095          	0.023
MS.656         	6.082          	0.027
MS.657         	6.07           	0.038
MS.658         	6.06           	0.022
MS.659         	6.047          	0.026
MS.660         	6.035          	0.027
MS.661         	6.023          	0.024
MS.662         	6.01           	0.022
MS.663         	5.997          	0.023
MS.664         	5.987          	0.004
MS.665         	5.975          	0.024
MS.666         	5.963          	0.026
MS.667         	5.95           	0.026
MS.668         	5.94           	0.024
MS.669         	5.927          	0.024
MS.670         	5.915          	0.024
MS.671         	5.902          	0.028
MS.672         	5.892          	0.026
MS.673         	5.88           	0.017
MS.674         	5.867          	0.02
MS.675         	5.858          	0.021
MS.676         	5.845          	0.031
MS.677         	5.832          	0.017
MS.678         	5.82           	0.022
MS.679         	5.81           	0.018
MS.680         	5.797          	0.023
MS.681         	5.787          	0.024
MS.682         	5.775          	0.027
MS.683         	5.762          	0.016
MS.684         	5.753          	0.027
MS.685         	5.74           	0.016
MS.686         	5.73           	0.016
MS.687         	5.717          	0.032
MS.688         	5.705          	0.028
MS.689         	5.695          	0.017
MS.690         	5.682          	0.015
MS.691         	5.672          	0.013
MS.692         	5.66           	0.013
MS.693         	5.65           	0.015
MS.694         	5.637          	0.018
MS.695         	5.628          	0.015
MS.696         	5.615          	0.017
MS.697         	5.605          	0.013
MS.698         	5.592          	0.018
MS.699         	5.582          	0.017
MS.700         	5.57           	0.016
MS.701         	5.56           	0.02
MS.702         	5.547          	0.016
MS.703         	5.537          	0.029
MS.704         	5.527          	0.016
MS.705         	5.515          	0.02
MS.706         	5.505          	0.017
MS.707         	5.492          	0.017
MS.708         	5.483          	0.024
MS.709         	5.472          	0.015
MS.710         	5.46           	0.02
MS.711         	5.45           	0.022
MS.712         	5.438          	0.017
MS.713         	5.427          	0.015
MS.714         	5.418          	0.02
MS.715         	5.405          	0.017
MS.716         	5.395          	0.015
MS.717         	5.385          	0.02
MS.718         	5.372          	0.018
MS.719         	5.362          	0.016
MS.720         	5.352          	0.016
MS.721         	5.342          	0.026
MS.722         	5.33           	0.017
MS.723         	5.32           	0.017
MS.724         	5.31           	0.017
MS.725         	5.3            	0.018
MS.726         	5.287          	0.017
MS.727         	5.277          	0.023
DERIVED EXCITABILITY VARIABLES
Program = QTracP 3/4/2020
Threshold method = 6 (optimised for CAP, using data for present condition only)
SR method = 1 (using actual data values)
6.                 	0.000               	Peak response\(mV)
9.                 	31.1                	Temperature ( C)
17.                	53                  	Age (years)
18.                	1                   	Sex (M=1, F=2)

EXTRA VARIABLES

MScPeak(mV) = 5.56
MScS5(mA) = 7.7
MScS50(mA) = 11.25
MScS95(mA) = 19.19
MScNSteps = 0
MScSteps(%) = 0.0
MScStepMax(%) = 0.0
MScD50 = 80
MScSlope = 3.5
MSFPeakAmp(mV) = 5.52
MSFNUnits = 163
MSFMeanUnitAmp(uV) = 33.9
MSFHuntTime(m) = 3.97
MSFError(%) = 1.43
MSFNLarge = 51.41
MSFMedianAmp(%) = 0.534
MSFMedianAmp(mV) = 0.0295
MSFHalfAmpAmp(%) = 0.619
MSFHalfAmpAmp(mV) = 0.0341
MSFLargestAmp(%) = 2.03
MSFLargestAmp(mV) = 0.112
MSFMeanRS(%) = 2
MSFOpts = 10106121
MSFTraces = 666
MSFSizeLimit(uV) = 13.8
MSFLimitType = 1
MSFSmallestAmp(uV) = 14

EXTRA WAVEFORMS


!MScan Model
!163
	1	6.3	0.61	2
	2	6.76	0.49	2
	3	6.86	0.6	2
	4	6.98	0.61	2
	5	7.01	0.61	2
	6	7.12	0.46	2
	7	7.45	0.38	2
	8	7.6	0.51	2
	9	7.71	0.66	2
	10	7.77	0.39	2
	11	7.81	0.35	2
	12	7.86	0.42	2
	13	7.92	0.46	2
	14	7.98	0.42	2
	15	8.06	0.6	2
	16	8.15	0.54	2
	17	8.21	0.5	2
	18	8.24	0.38	2
	19	8.26	0.49	2
	20	8.32	0.52	2
	21	8.34	0.27	2
	22	8.36	0.37	2
	23	8.42	0.64	2
	24	8.6	1.69	2
	25	8.78	1.49	2
	26	8.9	0.62	2
	27	8.94	0.51	2
	28	9.03	1.05	2
	29	9.17	0.98	2
	30	9.23	0.77	2
	31	9.3	0.61	2
	32	9.31	0.44	2
	33	9.39	1.44	2
	34	9.48	1.75	2
	35	9.54	0.89	2
	36	9.59	0.8	2.2
	37	9.66	1.4	2
	38	9.75	1.06	2
	39	9.82	0.62	2
	40	9.85	0.46	2
	41	9.87	0.3	2
	42	9.89	0.31	2
	43	9.92	0.37	2
	44	9.94	0.38	2
	45	9.96	0.43	2
	46	9.98	0.45	2
	47	10.01	0.44	2
	48	10.05	0.73	2
	49	10.1	0.58	2
	50	10.15	1.16	2
	51	10.21	1.25	2
	52	10.37	2.03	2
	53	10.49	1.73	2
	54	10.54	0.69	2
	55	10.58	0.71	2
	56	10.62	0.71	2
	57	10.66	0.62	2
	58	10.68	0.58	2
	59	10.71	0.44	2
	60	10.75	0.72	2
	61	10.79	1.01	2
	62	10.83	0.64	2
	63	10.87	0.47	2
	64	10.9	0.46	2
	65	10.94	0.54	2
	66	10.97	0.5	2
	67	11	0.42	2
	68	11.03	0.44	2
	69	11.06	0.49	2
	70	11.09	0.45	2
	71	11.12	0.33	2
	72	11.15	0.44	2
	73	11.2	0.8	2
	74	11.25	0.47	2
	75	11.29	0.56	2
	76	11.33	0.62	2
	77	11.37	0.73	2
	78	11.42	0.54	2
	79	11.46	0.51	2
	80	11.47	0.33	2
	81	11.49	0.33	2
	82	11.51	0.33	2
	83	11.53	0.53	2
	84	11.57	0.57	2
	85	11.6	0.54	2
	86	11.69	1.45	2
	87	11.79	1.19	2
	88	11.86	0.91	2
	89	11.89	0.39	2
	90	11.92	0.35	2
	91	11.95	0.64	2
	92	11.98	0.71	2
	93	12.03	0.89	2
	94	12.07	0.75	2
	95	12.14	1.45	2
	96	12.21	1.67	2
	97	12.25	0.73	2
	98	12.29	0.37	2
	99	12.32	0.57	2
	100	12.39	1.38	2
	101	12.46	1.03	2
	102	12.51	0.62	2
	103	12.55	0.71	2
	104	12.6	0.59	2
	105	12.64	0.58	2
	106	12.68	0.62	2
	107	12.72	0.59	2
	108	12.75	0.54	2
	109	12.79	0.54	2
	110	12.82	0.56	2
	111	12.85	0.44	2
	112	12.88	0.43	2
	113	12.91	0.36	2
	114	12.93	0.3	2
	115	12.96	0.35	2
	116	12.99	0.36	2
	117	13.02	0.45	2
	118	13.06	0.32	2
	119	13.09	0.28	2
	120	13.13	0.27	2
	121	13.16	0.29	2
	122	13.19	0.25	2
	123	13.26	0.46	2
	124	13.31	0.39	2
	125	13.44	0.64	2
	126	13.52	0.35	2
	127	13.61	0.38	2
	128	13.67	0.5	2
	129	13.83	0.53	2
	130	14.02	0.76	2
	131	14.13	0.41	2
	132	14.22	0.33	2
	133	14.34	0.36	2
	134	14.43	0.45	2
	135	14.58	0.52	2
	136	14.74	0.57	2
	137	14.97	0.69	2
	138	15.17	0.47	2
	139	15.33	0.73	2
	140	15.5	0.76	2
	141	15.68	0.68	2
	142	15.77	0.3	2
	143	15.86	0.3	2
	144	15.95	0.29	2
	145	16.04	0.38	2
	146	16.14	0.45	2
	147	16.2	0.27	2
	148	16.3	0.34	2
	149	16.39	0.39	2
	150	16.49	0.28	2
	151	16.71	0.48	2
	152	18.31	0.45	2
	153	18.47	0.55	2
	154	18.65	0.71	2
	155	19	1.05	2
	156	19.29	0.75	2
	157	19.56	0.6	2
	158	19.84	0.71	2
	159	20.16	0.6	2
	160	20.4	0.42	2
	161	20.61	0.34	2
	162	21.14	0.34	2
	163	21.7	0.58	2

