File:              	C:\Qtrac\Data\Daniel M Sørensen\MScan multicentre study\Data from centres\Oxford\Processed data\ATC01215B.QZD
Name:              	UK.OXF.NC.8.2
Protocol:          	MSCAN-R2
Date:              	15/12/20
Start time:        	15:11:26
Age:               	30
Sex:               	F
Temperature:       	34
S/R sites:         	APB
NC/disease:        	NC
Operator:          	AT
Comments:          	Median N ABP 2nd
M-SCAN DATA (6.9-1.4m)
Scanpts: 6, 12, 576, 597
Stim. (mA)     	Amp. (mV)
MS.1           	18.5           	4.355
MS.2           	18.5           	4.355
MS.3           	18.5           	4.332
MS.4           	18.5           	4.369
MS.5           	18.5           	4.355
MS.6           	18.5           	4.341
MS.7           	18.5           	4.353
MS.8           	18.5           	4.363
MS.9           	18.5           	4.33
MS.10          	18.5           	4.33
MS.11          	18.5           	4.334
MS.12          	18.5           	4.312
MS.13          	18.5           	4.365
MS.14          	18.5           	4.334
MS.15          	18.5           	4.312
MS.16          	18.5           	4.302
MS.17          	18.5           	4.308
MS.18          	18.5           	4.318
MS.19          	18.5           	4.284
MS.20          	18.5           	4.284
MS.21          	18.5           	4.284
MS.22          	18.5           	4.274
MS.23          	18.5           	4.272
MS.24          	18.425         	4.266
MS.25          	18.39          	4.272
MS.26          	18.352         	4.27
MS.27          	18.315         	4.294
MS.28          	18.28          	4.276
MS.29          	18.243         	4.284
MS.30          	18.208         	4.316
MS.31          	18.17          	4.276
MS.32          	18.132         	4.23
MS.33          	18.097         	4.258
MS.34          	18.06          	4.25
MS.35          	18.025         	4.244
MS.36          	17.99          	4.266
MS.37          	17.952         	4.288
MS.38          	17.917         	4.284
MS.39          	17.882         	4.282
MS.40          	17.845         	4.288
MS.41          	17.81          	4.286
MS.42          	17.775         	4.286
MS.43          	17.74          	4.272
MS.44          	17.702         	4.284
MS.45          	17.667         	4.262
MS.46          	17.632         	4.242
MS.47          	17.597         	4.248
MS.48          	17.562         	4.26
MS.49          	17.528         	4.248
MS.50          	17.493         	4.232
MS.51          	17.458         	4.222
MS.52          	17.422         	4.222
MS.53          	17.387         	4.226
MS.54          	17.352         	4.28
MS.55          	17.317         	4.254
MS.56          	17.285         	4.258
MS.57          	17.25          	4.26
MS.58          	17.215         	4.254
MS.59          	17.18          	4.276
MS.60          	17.145         	4.262
MS.61          	17.112         	4.246
MS.62          	17.077         	4.256
MS.63          	17.042         	4.25
MS.64          	17.01          	4.24
MS.65          	16.975         	4.232
MS.66          	16.942         	4.222
MS.67          	16.907         	4.214
MS.68          	16.875         	4.195
MS.69          	16.84          	4.268
MS.70          	16.807         	4.187
MS.71          	16.772         	4.179
MS.72          	16.74          	4.187
MS.73          	16.705         	4.175
MS.74          	16.672         	4.198
MS.75          	16.64          	4.193
MS.76          	16.605         	4.181
MS.77          	16.573         	4.198
MS.78          	16.54          	4.218
MS.79          	16.507         	4.236
MS.80          	16.472         	4.212
MS.81          	16.44          	4.193
MS.82          	16.407         	4.222
MS.83          	16.375         	4.22
MS.84          	16.342         	4.175
MS.85          	16.31          	4.153
MS.86          	16.278         	4.232
MS.87          	16.245         	4.222
MS.88          	16.212         	4.222
MS.89          	16.18          	4.204
MS.90          	16.147         	4.163
MS.91          	16.115         	4.212
MS.92          	16.083         	4.208
MS.93          	16.05          	4.228
MS.94          	16.02          	4.206
MS.95          	15.987         	4.21
MS.96          	15.955         	4.212
MS.97          	15.922         	4.145
MS.98          	15.89          	4.143
MS.99          	15.86          	4.187
MS.100         	15.827         	4.133
MS.101         	15.795         	4.173
MS.102         	15.765         	4.169
MS.103         	15.733         	4.159
MS.104         	15.702         	4.155
MS.105         	15.67          	4.155
MS.106         	15.64          	4.153
MS.107         	15.608         	4.149
MS.108         	15.577         	4.163
MS.109         	15.545         	4.149
MS.110         	15.515         	4.151
MS.111         	15.483         	4.131
MS.112         	15.452         	4.135
MS.113         	15.422         	4.143
MS.114         	15.39          	4.127
MS.115         	15.36          	4.153
MS.116         	15.33          	4.137
MS.117         	15.297         	4.117
MS.118         	15.267         	4.141
MS.119         	15.237         	4.147
MS.120         	15.207         	4.139
MS.121         	15.177         	4.167
MS.122         	15.148         	4.115
MS.123         	15.115         	4.121
MS.124         	15.085         	4.107
MS.125         	15.055         	4.145
MS.126         	15.025         	4.147
MS.127         	14.995         	4.081
MS.128         	14.965         	4.131
MS.129         	14.935         	4.159
MS.130         	14.905         	4.111
MS.131         	14.877         	4.137
MS.132         	14.847         	3.954
MS.133         	14.818         	4.125
MS.134         	14.787         	4.131
MS.135         	14.757         	4.121
MS.136         	14.727         	4.135
MS.137         	14.7           	4.121
MS.138         	14.67          	4.125
MS.139         	14.64          	4.149
MS.140         	14.61          	3.952
MS.141         	14.582         	3.972
MS.142         	14.552         	4.129
MS.143         	14.523         	4.131
MS.144         	14.495         	4.105
MS.145         	14.465         	3.974
MS.146         	14.438         	4.085
MS.147         	14.407         	4.077
MS.148         	14.38          	4.121
MS.149         	14.35          	4.175
MS.150         	14.322         	3.968
MS.151         	14.292         	3.942
MS.152         	14.265         	3.954
MS.153         	14.235         	3.97
MS.154         	14.207         	3.994
MS.155         	14.18          	3.978
MS.156         	14.15          	3.932
MS.157         	14.122         	3.972
MS.158         	14.095         	3.95
MS.159         	14.065         	3.938
MS.160         	14.037         	3.976
MS.161         	14.01          	3.944
MS.162         	13.983         	3.938
MS.163         	13.955         	3.97
MS.164         	13.925         	3.899
MS.165         	13.898         	3.907
MS.166         	13.87          	3.903
MS.167         	13.842         	3.839
MS.168         	13.815         	3.895
MS.169         	13.787         	3.92
MS.170         	13.76          	3.887
MS.171         	13.733         	3.907
MS.172         	13.705         	3.922
MS.173         	13.677         	3.853
MS.174         	13.65          	3.885
MS.175         	13.622         	3.918
MS.176         	13.595         	3.873
MS.177         	13.568         	3.924
MS.178         	13.542         	3.942
MS.179         	13.515         	3.881
MS.180         	13.487         	3.873
MS.181         	13.46          	3.873
MS.182         	13.432         	3.869
MS.183         	13.407         	3.853
MS.184         	13.38          	3.877
MS.185         	13.352         	3.857
MS.186         	13.327         	3.845
MS.187         	13.3           	3.851
MS.188         	13.273         	3.819
MS.189         	13.247         	3.781
MS.190         	13.22          	3.885
MS.191         	13.195         	3.889
MS.192         	13.167         	3.891
MS.193         	13.142         	3.841
MS.194         	13.115         	3.819
MS.195         	13.09          	3.811
MS.196         	13.062         	3.825
MS.197         	13.037         	3.819
MS.198         	13.01          	3.787
MS.199         	12.985         	3.801
MS.200         	12.957         	3.819
MS.201         	12.932         	3.815
MS.202         	12.907         	3.827
MS.203         	12.88          	3.789
MS.204         	12.855         	3.803
MS.205         	12.83          	3.746
MS.206         	12.805         	3.793
MS.207         	12.778         	3.785
MS.208         	12.752         	3.734
MS.209         	12.727         	3.736
MS.210         	12.702         	3.773
MS.211         	12.677         	3.734
MS.212         	12.653         	3.752
MS.213         	12.625         	3.72
MS.214         	12.6           	3.752
MS.215         	12.575         	3.781
MS.216         	12.55          	3.752
MS.217         	12.525         	3.758
MS.218         	12.5           	3.702
MS.219         	12.475         	3.766
MS.220         	12.45          	3.718
MS.221         	12.425         	3.678
MS.222         	12.4           	3.656
MS.223         	12.375         	3.706
MS.224         	12.352         	3.664
MS.225         	12.327         	3.672
MS.226         	12.302         	3.702
MS.227         	12.278         	3.609
MS.228         	12.252         	3.642
MS.229         	12.227         	3.636
MS.230         	12.205         	3.636
MS.231         	12.18          	3.615
MS.232         	12.155         	3.503
MS.233         	12.13          	3.535
MS.234         	12.108         	3.569
MS.235         	12.082         	3.446
MS.236         	12.057         	3.474
MS.237         	12.035         	3.575
MS.238         	12.01          	3.567
MS.239         	11.988         	3.531
MS.240         	11.962         	3.517
MS.241         	11.938         	3.563
MS.242         	11.915         	3.551
MS.243         	11.89          	3.539
MS.244         	11.867         	3.567
MS.245         	11.842         	3.595
MS.246         	11.82          	3.501
MS.247         	11.795         	3.521
MS.248         	11.773         	3.356
MS.249         	11.75          	3.43
MS.250         	11.725         	3.474
MS.251         	11.702         	3.47
MS.252         	11.677         	3.323
MS.253         	11.655         	3.341
MS.254         	11.632         	3.476
MS.255         	11.61          	3.426
MS.256         	11.585         	3.273
MS.257         	11.562         	3.303
MS.258         	11.54          	3.301
MS.259         	11.517         	3.315
MS.260         	11.492         	3.231
MS.261         	11.47          	3.287
MS.262         	11.447         	3.263
MS.263         	11.425         	3.283
MS.264         	11.403         	3.311
MS.265         	11.38          	3.257
MS.266         	11.355         	3.221
MS.267         	11.332         	3.243
MS.268         	11.31          	3.186
MS.269         	11.287         	3.221
MS.270         	11.265         	3.184
MS.271         	11.242         	3.172
MS.272         	11.22          	3.299
MS.273         	11.197         	3.174
MS.274         	11.175         	3.13
MS.275         	11.153         	3.192
MS.276         	11.132         	3.106
MS.277         	11.11          	3.142
MS.278         	11.087         	3.148
MS.279         	11.065         	3.146
MS.280         	11.042         	3.017
MS.281         	11.02          	3.148
MS.282         	10.997         	3.118
MS.283         	10.977         	3.09
MS.284         	10.955         	3.118
MS.285         	10.932         	3.09
MS.286         	10.91          	3.128
MS.287         	10.89          	3.14
MS.288         	10.867         	3.088
MS.289         	10.845         	3.049
MS.290         	10.825         	2.953
MS.291         	10.802         	3.007
MS.292         	10.78          	3.106
MS.293         	10.76          	3.07
MS.294         	10.738         	3.051
MS.295         	10.717         	3.017
MS.296         	10.695         	3.007
MS.297         	10.672         	2.925
MS.298         	10.653         	2.973
MS.299         	10.63          	3.009
MS.300         	10.61          	2.971
MS.301         	10.587         	2.842
MS.302         	10.568         	2.868
MS.303         	10.545         	2.838
MS.304         	10.525         	2.864
MS.305         	10.505         	2.955
MS.306         	10.483         	2.824
MS.307         	10.462         	2.83
MS.308         	10.443         	2.908
MS.309         	10.42          	2.647
MS.310         	10.4           	2.757
MS.311         	10.38          	2.707
MS.312         	10.358         	2.645
MS.313         	10.337         	2.735
MS.314         	10.318         	2.725
MS.315         	10.295         	2.641
MS.316         	10.275         	2.661
MS.317         	10.255         	2.63
MS.318         	10.235         	2.649
MS.319         	10.215         	2.645
MS.320         	10.193         	2.776
MS.321         	10.172         	2.393
MS.322         	10.153         	2.647
MS.323         	10.132         	2.665
MS.324         	10.113         	2.675
MS.325         	10.092         	2.419
MS.326         	10.073         	2.564
MS.327         	10.052         	2.411
MS.328         	10.032         	2.316
MS.329         	10.012         	2.244
MS.330         	9.992          	2.344
MS.331         	9.972          	2.385
MS.332         	9.952          	2.395
MS.333         	9.932          	2.201
MS.334         	9.912          	2.274
MS.335         	9.892          	2.218
MS.336         	9.872          	2.137
MS.337         	9.852          	2.427
MS.338         	9.832          	2.232
MS.339         	9.812          	2.195
MS.340         	9.795          	2.185
MS.341         	9.775          	2.264
MS.342         	9.755          	2.276
MS.343         	9.735          	2.151
MS.344         	9.715          	2.214
MS.345         	9.698          	2.117
MS.346         	9.677          	2.302
MS.347         	9.657          	2.163
MS.348         	9.637          	2.171
MS.349         	9.62           	2.123
MS.350         	9.6            	2.226
MS.351         	9.58           	2.028
MS.352         	9.562          	2.075
MS.353         	9.542          	2.139
MS.354         	9.523          	2.028
MS.355         	9.505          	1.768
MS.356         	9.485          	1.843
MS.357         	9.467          	1.865
MS.358         	9.448          	1.583
MS.359         	9.43           	1.968
MS.360         	9.41           	1.986
MS.361         	9.39           	1.96
MS.362         	9.372          	1.617
MS.363         	9.352          	1.696
MS.364         	9.335          	1.73
MS.365         	9.318          	1.899
MS.366         	9.297          	1.849
MS.367         	9.28           	1.821
MS.368         	9.26           	1.505
MS.369         	9.242          	1.809
MS.370         	9.222          	1.654
MS.371         	9.205          	1.333
MS.372         	9.188          	1.454
MS.373         	9.167          	1.285
MS.374         	9.15           	1.293
MS.375         	9.132          	1.196
MS.376         	9.113          	1.285
MS.377         	9.095          	1.281
MS.378         	9.077          	1.072
MS.379         	9.06           	1.269
MS.380         	9.04           	0.896
MS.381         	9.023          	0.957
MS.382         	9.005          	0.979
MS.383         	8.988          	1.076
MS.384         	8.97           	0.816
MS.385         	8.95           	0.729
MS.386         	8.932          	1.19
MS.387         	8.915          	0.866
MS.388         	8.898          	0.699
MS.389         	8.88           	0.808
MS.390         	8.863          	0.85
MS.391         	8.845          	0.834
MS.392         	8.827          	0.697
MS.393         	8.81           	0.775
MS.394         	8.792          	0.548
MS.395         	8.775          	0.622
MS.396         	8.755          	0.612
MS.397         	8.74           	0.729
MS.398         	8.722          	0.455
MS.399         	8.705          	0.568
MS.400         	8.688          	0.445
MS.401         	8.67           	0.415
MS.402         	8.653          	0.671
MS.403         	8.635          	0.548
MS.404         	8.617          	0.459
MS.405         	8.6            	0.393
MS.406         	8.582          	0.433
MS.407         	8.565          	0.421
MS.408         	8.547          	0.572
MS.409         	8.533          	0.548
MS.410         	8.515          	0.516
MS.411         	8.497          	0.405
MS.412         	8.48           	0.389
MS.413         	8.462          	0.445
MS.414         	8.448          	0.423
MS.415         	8.43           	0.445
MS.416         	8.412          	0.33
MS.417         	8.395          	0.435
MS.418         	8.38           	0.522
MS.419         	8.363          	0.34
MS.420         	8.345          	0.334
MS.421         	8.33           	0.409
MS.422         	8.312          	0.387
MS.423         	8.295          	0.421
MS.424         	8.28           	0.407
MS.425         	8.262          	0.326
MS.426         	8.247          	0.288
MS.427         	8.23           	0.318
MS.428         	8.212          	0.381
MS.429         	8.198          	0.316
MS.430         	8.18           	0.455
MS.431         	8.165          	0.316
MS.432         	8.148          	0.27
MS.433         	8.132          	0.393
MS.434         	8.115          	0.383
MS.435         	8.1            	0.467
MS.436         	8.082          	0.363
MS.437         	8.068          	0.393
MS.438         	8.05           	0.445
MS.439         	8.035          	0.34
MS.440         	8.017          	0.226
MS.441         	8.002          	0.264
MS.442         	7.987          	0.288
MS.443         	7.97           	0.205
MS.444         	7.955          	0.101
MS.445         	7.94           	0.294
MS.446         	7.922          	0.405
MS.447         	7.907          	0.216
MS.448         	7.892          	0.332
MS.449         	7.875          	0.23
MS.450         	7.86           	0.258
MS.451         	7.845          	0.226
MS.452         	7.827          	0.097
MS.453         	7.812          	0.091
MS.454         	7.797          	0.079
MS.455         	7.782          	0.109
MS.456         	7.765          	0.099
MS.457         	7.75           	0.095
MS.458         	7.735          	0.099
MS.459         	7.72           	0.073
MS.460         	7.705          	0.056
MS.461         	7.69           	0.075
MS.462         	7.672          	0.099
MS.463         	7.657          	0.087
MS.464         	7.642          	0.058
MS.465         	7.628          	0.081
MS.466         	7.612          	0.077
MS.467         	7.597          	0.077
MS.468         	7.582          	0.077
MS.469         	7.567          	0.081
MS.470         	7.552          	0.052
MS.471         	7.537          	0.105
MS.472         	7.523          	0.062
MS.473         	7.507          	0.085
MS.474         	7.492          	0.06
MS.475         	7.477          	0.052
MS.476         	7.462          	0.075
MS.477         	7.447          	0.073
MS.478         	7.432          	0.052
MS.479         	7.418          	0.062
MS.480         	7.402          	0.064
MS.481         	7.387          	0.056
MS.482         	7.372          	0.062
MS.483         	7.357          	0.085
MS.484         	7.342          	0.083
MS.485         	7.327          	0.056
MS.486         	7.315          	0.087
MS.487         	7.3            	0.111
MS.488         	7.285          	0.105
MS.489         	7.27           	0.07
MS.490         	7.255          	0.119
MS.491         	7.24           	0.06
MS.492         	7.227          	0.087
MS.493         	7.212          	0.081
MS.494         	7.197          	0.087
MS.495         	7.182          	0.079
MS.496         	7.17           	0.127
MS.497         	7.155          	0.123
MS.498         	7.14           	0.099
MS.499         	7.125          	0.103
MS.500         	7.112          	0.105
MS.501         	7.097          	0.107
MS.502         	7.082          	0.117
MS.503         	7.07           	0.107
MS.504         	7.055          	0.107
MS.505         	7.04           	0.133
MS.506         	7.027          	0.119
MS.507         	7.012          	0.125
MS.508         	7              	0.095
MS.509         	6.985          	0.026
MS.510         	6.97           	0.115
MS.511         	6.957          	0.121
MS.512         	6.942          	0.105
MS.513         	6.93           	0.103
MS.514         	6.915          	0.097
MS.515         	6.902          	0.107
MS.516         	6.887          	0.026
MS.517         	6.875          	0.018
MS.518         	6.86           	0.018
MS.519         	6.847          	0.103
MS.520         	6.832          	0.111
MS.521         	6.82           	0.101
MS.522         	6.805          	0.018
MS.523         	6.793          	0.01
MS.524         	6.777          	0.016
MS.525         	6.765          	0.024
MS.526         	6.753          	0.016
MS.527         	6.737          	0.018
MS.528         	6.725          	0.018
MS.529         	6.71           	0.014
MS.530         	6.697          	0.018
MS.531         	6.685          	0.016
MS.532         	6.67           	0.016
MS.533         	6.657          	0.016
MS.534         	6.645          	0.014
MS.535         	6.63           	0.016
MS.536         	6.617          	0.018
MS.537         	6.605          	0.02
MS.538         	6.592          	0.016
MS.539         	6.577          	0.018
MS.540         	6.565          	0.016
MS.541         	6.552          	0.018
MS.542         	6.54           	0.016
MS.543         	6.525          	0.014
MS.544         	6.512          	0.016
MS.545         	6.5            	0.014
MS.546         	6.487          	0.016
MS.547         	6.475          	0.018
MS.548         	6.46           	0.018
MS.549         	6.447          	0.018
MS.550         	6.435          	0.014
MS.551         	6.422          	0.014
MS.552         	6.41           	0.014
MS.553         	6.398          	0.016
MS.554         	6.385          	0.016
MS.555         	6.37           	0.018
MS.556         	6.358          	0.016
MS.557         	6.345          	0.012
MS.558         	6.332          	0.018
MS.559         	6.32           	0.014
MS.560         	6.307          	0.016
MS.561         	6.295          	0.016
MS.562         	6.282          	0.016
MS.563         	6.27           	0.016
MS.564         	6.257          	0.016
MS.565         	6.245          	0.018
MS.566         	6.233          	0.018
MS.567         	6.22           	0.018
MS.568         	6.207          	0.014
MS.569         	6.195          	0.012
MS.570         	6.182          	0.016
MS.571         	6.17           	0.016
MS.572         	6.157          	0.016
MS.573         	6.145          	0.016
MS.574         	6.132          	0.016
MS.575         	6.122          	0.018
MS.576         	6.11           	0.018
MS.577         	6.097          	0.02
MS.578         	6.085          	0.016
MS.579         	6.072          	0.016
MS.580         	6.06           	0.014
MS.581         	6.047          	0.012
MS.582         	6.035          	0.014
MS.583         	6.025          	0.018
MS.584         	6.012          	0.012
MS.585         	6              	0.014
MS.586         	5.987          	0.02
MS.587         	5.975          	0.016
MS.588         	5.965          	0.018
MS.589         	5.952          	0.016
MS.590         	5.94           	0.014
MS.591         	5.927          	0.02
MS.592         	5.918          	0.016
MS.593         	5.905          	0.016
MS.594         	5.892          	0.016
MS.595         	5.88           	0.014
MS.596         	5.87           	0.016
MS.597         	5.858          	0.018
DERIVED EXCITABILITY VARIABLES
Program = QTracP 3/4/2020
Threshold method = 6 (optimised for CAP, using data for present condition only)
SR method = 1 (using actual data values)
6.                 	0.000               	Peak response\(mV)
9.                 	34                  	Temperature ( C)
17.                	30                  	Age (years)
18.                	2                   	Sex (M=1, F=2)

EXTRA VARIABLES

MScPeak(mV) = 4.31
MScS5(mA) = 7.92
MScS50(mA) = 9.72
MScS95(mA) = 14.68
MScNSteps = 1
MScSteps(%) = 3.2
MScStepMax(%) = 3.2
MScD50 = 43
MScSlope = 4.16
MSFPeakAmp(mV) = 4.32
MSFNUnits = 63
MSFMeanUnitAmp(uV) = 68.6
MSFHuntTime(m) = 2.26
MSFError(%) = 2.87
MSFNLarge = 17.45
MSFMedianAmp(%) = 1.21
MSFMedianAmp(mV) = 0.0522
MSFHalfAmpAmp(%) = 2.11
MSFHalfAmpAmp(mV) = 0.0912
MSFLargestAmp(%) = 5
MSFLargestAmp(mV) = 0.216
MSFMeanRS(%) = 2
MSFOpts = 10106121
MScDuration(min) = 5.5
MSFTraces = 592
MSFSizeLimit(uV) = 13.7
MSFLimitType = 3
MSFSmallestAmp(uV) = 18.1

EXTRA WAVEFORMS


!MScan Model
!63
	1	6.75	0.42	2
	2	6.91	1.15	2
	3	7.73	0.51	2
	4	7.82	1.75	2
	5	7.97	3.33	2
	6	8.42	2.73	2
	7	8.64	2.47	2
	8	8.72	1.82	2
	9	8.8	2.08	2
	10	8.87	2.24	2
	11	8.92	1.95	2
	12	8.97	2.11	2
	13	9.01	1.84	2
	14	9.05	2.27	2
	15	9.1	2.06	2
	16	9.14	2.22	2
	17	9.19	2.28	2
	18	9.25	2.79	2
	19	9.32	2.17	2
	20	9.33	3.3	2
	21	9.45	5	2
	22	9.58	3.12	2
	23	9.9	4.31	2
	24	10	2.02	2
	25	10.09	1.82	2
	26	10.19	2.9	2
	27	10.32	2.31	2
	28	10.4	1.43	2
	29	10.44	0.69	2
	30	10.48	0.72	2
	31	10.52	0.8	2
	32	10.59	1.07	2
	33	10.65	0.94	2
	34	10.72	1.09	2
	35	10.85	0.82	2
	36	10.85	0.55	2
	37	11.02	1.47	2
	38	11.13	0.91	2
	39	11.24	0.89	2
	40	11.35	0.94	2
	41	11.43	0.98	2
	42	11.5	0.73	2
	43	11.57	0.87	2
	44	11.65	1.1	2
	45	11.74	0.9	2
	46	12.01	2.59	2
	47	12.17	1.21	2
	48	12.26	0.76	2
	49	12.35	0.53	2
	50	12.44	1.03	2
	51	12.56	0.8	2
	52	12.73	0.8	2
	53	12.86	0.58	2
	54	13.09	0.76	2
	55	13.47	1.17	2
	56	13.95	1.21	2
	57	14.45	3.02	2
	58	14.92	1.2	2
	59	15.69	1.23	2
	60	15.99	0.54	2
	61	16.95	0.95	2
	62	18.36	1.29	2
	63	18.57	0.44	2

