File:              	C:\Qtrac\Data\Daniel M Sørensen\MScan multicentre study\Data from centres\Oxford\Processed data\ATC01211E.QZD
Name:              	UK.OXF.NC.2.2
Protocol:          	MSCAN-R2
Date:              	11/12/20
Start time:        	17:08:06
Age:               	29
Sex:               	M
Temperature:       	30.5
S/R sites:         	APB
NC/disease:        	NC
Operator:          	AT
Comments:          	Repeat ABP
M-SCAN DATA (5.4-1m)
Scanpts: 17, 25, 467, 489
Stim. (mA)     	Amp. (mV)
MS.1           	16             	7.509
MS.2           	16             	7.475
MS.3           	16             	7.462
MS.4           	16             	7.473
MS.5           	16             	7.454
MS.6           	16             	7.44
MS.7           	16             	7.454
MS.8           	16             	7.43
MS.9           	16             	7.487
MS.10          	16             	7.495
MS.11          	16             	7.412
MS.12          	16             	7.414
MS.13          	16             	7.422
MS.14          	16             	7.416
MS.15          	16             	7.412
MS.16          	16             	7.418
MS.17          	16             	7.414
MS.18          	16             	7.416
MS.19          	16             	7.406
MS.20          	16             	7.442
MS.21          	16             	7.436
MS.22          	16             	7.442
MS.23          	16             	7.41
MS.24          	15.935         	7.396
MS.25          	15.905         	7.424
MS.26          	15.872         	7.41
MS.27          	15.84          	7.414
MS.28          	15.81          	7.416
MS.29          	15.777         	7.406
MS.30          	15.745         	7.426
MS.31          	15.715         	7.406
MS.32          	15.682         	7.392
MS.33          	15.652         	7.398
MS.34          	15.62          	7.4
MS.35          	15.59          	7.388
MS.36          	15.557         	7.364
MS.37          	15.527         	7.321
MS.38          	15.495         	7.344
MS.39          	15.465         	7.402
MS.40          	15.435         	7.332
MS.41          	15.402         	7.402
MS.42          	15.372         	7.402
MS.43          	15.342         	7.38
MS.44          	15.31          	7.352
MS.45          	15.28          	7.338
MS.46          	15.25          	7.344
MS.47          	15.22          	7.346
MS.48          	15.19          	7.344
MS.49          	15.16          	7.352
MS.50          	15.127         	7.356
MS.51          	15.097         	7.358
MS.52          	15.068         	7.289
MS.53          	15.037         	7.287
MS.54          	15.007         	7.326
MS.55          	14.977         	7.332
MS.56          	14.947         	7.323
MS.57          	14.917         	7.348
MS.58          	14.887         	7.356
MS.59          	14.858         	7.36
MS.60          	14.83          	7.382
MS.61          	14.8           	7.36
MS.62          	14.77          	7.362
MS.63          	14.74          	7.348
MS.64          	14.71          	7.366
MS.65          	14.682         	7.344
MS.66          	14.652         	7.336
MS.67          	14.622         	7.261
MS.68          	14.592         	7.307
MS.69          	14.565         	7.303
MS.70          	14.535         	7.326
MS.71          	14.507         	7.35
MS.72          	14.477         	7.384
MS.73          	14.447         	7.334
MS.74          	14.42          	7.328
MS.75          	14.39          	7.317
MS.76          	14.362         	7.328
MS.77          	14.332         	7.352
MS.78          	14.305         	7.338
MS.79          	14.275         	7.309
MS.80          	14.247         	7.317
MS.81          	14.22          	7.313
MS.82          	14.19          	7.305
MS.83          	14.162         	7.287
MS.84          	14.135         	7.259
MS.85          	14.105         	7.408
MS.86          	14.077         	7.241
MS.87          	14.05          	7.197
MS.88          	14.023         	7.231
MS.89          	13.992         	7.255
MS.90          	13.965         	7.265
MS.91          	13.938         	7.261
MS.92          	13.91          	7.257
MS.93          	13.882         	7.241
MS.94          	13.855         	7.241
MS.95          	13.827         	7.241
MS.96          	13.8           	7.249
MS.97          	13.773         	7.251
MS.98          	13.745         	7.255
MS.99          	13.717         	7.243
MS.100         	13.69          	7.239
MS.101         	13.662         	7.243
MS.102         	13.635         	7.235
MS.103         	13.608         	7.271
MS.104         	13.58          	7.251
MS.105         	13.552         	7.241
MS.106         	13.525         	7.221
MS.107         	13.497         	7.271
MS.108         	13.472         	7.237
MS.109         	13.445         	7.235
MS.110         	13.417         	7.217
MS.111         	13.39          	7.221
MS.112         	13.365         	7.319
MS.113         	13.337         	7.215
MS.114         	13.31          	7.229
MS.115         	13.285         	7.241
MS.116         	13.257         	7.245
MS.117         	13.233         	7.273
MS.118         	13.205         	7.249
MS.119         	13.177         	7.257
MS.120         	13.153         	7.261
MS.121         	13.125         	7.247
MS.122         	13.1           	7.263
MS.123         	13.072         	7.255
MS.124         	13.047         	7.253
MS.125         	13.023         	7.263
MS.126         	12.995         	7.269
MS.127         	12.97          	7.273
MS.128         	12.943         	7.265
MS.129         	12.917         	7.265
MS.130         	12.892         	7.261
MS.131         	12.865         	7.265
MS.132         	12.84          	7.205
MS.133         	12.815         	6.913
MS.134         	12.79          	7.058
MS.135         	12.762         	7.054
MS.136         	12.738         	7.193
MS.137         	12.712         	7.176
MS.138         	12.688         	6.89
MS.139         	12.662         	7.025
MS.140         	12.637         	7.025
MS.141         	12.61          	7.025
MS.142         	12.585         	7.035
MS.143         	12.56          	7.023
MS.144         	12.535         	6.878
MS.145         	12.51          	6.975
MS.146         	12.485         	7.035
MS.147         	12.46          	6.901
MS.148         	12.435         	6.905
MS.149         	12.41          	6.949
MS.150         	12.385         	6.941
MS.151         	12.363         	6.977
MS.152         	12.337         	6.939
MS.153         	12.312         	6.949
MS.154         	12.287         	6.941
MS.155         	12.262         	6.923
MS.156         	12.238         	6.949
MS.157         	12.215         	6.937
MS.158         	12.19          	6.915
MS.159         	12.165         	6.929
MS.160         	12.14          	6.929
MS.161         	12.117         	6.925
MS.162         	12.092         	6.923
MS.163         	12.068         	6.929
MS.164         	12.045         	6.919
MS.165         	12.02          	6.901
MS.166         	11.995         	6.892
MS.167         	11.972         	6.921
MS.168         	11.947         	6.915
MS.169         	11.925         	6.888
MS.170         	11.9           	6.901
MS.171         	11.877         	6.913
MS.172         	11.852         	6.901
MS.173         	11.83          	6.774
MS.174         	11.805         	6.905
MS.175         	11.782         	6.798
MS.176         	11.757         	6.788
MS.177         	11.735         	6.876
MS.178         	11.712         	6.77
MS.179         	11.688         	6.699
MS.180         	11.665         	6.844
MS.181         	11.642         	6.852
MS.182         	11.617         	6.713
MS.183         	11.595         	6.733
MS.184         	11.572         	6.858
MS.185         	11.55          	6.727
MS.186         	11.525         	6.796
MS.187         	11.502         	6.707
MS.188         	11.48          	6.727
MS.189         	11.457         	6.59
MS.190         	11.435         	6.441
MS.191         	11.41          	6.576
MS.192         	11.387         	6.506
MS.193         	11.365         	6.49
MS.194         	11.342         	6.48
MS.195         	11.32          	6.461
MS.196         	11.297         	6.469
MS.197         	11.275         	6.202
MS.198         	11.252         	6.258
MS.199         	11.23          	6.417
MS.200         	11.207         	6.349
MS.201         	11.185         	6.463
MS.202         	11.162         	6.218
MS.203         	11.14          	6.478
MS.204         	11.117         	6.248
MS.205         	11.095         	6.127
MS.206         	11.075         	6.163
MS.207         	11.052         	6.198
MS.208         	11.03          	6.173
MS.209         	11.007         	6.081
MS.210         	10.985         	6.125
MS.211         	10.962         	6.061
MS.212         	10.943         	6.008
MS.213         	10.92          	6.101
MS.214         	10.898         	6.141
MS.215         	10.877         	6.061
MS.216         	10.855         	5.843
MS.217         	10.832         	5.988
MS.218         	10.81          	5.726
MS.219         	10.79          	5.634
MS.220         	10.767         	5.692
MS.221         	10.747         	5.956
MS.222         	10.725         	5.799
MS.223         	10.702         	5.579
MS.224         	10.682         	5.728
MS.225         	10.66          	5.636
MS.226         	10.64          	5.789
MS.227         	10.617         	5.386
MS.228         	10.597         	5.527
MS.229         	10.575         	5.309
MS.230         	10.555         	5.394
MS.231         	10.535         	5.366
MS.232         	10.512         	5.346
MS.233         	10.492         	5.205
MS.234         	10.47          	5.072
MS.235         	10.45          	5.152
MS.236         	10.43          	5.239
MS.237         	10.407         	5.199
MS.238         	10.387         	5.086
MS.239         	10.367         	4.969
MS.240         	10.345         	4.993
MS.241         	10.325         	4.804
MS.242         	10.305         	4.701
MS.243         	10.285         	4.931
MS.244         	10.262         	4.824
MS.245         	10.242         	4.735
MS.246         	10.222         	4.768
MS.247         	10.202         	4.719
MS.248         	10.182         	4.794
MS.249         	10.162         	4.494
MS.250         	10.14          	4.572
MS.251         	10.12          	4.471
MS.252         	10.1           	4.419
MS.253         	10.08          	4.379
MS.254         	10.06          	4.508
MS.255         	10.04          	4.026
MS.256         	10.02          	4.171
MS.257         	10             	4.248
MS.258         	9.98           	4.034
MS.259         	9.96           	4.125
MS.260         	9.94           	3.873
MS.261         	9.92           	4.006
MS.262         	9.9            	4.083
MS.263         	9.88           	4.089
MS.264         	9.86           	3.946
MS.265         	9.842          	3.805
MS.266         	9.823          	3.847
MS.267         	9.802          	3.573
MS.268         	9.782          	3.668
MS.269         	9.762          	3.768
MS.270         	9.742          	3.557
MS.271         	9.725          	3.63
MS.272         	9.705          	3.648
MS.273         	9.685          	3.511
MS.274         	9.665          	3.513
MS.275         	9.648          	3.434
MS.276         	9.627          	3.331
MS.277         	9.608          	3.223
MS.278         	9.587          	3.368
MS.279         	9.57           	3.261
MS.280         	9.55           	3.344
MS.281         	9.532          	3.211
MS.282         	9.512          	3.184
MS.283         	9.492          	3.233
MS.284         	9.475          	3.086
MS.285         	9.455          	3.122
MS.286         	9.438          	3.205
MS.287         	9.417          	3.142
MS.288         	9.4            	3.148
MS.289         	9.38           	3.06
MS.290         	9.363          	2.961
MS.291         	9.342          	3.086
MS.292         	9.325          	2.898
MS.293         	9.305          	2.993
MS.294         	9.287          	3.051
MS.295         	9.267          	2.929
MS.296         	9.25           	2.937
MS.297         	9.23           	2.969
MS.298         	9.212          	2.923
MS.299         	9.195          	2.89
MS.300         	9.175          	2.868
MS.301         	9.158          	2.761
MS.302         	9.14           	2.767
MS.303         	9.12           	2.645
MS.304         	9.102          	2.763
MS.305         	9.085          	2.677
MS.306         	9.068          	2.622
MS.307         	9.047          	2.389
MS.308         	9.03           	2.633
MS.309         	9.012          	2.494
MS.310         	8.995          	2.274
MS.311         	8.977          	2.26
MS.312         	8.957          	2.405
MS.313         	8.94           	2.614
MS.314         	8.922          	2.24
MS.315         	8.905          	2.04
MS.316         	8.887          	2.26
MS.317         	8.87           	2.413
MS.318         	8.852          	2.242
MS.319         	8.835          	2.159
MS.320         	8.815          	2.091
MS.321         	8.797          	2.016
MS.322         	8.78           	2.026
MS.323         	8.762          	1.978
MS.324         	8.745          	1.919
MS.325         	8.727          	1.897
MS.326         	8.71           	1.599
MS.327         	8.693          	1.356
MS.328         	8.675          	1.666
MS.329         	8.66           	1.553
MS.330         	8.642          	1.563
MS.331         	8.625          	1.452
MS.332         	8.608          	1.329
MS.333         	8.59           	1.432
MS.334         	8.573          	1.4
MS.335         	8.555          	1.456
MS.336         	8.537          	1.408
MS.337         	8.523          	1.549
MS.338         	8.505          	1.501
MS.339         	8.488          	1.541
MS.340         	8.47           	1.345
MS.341         	8.452          	1.313
MS.342         	8.438          	1.051
MS.343         	8.42           	1.124
MS.344         	8.403          	1.253
MS.345         	8.385          	1.096
MS.346         	8.37           	1.128
MS.347         	8.352          	0.933
MS.348         	8.335          	1.037
MS.349         	8.32           	0.927
MS.350         	8.302          	1.072
MS.351         	8.285          	0.806
MS.352         	8.27           	0.878
MS.353         	8.252          	1.065
MS.354         	8.238          	1.025
MS.355         	8.22           	0.812
MS.356         	8.202          	1.045
MS.357         	8.188          	0.705
MS.358         	8.17           	0.546
MS.359         	8.155          	0.558
MS.360         	8.137          	0.693
MS.361         	8.122          	0.576
MS.362         	8.105          	0.526
MS.363         	8.09           	0.628
MS.364         	8.073          	0.538
MS.365         	8.057          	0.568
MS.366         	8.042          	0.61
MS.367         	8.025          	0.461
MS.368         	8.01           	0.451
MS.369         	7.992          	0.427
MS.370         	7.977          	0.516
MS.371         	7.96           	0.363
MS.372         	7.945          	0.417
MS.373         	7.93           	0.437
MS.374         	7.912          	0.437
MS.375         	7.898          	0.445
MS.376         	7.882          	0.435
MS.377         	7.867          	0.437
MS.378         	7.85           	0.407
MS.379         	7.835          	0.357
MS.380         	7.82           	0.369
MS.381         	7.802          	0.375
MS.382         	7.787          	0.302
MS.383         	7.773          	0.395
MS.384         	7.757          	0.367
MS.385         	7.742          	0.359
MS.386         	7.725          	0.308
MS.387         	7.71           	0.278
MS.388         	7.695          	0.3
MS.389         	7.68           	0.27
MS.390         	7.665          	0.222
MS.391         	7.65           	0.278
MS.392         	7.635          	0.306
MS.393         	7.617          	0.214
MS.394         	7.602          	0.222
MS.395         	7.587          	0.24
MS.396         	7.572          	0.22
MS.397         	7.557          	0.274
MS.398         	7.543          	0.226
MS.399         	7.527          	0.254
MS.400         	7.512          	0.201
MS.401         	7.497          	0.228
MS.402         	7.482          	0.117
MS.403         	7.467          	0.203
MS.404         	7.452          	0.222
MS.405         	7.438          	0.205
MS.406         	7.422          	0.211
MS.407         	7.407          	0.232
MS.408         	7.392          	0.207
MS.409         	7.378          	0.207
MS.410         	7.365          	0.209
MS.411         	7.35           	0.209
MS.412         	7.335          	0.103
MS.413         	7.32           	0.169
MS.414         	7.305          	0.117
MS.415         	7.29           	0.218
MS.416         	7.275          	0.214
MS.417         	7.262          	0.216
MS.418         	7.247          	0.109
MS.419         	7.233          	0.064
MS.420         	7.217          	0.048
MS.421         	7.202          	0.216
MS.422         	7.19           	0.113
MS.423         	7.175          	0.099
MS.424         	7.16           	0.169
MS.425         	7.145          	0.044
MS.426         	7.132          	0.048
MS.427         	7.117          	0.105
MS.428         	7.102          	0.103
MS.429         	7.09           	0.048
MS.430         	7.075          	0.002
MS.431         	7.06           	0.004
MS.432         	7.047          	0.117
MS.433         	7.032          	0.006
MS.434         	7.017          	0.004
MS.435         	7.005          	0.048
MS.436         	6.99           	0.052
MS.437         	6.977          	0.000
MS.438         	6.962          	0.034
MS.439         	6.95           	0.004
MS.440         	6.935          	0.046
MS.441         	6.92           	0.046
MS.442         	6.907          	0.06
MS.443         	6.892          	0.004
MS.444         	6.88           	0.002
MS.445         	6.865          	0.05
MS.446         	6.852          	0.002
MS.447         	6.837          	0.006
MS.448         	6.825          	0.006
MS.449         	6.812          	0.002
MS.450         	6.797          	0.004
MS.451         	6.785          	0.002
MS.452         	6.77           	0.002
MS.453         	6.757          	0.008
MS.454         	6.742          	0.008
MS.455         	6.73           	0.006
MS.456         	6.717          	0.002
MS.457         	6.702          	0.004
MS.458         	6.69           	0.002
MS.459         	6.677          	0.002
MS.460         	6.662          	0.004
MS.461         	6.65           	0.004
MS.462         	6.637          	0.006
MS.463         	6.622          	0.004
MS.464         	6.61           	0.000
MS.465         	6.597          	0.004
MS.466         	6.582          	0.006
MS.467         	6.57           	0.002
MS.468         	6.557          	0.002
MS.469         	6.545          	0.002
MS.470         	6.53           	0.000
MS.471         	6.517          	0.004
MS.472         	6.505          	0.004
MS.473         	6.492          	0.002
MS.474         	6.48           	0.002
MS.475         	6.465          	0.002
MS.476         	6.452          	0.006
MS.477         	6.44           	0.004
MS.478         	6.427          	0.004
MS.479         	6.415          	0.006
MS.480         	6.402          	0.006
MS.481         	6.39           	0.004
MS.482         	6.378          	0.006
MS.483         	6.362          	0.008
MS.484         	6.35           	0.004
MS.485         	6.338          	0.004
MS.486         	6.325          	-0.002
MS.487         	6.312          	0.008
MS.488         	6.3            	0.002
MS.489         	6.287          	0.000
DERIVED EXCITABILITY VARIABLES
Program = QTracP 3/4/2020
Threshold method = 6 (optimised for CAP, using data for present condition only)
SR method = 1 (using actual data values)
6.                 	0.000               	Peak response\(mV)
9.                 	30.5                	Temperature ( C)
17.                	29                  	Age (years)
18.                	1                   	Sex (M=1, F=2)

EXTRA VARIABLES

MScPeak(mV) = 7.44
MScS5(mA) = 7.84
MScS50(mA) = 9.78
MScS95(mA) = 12.76
MScNSteps = 1
MScSteps(%) = 3.1
MScStepMax(%) = 3.1
MScD50 = 44
MScSlope = 5.14
MSFPeakAmp(mV) = 7.42
MSFNUnits = 135
MSFMeanUnitAmp(uV) = 54.9
MSFHuntTime(m) = 2.55
MSFError(%) = 2.86
MSFNLarge = 35.7
MSFMedianAmp(%) = 0.579
MSFMedianAmp(mV) = 0.0429
MSFHalfAmpAmp(%) = 0.863
MSFHalfAmpAmp(mV) = 0.064
MSFLargestAmp(%) = 2.66
MSFLargestAmp(mV) = 0.197
MSFMeanRS(%) = 2
MSFOpts = 10106121
MScDuration(min) = 4.4
MSFTraces = 473
MSFSizeLimit(uV) = 18.5
MSFLimitType = 1
MSFSmallestAmp(uV) = 18.9

EXTRA WAVEFORMS


!MScan Model
!135
	1	6.98	0.3	2
	2	7.08	0.32	2
	3	7.16	1.57	2
	4	7.53	0.71	2
	5	7.67	0.96	2
	6	7.75	0.56	2
	7	7.78	0.26	2
	8	7.8	0.32	2
	9	7.92	0.75	2
	10	7.98	0.45	2
	11	8	0.43	2
	12	8.08	0.79	2
	13	8.11	0.31	2
	14	8.13	0.86	2
	15	8.16	0.97	2
	16	8.19	1.18	2
	17	8.25	1.17	2
	18	8.34	2.18	2
	19	8.35	0.28	2
	20	8.37	0.32	2
	21	8.39	0.43	2
	22	8.41	0.78	2
	23	8.46	1.76	2
	24	8.57	2.22	2
	25	8.64	0.4	2
	26	8.66	0.67	2
	27	8.68	0.72	2
	28	8.69	0.9	2
	29	8.71	0.38	2
	30	8.72	0.38	2
	31	8.73	0.38	2
	32	8.74	0.53	2
	33	8.75	0.74	2
	34	8.78	1.71	2
	35	8.82	1.54	2
	36	8.85	1.07	2
	37	8.93	2.09	2
	38	8.98	1.13	2
	39	9.03	1.31	2
	40	9.04	0.37	2
	41	9.05	0.35	2
	42	9.07	0.37	2
	43	9.08	0.44	2
	44	9.09	0.41	2
	45	9.1	0.35	2
	46	9.11	0.28	2
	47	9.12	0.28	2
	48	9.13	0.28	2
	49	9.14	0.28	2
	50	9.16	0.47	2
	51	9.18	0.48	2
	52	9.2	0.42	2
	53	9.24	0.82	2
	54	9.29	0.73	2
	55	9.33	0.54	2
	56	9.37	0.64	2
	57	9.41	0.51	2
	58	9.44	0.41	2
	59	9.46	0.49	2
	60	9.48	0.33	2
	61	9.51	0.46	2
	62	9.54	0.35	2
	63	9.56	0.29	2
	64	9.58	0.36	2
	65	9.59	0.32	2
	66	9.61	0.44	2
	67	9.63	0.5	2
	68	9.65	0.45	2
	69	9.66	0.29	2
	70	9.67	0.33	2
	71	9.69	0.61	2
	72	9.71	0.6	2
	73	9.73	0.57	2
	74	9.75	0.66	2
	75	9.77	0.59	2
	76	9.79	0.68	2
	77	9.83	0.95	2
	78	9.86	1	2
	79	9.92	1.82	2
	80	9.98	1.61	2
	81	10	0.39	2
	82	10.01	0.48	2
	83	10.03	0.51	2
	84	10.05	0.55	2
	85	10.06	0.64	2
	86	10.08	0.67	2
	87	10.1	0.67	2
	88	10.11	0.61	2
	89	10.13	0.59	2
	90	10.15	0.56	2
	91	10.17	0.53	2
	92	10.19	0.54	2
	93	10.22	0.9	2
	94	10.25	1.13	2
	95	10.28	0.91	2
	96	10.31	0.69	2
	97	10.33	0.51	2
	98	10.36	0.45	2
	99	10.38	0.54	2
	100	10.41	0.9	2
	101	10.45	1.15	2
	102	10.48	1.07	2
	103	10.52	0.67	2
	104	10.53	0.37	2
	105	10.55	0.66	2
	106	10.57	0.67	2
	107	10.59	0.59	2
	108	10.65	1.77	2
	109	10.73	1.8	2
	110	10.77	0.9	2
	111	10.81	0.96	2
	112	10.85	0.83	2
	113	10.88	0.66	2
	114	10.91	0.62	2
	115	10.95	0.57	2
	116	10.99	0.73	2
	117	11.08	1.34	2
	118	11.27	2.66	2
	119	11.35	0.5	2
	120	11.38	0.61	2
	121	11.4	0.58	2
	122	11.43	0.48	2
	123	11.45	0.47	2
	124	11.46	2.14	2
	125	11.48	0.45	2
	126	11.77	0.45	2
	127	11.83	0.45	2
	128	11.92	0.39	2
	129	12.07	0.42	2
	130	12.38	0.32	2
	131	12.67	1.39	2
	132	12.85	2.24	2
	133	14.06	0.85	2
	134	14.19	0.52	2
	135	15.5	1	2

