File:              	C:\Qtrac\Data\Daniel M Sørensen\MScan multicentre study\Data from centres\Oxford\Processed data\ATC01215E.QZD
Name:              	UK.OXF.NC.6.2
Protocol:          	MSCAN-R2
Date:              	15/12/20
Start time:        	17:09:07
Age:               	36
Sex:               	F
Temperature:       	34
S/R sites:         	APB
NC/disease:        	NC
Operator:          	AT
Comments:          	Median N ABP 2nd
M-SCAN DATA (6.4-1.1m)
Scanpts: 105, 114, 560, 582
Stim. (mA)     	Amp. (mV)
MS.1           	15             	6.824
MS.2           	15             	6.778
MS.3           	15             	6.782
MS.4           	15             	6.79
MS.5           	15             	6.778
MS.6           	15             	6.794
MS.7           	15             	6.78
MS.8           	15             	6.844
MS.9           	15             	6.927
MS.10          	15             	6.838
MS.11          	15             	6.725
MS.12          	15             	6.737
MS.13          	15             	6.719
MS.14          	15             	6.737
MS.15          	15             	6.776
MS.16          	15             	6.778
MS.17          	15             	6.772
MS.18          	15             	6.753
MS.19          	15             	6.79
MS.20          	15             	6.78
MS.21          	15             	6.743
MS.22          	15             	6.786
MS.23          	15             	6.729
MS.24          	14.94          	6.772
MS.25          	14.91          	6.745
MS.26          	14.88          	6.802
MS.27          	14.85          	6.802
MS.28          	14.82          	6.774
MS.29          	14.792         	6.739
MS.30          	14.762         	6.764
MS.31          	14.733         	6.778
MS.32          	14.702         	6.762
MS.33          	14.672         	6.8
MS.34          	14.645         	6.798
MS.35          	14.615         	6.794
MS.36          	14.585         	6.802
MS.37          	14.557         	6.806
MS.38          	14.527         	6.814
MS.39          	14.497         	6.788
MS.40          	14.47          	6.812
MS.41          	14.44          	6.79
MS.42          	14.412         	6.792
MS.43          	14.382         	6.796
MS.44          	14.355         	6.76
MS.45          	14.325         	6.751
MS.46          	14.297         	6.776
MS.47          	14.267         	6.818
MS.48          	14.24          	6.796
MS.49          	14.212         	6.834
MS.50          	14.182         	6.802
MS.51          	14.155         	6.818
MS.52          	14.127         	6.82
MS.53          	14.097         	6.816
MS.54          	14.07          	6.814
MS.55          	14.042         	6.818
MS.56          	14.015         	6.82
MS.57          	13.985         	6.796
MS.58          	13.957         	6.78
MS.59          	13.93          	6.755
MS.60          	13.903         	6.77
MS.61          	13.875         	6.768
MS.62          	13.847         	6.77
MS.63          	13.82          	6.784
MS.64          	13.792         	6.778
MS.65          	13.765         	6.743
MS.66          	13.737         	6.802
MS.67          	13.71          	6.888
MS.68          	13.682         	6.85
MS.69          	13.655         	6.85
MS.70          	13.627         	6.818
MS.71          	13.6           	6.838
MS.72          	13.572         	6.812
MS.73          	13.545         	6.844
MS.74          	13.517         	6.808
MS.75          	13.492         	6.836
MS.76          	13.465         	6.818
MS.77          	13.438         	6.822
MS.78          	13.41          	6.818
MS.79          	13.385         	6.858
MS.80          	13.358         	6.814
MS.81          	13.33          	6.81
MS.82          	13.305         	6.832
MS.83          	13.278         	6.838
MS.84          	13.25          	6.768
MS.85          	13.225         	6.842
MS.86          	13.197         	6.858
MS.87          	13.172         	6.898
MS.88          	13.145         	6.852
MS.89          	13.12          	6.86
MS.90          	13.092         	6.874
MS.91          	13.068         	6.842
MS.92          	13.04          	6.854
MS.93          	13.015         	6.898
MS.94          	12.987         	6.896
MS.95          	12.962         	6.808
MS.96          	12.938         	6.675
MS.97          	12.91          	6.794
MS.98          	12.885         	6.844
MS.99          	12.86          	6.838
MS.100         	12.832         	6.814
MS.101         	12.807         	6.828
MS.102         	12.782         	6.84
MS.103         	12.757         	6.842
MS.104         	12.73          	6.85
MS.105         	12.705         	6.826
MS.106         	12.68          	6.85
MS.107         	12.655         	6.88
MS.108         	12.63          	6.86
MS.109         	12.605         	6.814
MS.110         	12.58          	6.838
MS.111         	12.555         	6.794
MS.112         	12.53          	6.892
MS.113         	12.505         	6.864
MS.114         	12.48          	6.874
MS.115         	12.455         	6.85
MS.116         	12.43          	6.872
MS.117         	12.405         	6.858
MS.118         	12.38          	6.868
MS.119         	12.355         	6.884
MS.120         	12.33          	6.83
MS.121         	12.305         	6.842
MS.122         	12.28          	6.747
MS.123         	12.257         	6.806
MS.124         	12.233         	6.661
MS.125         	12.207         	6.753
MS.126         	12.182         	6.774
MS.127         	12.157         	6.808
MS.128         	12.135         	6.816
MS.129         	12.11          	6.802
MS.130         	12.085         	6.78
MS.131         	12.062         	6.8
MS.132         	12.037         	6.782
MS.133         	12.012         	6.794
MS.134         	11.99          	6.635
MS.135         	11.965         	6.532
MS.136         	11.943         	6.56
MS.137         	11.917         	6.679
MS.138         	11.895         	6.808
MS.139         	11.87          	6.576
MS.140         	11.847         	6.516
MS.141         	11.822         	6.635
MS.142         	11.8           	6.788
MS.143         	11.775         	6.828
MS.144         	11.752         	6.836
MS.145         	11.73          	6.852
MS.146         	11.705         	6.822
MS.147         	11.682         	6.77
MS.148         	11.657         	6.556
MS.149         	11.635         	6.903
MS.150         	11.613         	6.637
MS.151         	11.59          	6.54
MS.152         	11.565         	6.496
MS.153         	11.542         	6.77
MS.154         	11.52          	6.822
MS.155         	11.497         	6.86
MS.156         	11.472         	6.844
MS.157         	11.45          	6.552
MS.158         	11.427         	6.526
MS.159         	11.405         	6.562
MS.160         	11.382         	6.739
MS.161         	11.36          	6.788
MS.162         	11.337         	6.729
MS.163         	11.315         	6.762
MS.164         	11.292         	6.749
MS.165         	11.27          	6.465
MS.166         	11.247         	6.449
MS.167         	11.225         	6.506
MS.168         	11.202         	6.49
MS.169         	11.18          	6.54
MS.170         	11.157         	6.56
MS.171         	11.135         	6.508
MS.172         	11.113         	6.482
MS.173         	11.09          	6.482
MS.174         	11.068         	6.486
MS.175         	11.045         	6.465
MS.176         	11.023         	6.478
MS.177         	11.002         	6.474
MS.178         	10.98          	6.476
MS.179         	10.957         	6.653
MS.180         	10.935         	6.516
MS.181         	10.915         	6.55
MS.182         	10.892         	6.554
MS.183         	10.87          	6.524
MS.184         	10.847         	6.592
MS.185         	10.827         	6.54
MS.186         	10.805         	6.482
MS.187         	10.785         	6.484
MS.188         	10.762         	6.518
MS.189         	10.74          	6.508
MS.190         	10.72          	6.546
MS.191         	10.698         	6.56
MS.192         	10.677         	6.544
MS.193         	10.655         	6.522
MS.194         	10.635         	6.608
MS.195         	10.613         	6.58
MS.196         	10.592         	6.592
MS.197         	10.57          	6.542
MS.198         	10.55          	6.522
MS.199         	10.528         	6.57
MS.200         	10.507         	6.544
MS.201         	10.485         	6.566
MS.202         	10.465         	6.556
MS.203         	10.445         	6.532
MS.204         	10.422         	6.494
MS.205         	10.403         	6.554
MS.206         	10.382         	6.576
MS.207         	10.36          	6.56
MS.208         	10.34          	6.498
MS.209         	10.32          	6.548
MS.210         	10.3           	6.528
MS.211         	10.278         	6.544
MS.212         	10.257         	6.373
MS.213         	10.238         	6.554
MS.214         	10.217         	6.353
MS.215         	10.198         	6.467
MS.216         	10.175         	6.445
MS.217         	10.155         	6.399
MS.218         	10.135         	6.387
MS.219         	10.115         	6.272
MS.220         	10.095         	6.284
MS.221         	10.075         	6.238
MS.222         	10.055         	6.272
MS.223         	10.035         	6.101
MS.224         	10.015         	6.214
MS.225         	9.995          	6.175
MS.226         	9.975          	6.159
MS.227         	9.955          	6.226
MS.228         	9.935          	6.099
MS.229         	9.915          	6.006
MS.230         	9.895          	6.127
MS.231         	9.875          	6.101
MS.232         	9.855          	5.706
MS.233         	9.835          	6.107
MS.234         	9.818          	5.962
MS.235         	9.797          	5.67
MS.236         	9.778          	5.924
MS.237         	9.757          	6.03
MS.238         	9.738          	5.708
MS.239         	9.717          	5.857
MS.240         	9.7            	5.523
MS.241         	9.68           	5.654
MS.242         	9.66           	5.636
MS.243         	9.64           	5.394
MS.244         	9.622          	5.412
MS.245         	9.602          	5.394
MS.246         	9.582          	5.571
MS.247         	9.565          	5.315
MS.248         	9.545          	5.186
MS.249         	9.525          	5.289
MS.250         	9.507          	5.197
MS.251         	9.488          	5.047
MS.252         	9.47           	5.104
MS.253         	9.45           	5.118
MS.254         	9.432          	5.033
MS.255         	9.412          	5.047
MS.256         	9.395          	5.275
MS.257         	9.375          	5.076
MS.258         	9.358          	4.997
MS.259         	9.337          	4.804
MS.260         	9.32           	4.959
MS.261         	9.3            	4.814
MS.262         	9.283          	4.772
MS.263         	9.262          	4.866
MS.264         	9.245          	4.713
MS.265         	9.225          	4.78
MS.266         	9.207          	4.653
MS.267         	9.19           	4.639
MS.268         	9.17           	4.614
MS.269         	9.153          	4.536
MS.270         	9.135          	4.369
MS.271         	9.115          	4.334
MS.272         	9.097          	4.29
MS.273         	9.08           	4.306
MS.274         	9.062          	4.246
MS.275         	9.042          	4.189
MS.276         	9.025          	4.191
MS.277         	9.007          	4.099
MS.278         	8.99           	4.181
MS.279         	8.972          	4.179
MS.280         	8.952          	4.071
MS.281         	8.935          	4.115
MS.282         	8.917          	3.972
MS.283         	8.9            	4.055
MS.284         	8.882          	3.95
MS.285         	8.865          	3.871
MS.286         	8.847          	3.914
MS.287         	8.83           	3.805
MS.288         	8.812          	3.825
MS.289         	8.795          	3.634
MS.290         	8.775          	3.764
MS.291         	8.757          	3.396
MS.292         	8.74           	3.297
MS.293         	8.722          	3.561
MS.294         	8.707          	3.42
MS.295         	8.69           	3.388
MS.296         	8.672          	3.227
MS.297         	8.655          	3.593
MS.298         	8.637          	3.201
MS.299         	8.62           	3.14
MS.300         	8.602          	3.043
MS.301         	8.585          	3.297
MS.302         	8.568          	3.003
MS.303         	8.55           	3.146
MS.304         	8.535          	2.757
MS.305         	8.517          	3.104
MS.306         	8.5            	3.025
MS.307         	8.483          	2.923
MS.308         	8.465          	2.796
MS.309         	8.45           	2.955
MS.310         	8.432          	2.616
MS.311         	8.415          	2.802
MS.312         	8.398          	2.645
MS.313         	8.382          	2.471
MS.314         	8.365          	2.628
MS.315         	8.347          	2.683
MS.316         	8.332          	2.477
MS.317         	8.315          	2.483
MS.318         	8.297          	2.518
MS.319         	8.283          	2.538
MS.320         	8.265          	2.403
MS.321         	8.247          	2.226
MS.322         	8.233          	2.111
MS.323         	8.215          	2.24
MS.324         	8.2            	2.296
MS.325         	8.182          	2.129
MS.326         	8.167          	2.224
MS.327         	8.15           	2.083
MS.328         	8.135          	2.062
MS.329         	8.117          	2.058
MS.330         	8.102          	1.833
MS.331         	8.085          	2.081
MS.332         	8.07           	2.04
MS.333         	8.052          	1.821
MS.334         	8.037          	1.642
MS.335         	8.02           	1.827
MS.336         	8.005          	1.73
MS.337         	7.99           	1.652
MS.338         	7.972          	1.708
MS.339         	7.957          	1.579
MS.340         	7.94           	1.517
MS.341         	7.925          	1.75
MS.342         	7.91           	1.492
MS.343         	7.892          	1.422
MS.344         	7.878          	1.43
MS.345         	7.862          	1.404
MS.346         	7.847          	1.352
MS.347         	7.83           	1.289
MS.348         	7.815          	1.259
MS.349         	7.8            	1.317
MS.350         	7.785          	1.233
MS.351         	7.767          	1.041
MS.352         	7.753          	1.343
MS.353         	7.737          	1.118
MS.354         	7.722          	1.19
MS.355         	7.707          	1.045
MS.356         	7.69           	0.924
MS.357         	7.675          	1.033
MS.358         	7.66           	0.894
MS.359         	7.645          	0.906
MS.360         	7.63           	0.894
MS.361         	7.615          	0.896
MS.362         	7.6            	0.888
MS.363         	7.585          	0.892
MS.364         	7.57           	0.826
MS.365         	7.555          	0.792
MS.366         	7.537          	0.818
MS.367         	7.523          	0.786
MS.368         	7.507          	0.737
MS.369         	7.492          	0.725
MS.370         	7.477          	0.655
MS.371         	7.462          	0.643
MS.372         	7.447          	0.568
MS.373         	7.435          	0.645
MS.374         	7.42           	0.691
MS.375         	7.405          	0.669
MS.376         	7.39           	0.661
MS.377         	7.375          	0.671
MS.378         	7.36           	0.624
MS.379         	7.345          	0.663
MS.380         	7.33           	0.673
MS.381         	7.315          	0.518
MS.382         	7.302          	0.393
MS.383         	7.287          	0.465
MS.384         	7.273          	0.437
MS.385         	7.257          	0.415
MS.386         	7.242          	0.455
MS.387         	7.227          	0.352
MS.388         	7.215          	0.344
MS.389         	7.2            	0.294
MS.390         	7.185          	0.407
MS.391         	7.17           	0.308
MS.392         	7.157          	0.332
MS.393         	7.142          	0.514
MS.394         	7.128          	0.31
MS.395         	7.115          	0.338
MS.396         	7.1            	0.312
MS.397         	7.085          	0.304
MS.398         	7.072          	0.314
MS.399         	7.057          	0.31
MS.400         	7.043          	0.29
MS.401         	7.03           	0.306
MS.402         	7.015          	0.29
MS.403         	7              	0.294
MS.404         	6.987          	0.286
MS.405         	6.972          	0.282
MS.406         	6.96           	0.226
MS.407         	6.945          	0.284
MS.408         	6.932          	0.226
MS.409         	6.918          	0.228
MS.410         	6.902          	0.222
MS.411         	6.89           	0.284
MS.412         	6.875          	0.224
MS.413         	6.862          	0.286
MS.414         	6.847          	0.234
MS.415         	6.835          	0.288
MS.416         	6.822          	0.23
MS.417         	6.807          	0.228
MS.418         	6.795          	0.23
MS.419         	6.78           	0.226
MS.420         	6.767          	0.23
MS.421         	6.753          	0.228
MS.422         	6.74           	0.236
MS.423         	6.727          	0.292
MS.424         	6.712          	0.236
MS.425         	6.7            	0.284
MS.426         	6.685          	0.23
MS.427         	6.672          	0.228
MS.428         	6.66           	0.242
MS.429         	6.645          	0.228
MS.430         	6.632          	0.149
MS.431         	6.62           	0.238
MS.432         	6.608          	0.226
MS.433         	6.592          	0.234
MS.434         	6.58           	0.153
MS.435         	6.567          	0.234
MS.436         	6.555          	0.149
MS.437         	6.54           	0.149
MS.438         	6.527          	0.234
MS.439         	6.515          	0.234
MS.440         	6.503          	0.145
MS.441         	6.487          	0.145
MS.442         	6.475          	0.24
MS.443         	6.462          	0.149
MS.444         	6.45           	0.232
MS.445         	6.438          	0.149
MS.446         	6.425          	0.147
MS.447         	6.41           	0.147
MS.448         	6.398          	0.119
MS.449         	6.385          	0.214
MS.450         	6.372          	0.117
MS.451         	6.36           	0.115
MS.452         	6.347          	0.119
MS.453         	6.335          	0.117
MS.454         	6.322          	0.113
MS.455         	6.31           	0.117
MS.456         	6.297          	0.115
MS.457         	6.285          	0.115
MS.458         	6.273          	0.111
MS.459         	6.26           	0.111
MS.460         	6.247          	0.113
MS.461         	6.235          	0.113
MS.462         	6.222          	0.109
MS.463         	6.21           	0.115
MS.464         	6.197          	0.111
MS.465         	6.185          	0.111
MS.466         	6.172          	0.111
MS.467         	6.16           	0.117
MS.468         	6.148          	0.111
MS.469         	6.135          	0.111
MS.470         	6.122          	0.111
MS.471         	6.11           	0.111
MS.472         	6.097          	0.115
MS.473         	6.088          	0.056
MS.474         	6.075          	0.107
MS.475         	6.062          	0.113
MS.476         	6.05           	0.107
MS.477         	6.037          	0.056
MS.478         	6.025          	0.056
MS.479         	6.012          	0.058
MS.480         	6.003          	0.105
MS.481         	5.99           	0.058
MS.482         	5.977          	0.056
MS.483         	5.965          	0.054
MS.484         	5.955          	0.097
MS.485         	5.942          	0.109
MS.486         	5.93           	0.056
MS.487         	5.918          	0.05
MS.488         	5.907          	0.105
MS.489         	5.895          	0.054
MS.490         	5.882          	0.054
MS.491         	5.87           	0.054
MS.492         	5.86           	0.054
MS.493         	5.847          	0.052
MS.494         	5.835          	0.054
MS.495         	5.825          	0.056
MS.496         	5.812          	0.052
MS.497         	5.8            	0.054
MS.498         	5.79           	0.056
MS.499         	5.777          	0.052
MS.500         	5.767          	0.054
MS.501         	5.755          	0.054
MS.502         	5.742          	0.05
MS.503         	5.733          	0.054
MS.504         	5.72           	0.056
MS.505         	5.71           	0.05
MS.506         	5.697          	0.052
MS.507         	5.685          	0.05
MS.508         	5.675          	0.052
MS.509         	5.662          	0.05
MS.510         	5.652          	0.054
MS.511         	5.64           	0.054
MS.512         	5.63           	0.056
MS.513         	5.617          	0.056
MS.514         	5.608          	0.052
MS.515         	5.595          	0.056
MS.516         	5.585          	0.05
MS.517         	5.572          	0.058
MS.518         	5.562          	0.054
MS.519         	5.552          	0.052
MS.520         	5.54           	0.022
MS.521         	5.53           	0.052
MS.522         	5.517          	0.05
MS.523         	5.507          	0.02
MS.524         	5.495          	0.022
MS.525         	5.485          	0.024
MS.526         	5.475          	0.02
MS.527         	5.463          	0.02
MS.528         	5.452          	0.02
MS.529         	5.443          	0.018
MS.530         	5.43           	0.02
MS.531         	5.42           	0.02
MS.532         	5.41           	0.022
MS.533         	5.398          	0.024
MS.534         	5.387          	-0.004
MS.535         	5.378          	0.02
MS.536         	5.365          	0.024
MS.537         	5.355          	0.004
MS.538         	5.345          	0.024
MS.539         	5.332          	0.02
MS.540         	5.322          	0.022
MS.541         	5.312          	0.000
MS.542         	5.302          	-0.002
MS.543         	5.29           	-0.002
MS.544         	5.28           	0.024
MS.545         	5.27           	-0.002
MS.546         	5.26           	0.000
MS.547         	5.25           	-0.002
MS.548         	5.237          	-0.006
MS.549         	5.227          	-0.004
MS.550         	5.217          	-0.002
MS.551         	5.207          	-0.004
MS.552         	5.197          	-0.004
MS.553         	5.188          	-0.002
MS.554         	5.175          	-0.004
MS.555         	5.165          	-0.004
MS.556         	5.155          	-0.002
MS.557         	5.145          	-0.008
MS.558         	5.135          	-0.004
MS.559         	5.125          	-0.008
MS.560         	5.115          	-0.006
MS.561         	5.105          	-0.008
MS.562         	5.095          	-0.002
MS.563         	5.082          	-0.004
MS.564         	5.072          	-0.004
MS.565         	5.062          	-0.008
MS.566         	5.052          	-0.008
MS.567         	5.043          	0.002
MS.568         	5.032          	-0.004
MS.569         	5.023          	-0.006
MS.570         	5.012          	-0.004
MS.571         	5.003          	-0.002
MS.572         	4.992          	-0.006
MS.573         	4.983          	-0.006
MS.574         	4.972          	-0.008
MS.575         	4.963          	0.002
MS.576         	4.952          	-0.008
MS.577         	4.943          	-0.01
MS.578         	4.932          	-0.01
MS.579         	4.922          	-0.008
MS.580         	4.915          	-0.008
MS.581         	4.905          	-0.008
MS.582         	4.895          	-0.004
DERIVED EXCITABILITY VARIABLES
Program = QTracP 3/4/2020
Threshold method = 6 (optimised for CAP, using data for present condition only)
SR method = 1 (using actual data values)
6.                 	0.000               	Peak response\(mV)
9.                 	34                  	Temperature ( C)
17.                	36                  	Age (years)
18.                	2                   	Sex (M=1, F=2)

EXTRA VARIABLES

MScPeak(mV) = 6.79
MScS5(mA) = 7.17
MScS50(mA) = 8.7
MScS95(mA) = 10.22
MScNSteps = 4
MScSteps(%) = 9.8
MScStepMax(%) = 3.1
MScD50 = 42
MScSlope = 5.97
MSFPeakAmp(mV) = 6.85
MSFNUnits = 152
MSFMeanUnitAmp(uV) = 45.1
MSFHuntTime(m) = 2.61
MSFError(%) = 3.21
MSFNLarge = 42.75
MSFMedianAmp(%) = 0.517
MSFMedianAmp(mV) = 0.0354
MSFHalfAmpAmp(%) = 0.785
MSFHalfAmpAmp(mV) = 0.0538
MSFLargestAmp(%) = 3.35
MSFLargestAmp(mV) = 0.23
MSFMeanRS(%) = 2
MSFOpts = 10106121
MScDuration(min) = 5.3
MSFTraces = 478
MSFSizeLimit(uV) = 17.1
MSFLimitType = 1
MSFSmallestAmp(uV) = 18

EXTRA WAVEFORMS


!MScan Model
!152
	1	5.42	0.47	2
	2	5.54	0.37	2
	3	5.87	0.32	2
	4	6.06	0.47	2
	5	6.3	0.42	2
	6	6.37	0.28	2
	7	6.59	1.09	2
	8	6.94	0.69	2
	9	7.02	0.3	2
	10	7.18	1.22	2
	11	7.24	0.93	2
	12	7.26	0.36	2
	13	7.27	0.27	2
	14	7.29	0.29	2
	15	7.3	0.27	2
	16	7.33	0.72	2
	17	7.4	0.97	2
	18	7.44	0.6	2
	19	7.48	0.68	2
	20	7.52	0.49	2
	21	7.54	0.49	2
	22	7.55	0.33	2
	23	7.57	0.33	2
	24	7.58	0.36	2
	25	7.6	0.36	2
	26	7.61	0.33	2
	27	7.63	0.39	2
	28	7.65	0.48	2
	29	7.67	0.52	2
	30	7.69	0.59	2
	31	7.7	0.52	2
	32	7.72	0.5	2
	33	7.74	0.45	2
	34	7.75	0.41	2
	35	7.77	0.55	2
	36	7.79	0.69	2
	37	7.81	0.74	2
	38	7.83	0.68	2
	39	7.85	0.64	2
	40	7.87	0.53	2
	41	7.88	0.54	2
	42	7.9	0.48	2
	43	7.92	0.48	2
	44	7.94	0.64	2
	45	7.96	0.88	2
	46	7.98	0.92	2
	47	8	0.8	2
	48	8.02	0.54	2
	49	8.03	0.52	2
	50	8.05	0.56	2
	51	8.06	0.52	2
	52	8.08	0.52	2
	53	8.09	0.71	2
	54	8.12	0.99	2
	55	8.14	0.83	2
	56	8.17	0.79	2
	57	8.18	0.44	2
	58	8.19	0.44	2
	59	8.21	0.51	2
	60	8.22	0.5	2
	61	8.24	0.47	2
	62	8.25	0.55	2
	63	8.27	0.7	2
	64	8.29	0.48	2
	65	8.31	0.77	2
	66	8.34	0.91	2
	67	8.37	1.27	2
	68	8.41	1.21	2
	69	8.44	1.04	2
	70	8.47	1.04	2
	71	8.51	1.22	2
	72	8.54	1.45	2
	73	8.58	1.44	2
	74	8.62	1.52	2
	75	8.67	1.51	2
	76	8.69	0.83	2
	77	8.72	0.99	2
	78	8.74	1.14	2
	79	8.76	0.87	2
	80	8.77	0.55	2
	81	8.79	0.44	2
	82	8.8	0.45	2
	83	8.81	0.5	2
	84	8.83	0.58	2
	85	8.84	0.58	2
	86	8.85	0.57	2
	87	8.86	0.54	2
	88	8.88	0.54	2
	89	8.89	0.46	2
	90	8.9	0.39	2
	91	8.91	0.41	2
	92	8.93	0.34	2
	93	8.94	0.32	2
	94	8.95	0.34	2
	95	8.96	0.38	2.1
	96	8.98	0.4	2
	97	8.99	0.42	2
	98	9	0.32	2
	99	9.02	0.44	2
	100	9.04	0.51	2
	101	9.05	0.26	2
	102	9.07	0.4	2
	103	9.08	0.5	2
	104	9.09	0.42	2
	105	9.1	0.34	2
	106	9.11	0.42	2
	107	9.12	0.33	2
	108	9.13	0.36	2
	109	9.14	0.31	2
	110	9.15	0.29	2
	111	9.16	0.3	2
	112	9.17	0.3	2
	113	9.18	0.33	2
	114	9.19	0.33	2
	115	9.2	0.33	2
	116	9.2	0.33	2
	117	9.22	0.72	2
	118	9.25	0.86	2
	119	9.27	1.03	2
	120	9.29	0.8	2
	121	9.33	1.02	2
	122	9.37	0.93	2
	123	9.41	0.98	2
	124	9.46	1.37	2
	125	9.49	0.97	2
	126	9.51	0.39	2
	127	9.53	0.36	2
	128	9.55	0.34	2
	129	9.56	0.63	2
	130	9.58	0.63	2
	131	9.61	0.93	2
	132	9.63	0.96	2
	133	9.66	0.9	2
	134	9.69	1.1	2
	135	9.74	1.68	2
	136	9.8	1.68	2
	137	9.87	2.05	2
	138	9.95	1.52	2
	139	9.97	0.42	2
	140	9.99	0.32	2
	141	10	0.34	2
	142	10.02	0.34	2
	143	10.04	0.34	2
	144	10.06	0.35	2
	145	10.08	0.5	2
	146	10.11	0.41	2
	147	10.13	0.28	2
	148	10.16	0.44	2
	149	10.2	0.87	2
	150	10.25	0.69	2.4
	151	11.45	3.35	1.88
	152	12.2	1.34	2

