File:              	C:\Qtrac\Data\Daniel M Sørensen\MScan multicentre study\Data from centres\Oxford\Raw data (sorted for use)\ATC01204D.QZD
Name:              	UK.OXF.NC.2.1
Protocol:          	MSCAN-R2
Date:              	4/12/20
Start time:        	16:14:21
Age:               	29
Sex:               	M
Temperature:       	33.3
S/R sites:         	APB
NC/disease:        	NC
Operator:          	AT
Comments:          	HC Trial Median N
M-SCAN DATA (7-1.2m)
Scanpts: 53, 60, 602, 623
Stim. (mA)     	Amp. (mV)
MS.1           	16             	7.132
MS.2           	16             	7.142
MS.3           	16             	7.134
MS.4           	16             	7.152
MS.5           	16             	7.116
MS.6           	16             	7.11
MS.7           	16             	7.074
MS.8           	16             	7.199
MS.9           	16             	7.07
MS.10          	16             	7.011
MS.11          	16             	7.029
MS.12          	16             	7.054
MS.13          	16             	7.035
MS.14          	16             	7.066
MS.15          	16             	7.017
MS.16          	16             	7.037
MS.17          	16             	7.042
MS.18          	16             	7.052
MS.19          	16             	7.054
MS.20          	16             	7.048
MS.21          	16             	7.05
MS.22          	16             	7.066
MS.23          	16             	7.096
MS.24          	15.935         	7.082
MS.25          	15.905         	7.078
MS.26          	15.872         	7.009
MS.27          	15.84          	7.019
MS.28          	15.81          	7.023
MS.29          	15.777         	7.003
MS.30          	15.745         	7.074
MS.31          	15.715         	7.05
MS.32          	15.682         	7.052
MS.33          	15.652         	6.975
MS.34          	15.62          	6.963
MS.35          	15.59          	6.981
MS.36          	15.557         	7.013
MS.37          	15.527         	6.923
MS.38          	15.495         	6.991
MS.39          	15.465         	7.009
MS.40          	15.435         	7.005
MS.41          	15.402         	6.965
MS.42          	15.372         	6.981
MS.43          	15.342         	7.05
MS.44          	15.31          	7.015
MS.45          	15.28          	6.983
MS.46          	15.25          	6.987
MS.47          	15.22          	7.05
MS.48          	15.19          	6.939
MS.49          	15.16          	7.005
MS.50          	15.127         	7.011
MS.51          	15.097         	7.021
MS.52          	15.068         	7.011
MS.53          	15.037         	6.977
MS.54          	15.007         	7.015
MS.55          	14.977         	6.999
MS.56          	14.947         	6.997
MS.57          	14.917         	6.989
MS.58          	14.887         	6.987
MS.59          	14.858         	6.999
MS.60          	14.83          	6.975
MS.61          	14.8           	6.989
MS.62          	14.77          	6.989
MS.63          	14.74          	6.991
MS.64          	14.71          	7.007
MS.65          	14.682         	6.913
MS.66          	14.652         	6.965
MS.67          	14.622         	6.993
MS.68          	14.592         	6.987
MS.69          	14.565         	6.997
MS.70          	14.535         	6.991
MS.71          	14.507         	6.955
MS.72          	14.477         	6.941
MS.73          	14.447         	6.997
MS.74          	14.42          	6.943
MS.75          	14.39          	6.941
MS.76          	14.362         	6.919
MS.77          	14.332         	6.955
MS.78          	14.305         	6.945
MS.79          	14.275         	6.939
MS.80          	14.247         	6.987
MS.81          	14.22          	6.925
MS.82          	14.19          	6.951
MS.83          	14.162         	6.951
MS.84          	14.135         	6.943
MS.85          	14.105         	6.967
MS.86          	14.077         	6.945
MS.87          	14.05          	6.892
MS.88          	14.023         	6.901
MS.89          	13.992         	6.947
MS.90          	13.965         	6.925
MS.91          	13.938         	6.927
MS.92          	13.91          	6.909
MS.93          	13.882         	6.909
MS.94          	13.855         	6.931
MS.95          	13.827         	6.917
MS.96          	13.8           	6.917
MS.97          	13.773         	6.929
MS.98          	13.745         	6.909
MS.99          	13.717         	6.894
MS.100         	13.69          	6.917
MS.101         	13.662         	6.919
MS.102         	13.635         	6.913
MS.103         	13.608         	6.913
MS.104         	13.58          	6.915
MS.105         	13.552         	6.884
MS.106         	13.525         	6.898
MS.107         	13.497         	6.909
MS.108         	13.472         	6.768
MS.109         	13.445         	6.905
MS.110         	13.417         	6.689
MS.111         	13.39          	6.921
MS.112         	13.365         	6.764
MS.113         	13.337         	6.705
MS.114         	13.31          	6.753
MS.115         	13.285         	6.671
MS.116         	13.257         	6.828
MS.117         	13.233         	6.683
MS.118         	13.205         	6.649
MS.119         	13.177         	6.733
MS.120         	13.153         	6.665
MS.121         	13.125         	6.627
MS.122         	13.1           	6.697
MS.123         	13.072         	6.639
MS.124         	13.047         	6.625
MS.125         	13.023         	6.631
MS.126         	12.995         	6.544
MS.127         	12.97          	6.568
MS.128         	12.943         	6.53
MS.129         	12.917         	6.621
MS.130         	12.892         	6.474
MS.131         	12.865         	6.502
MS.132         	12.84          	6.619
MS.133         	12.815         	6.582
MS.134         	12.79          	6.56
MS.135         	12.762         	6.48
MS.136         	12.738         	6.504
MS.137         	12.712         	6.459
MS.138         	12.688         	6.383
MS.139         	12.662         	6.379
MS.140         	12.637         	6.413
MS.141         	12.61          	6.359
MS.142         	12.585         	6.385
MS.143         	12.56          	6.2
MS.144         	12.535         	6.351
MS.145         	12.51          	6.361
MS.146         	12.485         	6.441
MS.147         	12.46          	6.214
MS.148         	12.435         	6.337
MS.149         	12.41          	6.335
MS.150         	12.385         	6.256
MS.151         	12.363         	6.234
MS.152         	12.337         	6.204
MS.153         	12.312         	6.049
MS.154         	12.287         	6.272
MS.155         	12.262         	5.954
MS.156         	12.238         	6.038
MS.157         	12.215         	5.928
MS.158         	12.19          	6.216
MS.159         	12.165         	5.668
MS.160         	12.14          	6.034
MS.161         	12.117         	5.873
MS.162         	12.092         	5.72
MS.163         	12.068         	5.843
MS.164         	12.045         	5.652
MS.165         	12.02          	5.829
MS.166         	11.995         	5.837
MS.167         	11.972         	5.877
MS.168         	11.947         	5.879
MS.169         	11.925         	5.791
MS.170         	11.9           	5.744
MS.171         	11.877         	5.775
MS.172         	11.852         	5.519
MS.173         	11.83          	5.573
MS.174         	11.805         	5.593
MS.175         	11.782         	5.591
MS.176         	11.757         	5.519
MS.177         	11.735         	5.505
MS.178         	11.712         	5.408
MS.179         	11.688         	5.346
MS.180         	11.665         	5.406
MS.181         	11.642         	5.412
MS.182         	11.617         	5.152
MS.183         	11.595         	5.444
MS.184         	11.572         	5.412
MS.185         	11.55          	5.074
MS.186         	11.525         	5.281
MS.187         	11.502         	4.919
MS.188         	11.48          	4.987
MS.189         	11.457         	5.088
MS.190         	11.435         	5.186
MS.191         	11.41          	5.072
MS.192         	11.387         	4.9
MS.193         	11.365         	4.929
MS.194         	11.342         	4.774
MS.195         	11.32          	4.755
MS.196         	11.297         	4.886
MS.197         	11.275         	4.862
MS.198         	11.252         	4.671
MS.199         	11.23          	4.834
MS.200         	11.207         	4.723
MS.201         	11.185         	4.772
MS.202         	11.162         	4.582
MS.203         	11.14          	4.496
MS.204         	11.117         	4.578
MS.205         	11.095         	4.514
MS.206         	11.075         	4.669
MS.207         	11.052         	4.524
MS.208         	11.03          	4.33
MS.209         	11.007         	4.328
MS.210         	10.985         	4.433
MS.211         	10.962         	4.123
MS.212         	10.943         	4.276
MS.213         	10.92          	4.173
MS.214         	10.898         	4.244
MS.215         	10.877         	3.998
MS.216         	10.855         	4.189
MS.217         	10.832         	4.2
MS.218         	10.81          	4.048
MS.219         	10.79          	4.065
MS.220         	10.767         	4.026
MS.221         	10.747         	3.964
MS.222         	10.725         	3.978
MS.223         	10.702         	3.726
MS.224         	10.682         	3.75
MS.225         	10.66          	3.819
MS.226         	10.64          	4.012
MS.227         	10.617         	3.97
MS.228         	10.597         	3.682
MS.229         	10.575         	3.738
MS.230         	10.555         	3.736
MS.231         	10.535         	3.65
MS.232         	10.512         	3.64
MS.233         	10.492         	3.746
MS.234         	10.47          	3.686
MS.235         	10.45          	3.539
MS.236         	10.43          	3.547
MS.237         	10.407         	3.805
MS.238         	10.387         	3.321
MS.239         	10.367         	3.482
MS.240         	10.345         	3.424
MS.241         	10.325         	3.513
MS.242         	10.305         	3.293
MS.243         	10.285         	3.434
MS.244         	10.262         	3.315
MS.245         	10.242         	3.126
MS.246         	10.222         	3.523
MS.247         	10.202         	3.4
MS.248         	10.182         	3.341
MS.249         	10.162         	3.086
MS.250         	10.14          	3.132
MS.251         	10.12          	3.219
MS.252         	10.1           	3.017
MS.253         	10.08          	2.912
MS.254         	10.06          	3.053
MS.255         	10.04          	2.78
MS.256         	10.02          	2.786
MS.257         	10             	2.967
MS.258         	9.98           	2.84
MS.259         	9.96           	2.735
MS.260         	9.94           	2.852
MS.261         	9.92           	2.886
MS.262         	9.9            	2.973
MS.263         	9.88           	2.729
MS.264         	9.86           	2.681
MS.265         	9.842          	2.767
MS.266         	9.823          	2.661
MS.267         	9.802          	2.788
MS.268         	9.782          	2.649
MS.269         	9.762          	2.737
MS.270         	9.742          	2.661
MS.271         	9.725          	2.596
MS.272         	9.705          	2.697
MS.273         	9.685          	2.55
MS.274         	9.665          	2.604
MS.275         	9.648          	2.586
MS.276         	9.627          	2.413
MS.277         	9.608          	2.465
MS.278         	9.587          	2.54
MS.279         	9.57           	2.463
MS.280         	9.55           	2.477
MS.281         	9.532          	2.483
MS.282         	9.512          	2.342
MS.283         	9.492          	2.344
MS.284         	9.475          	2.353
MS.285         	9.455          	2.395
MS.286         	9.438          	2.344
MS.287         	9.417          	2.357
MS.288         	9.4            	2.26
MS.289         	9.38           	2.075
MS.290         	9.363          	2.159
MS.291         	9.342          	2.254
MS.292         	9.325          	2.127
MS.293         	9.305          	2.032
MS.294         	9.287          	2.026
MS.295         	9.267          	2.03
MS.296         	9.25           	1.95
MS.297         	9.23           	2.133
MS.298         	9.212          	2.167
MS.299         	9.195          	2.062
MS.300         	9.175          	2.032
MS.301         	9.158          	2.006
MS.302         	9.14           	1.915
MS.303         	9.12           	1.694
MS.304         	9.102          	1.535
MS.305         	9.085          	1.982
MS.306         	9.068          	1.809
MS.307         	9.047          	1.899
MS.308         	9.03           	2.054
MS.309         	9.012          	1.633
MS.310         	8.995          	1.73
MS.311         	8.977          	1.843
MS.312         	8.957          	1.662
MS.313         	8.94           	1.525
MS.314         	8.922          	1.543
MS.315         	8.905          	1.241
MS.316         	8.887          	1.249
MS.317         	8.87           	1.307
MS.318         	8.852          	1.291
MS.319         	8.835          	1.746
MS.320         	8.815          	1.233
MS.321         	8.797          	1.464
MS.322         	8.78           	1.533
MS.323         	8.762          	1.231
MS.324         	8.745          	1.349
MS.325         	8.727          	1.251
MS.326         	8.71           	1.2
MS.327         	8.693          	1.211
MS.328         	8.675          	1.206
MS.329         	8.66           	1.158
MS.330         	8.642          	1.158
MS.331         	8.625          	1.108
MS.332         	8.608          	1.166
MS.333         	8.59           	1.114
MS.334         	8.573          	1.166
MS.335         	8.555          	1.092
MS.336         	8.537          	1.092
MS.337         	8.523          	1.227
MS.338         	8.505          	1.094
MS.339         	8.488          	1.223
MS.340         	8.47           	1.094
MS.341         	8.452          	1.152
MS.342         	8.438          	1.086
MS.343         	8.42           	1.088
MS.344         	8.403          	1.124
MS.345         	8.385          	1.1
MS.346         	8.37           	1.088
MS.347         	8.352          	1.094
MS.348         	8.335          	1.08
MS.349         	8.32           	1.096
MS.350         	8.302          	1.09
MS.351         	8.285          	1.122
MS.352         	8.27           	1.092
MS.353         	8.252          	1.094
MS.354         	8.238          	1.09
MS.355         	8.22           	1.098
MS.356         	8.202          	1.068
MS.357         	8.188          	1.092
MS.358         	8.17           	1.096
MS.359         	8.155          	0.906
MS.360         	8.137          	1.09
MS.361         	8.122          	1.063
MS.362         	8.105          	0.898
MS.363         	8.09           	0.927
MS.364         	8.073          	0.914
MS.365         	8.057          	0.673
MS.366         	8.042          	1.072
MS.367         	8.025          	0.661
MS.368         	8.01           	1.068
MS.369         	7.992          	0.667
MS.370         	7.977          	0.665
MS.371         	7.96           	0.671
MS.372         	7.945          	0.671
MS.373         	7.93           	0.689
MS.374         	7.912          	0.653
MS.375         	7.898          	0.689
MS.376         	7.882          	0.655
MS.377         	7.867          	0.695
MS.378         	7.85           	0.667
MS.379         	7.835          	0.699
MS.380         	7.82           	0.669
MS.381         	7.802          	0.665
MS.382         	7.787          	0.655
MS.383         	7.773          	0.661
MS.384         	7.757          	0.701
MS.385         	7.742          	0.655
MS.386         	7.725          	0.663
MS.387         	7.71           	0.687
MS.388         	7.695          	0.685
MS.389         	7.68           	0.697
MS.390         	7.665          	0.562
MS.391         	7.65           	0.677
MS.392         	7.635          	0.667
MS.393         	7.617          	0.691
MS.394         	7.602          	0.695
MS.395         	7.587          	0.628
MS.396         	7.572          	0.695
MS.397         	7.557          	0.701
MS.398         	7.543          	0.626
MS.399         	7.527          	0.632
MS.400         	7.512          	0.584
MS.401         	7.497          	0.649
MS.402         	7.482          	0.584
MS.403         	7.467          	0.584
MS.404         	7.452          	0.628
MS.405         	7.438          	0.626
MS.406         	7.422          	0.655
MS.407         	7.407          	0.588
MS.408         	7.392          	0.584
MS.409         	7.378          	0.58
MS.410         	7.365          	0.582
MS.411         	7.35           	0.582
MS.412         	7.335          	0.558
MS.413         	7.32           	0.58
MS.414         	7.305          	0.58
MS.415         	7.29           	0.653
MS.416         	7.275          	0.582
MS.417         	7.262          	0.588
MS.418         	7.247          	0.556
MS.419         	7.233          	0.586
MS.420         	7.217          	0.556
MS.421         	7.202          	0.588
MS.422         	7.19           	0.592
MS.423         	7.175          	0.558
MS.424         	7.16           	0.59
MS.425         	7.145          	0.564
MS.426         	7.132          	0.558
MS.427         	7.117          	0.562
MS.428         	7.102          	0.58
MS.429         	7.09           	0.56
MS.430         	7.075          	0.562
MS.431         	7.06           	0.582
MS.432         	7.047          	0.487
MS.433         	7.032          	0.485
MS.434         	7.017          	0.481
MS.435         	7.005          	0.469
MS.436         	6.99           	0.57
MS.437         	6.977          	0.548
MS.438         	6.962          	0.417
MS.439         	6.95           	0.403
MS.440         	6.935          	0.479
MS.441         	6.92           	0.495
MS.442         	6.907          	0.453
MS.443         	6.892          	0.558
MS.444         	6.88           	0.419
MS.445         	6.865          	0.405
MS.446         	6.852          	0.491
MS.447         	6.837          	0.391
MS.448         	6.825          	0.401
MS.449         	6.812          	0.405
MS.450         	6.797          	0.383
MS.451         	6.785          	0.528
MS.452         	6.77           	0.395
MS.453         	6.757          	0.391
MS.454         	6.742          	0.383
MS.455         	6.73           	0.373
MS.456         	6.717          	0.373
MS.457         	6.702          	0.371
MS.458         	6.69           	0.373
MS.459         	6.677          	0.367
MS.460         	6.662          	0.375
MS.461         	6.65           	0.371
MS.462         	6.637          	0.375
MS.463         	6.622          	0.371
MS.464         	6.61           	0.33
MS.465         	6.597          	0.35
MS.466         	6.582          	0.338
MS.467         	6.57           	0.348
MS.468         	6.557          	0.348
MS.469         	6.545          	0.171
MS.470         	6.53           	0.334
MS.471         	6.517          	0.365
MS.472         	6.505          	0.322
MS.473         	6.492          	0.336
MS.474         	6.48           	0.336
MS.475         	6.465          	0.336
MS.476         	6.452          	0.346
MS.477         	6.44           	0.155
MS.478         	6.427          	0.272
MS.479         	6.415          	0.163
MS.480         	6.402          	0.32
MS.481         	6.39           	0.288
MS.482         	6.378          	0.115
MS.483         	6.362          	0.173
MS.484         	6.35           	0.308
MS.485         	6.338          	0.32
MS.486         	6.325          	0.101
MS.487         	6.312          	0.145
MS.488         	6.3            	0.165
MS.489         	6.287          	0.149
MS.490         	6.275          	0.117
MS.491         	6.262          	0.157
MS.492         	6.25           	0.151
MS.493         	6.237          	0.161
MS.494         	6.225          	0.105
MS.495         	6.213          	0.068
MS.496         	6.2            	0.093
MS.497         	6.188          	0.111
MS.498         	6.175          	0.111
MS.499         	6.162          	0.099
MS.500         	6.15           	0.081
MS.501         	6.137          	0.101
MS.502         	6.128          	0.107
MS.503         	6.115          	0.073
MS.504         	6.102          	0.081
MS.505         	6.09           	0.077
MS.506         	6.077          	0.111
MS.507         	6.065          	0.079
MS.508         	6.052          	0.068
MS.509         	6.04           	0.079
MS.510         	6.03           	0.073
MS.511         	6.017          	0.083
MS.512         	6.005          	0.079
MS.513         	5.992          	0.079
MS.514         	5.98           	0.107
MS.515         	5.97           	0.077
MS.516         	5.957          	0.077
MS.517         	5.945          	0.081
MS.518         	5.932          	0.07
MS.519         	5.922          	0.075
MS.520         	5.91           	0.064
MS.521         	5.898          	0.068
MS.522         	5.885          	0.064
MS.523         	5.875          	0.06
MS.524         	5.862          	0.064
MS.525         	5.85           	0.022
MS.526         	5.84           	0.064
MS.527         	5.827          	0.06
MS.528         	5.815          	0.06
MS.529         	5.805          	0.06
MS.530         	5.793          	0.024
MS.531         	5.78           	0.064
MS.532         	5.77           	0.026
MS.533         	5.757          	0.068
MS.534         	5.747          	0.062
MS.535         	5.735          	0.028
MS.536         	5.722          	0.026
MS.537         	5.713          	0.028
MS.538         	5.7            	0.028
MS.539         	5.69           	0.03
MS.540         	5.677          	0.028
MS.541         	5.668          	0.06
MS.542         	5.655          	0.018
MS.543         	5.645          	0.03
MS.544         	5.632          	0.068
MS.545         	5.622          	0.03
MS.546         	5.61           	0.034
MS.547         	5.6            	0.034
MS.548         	5.588          	0.028
MS.549         	5.577          	0.034
MS.550         	5.565          	0.000
MS.551         	5.555          	0.026
MS.552         	5.543          	0.042
MS.553         	5.532          	0.028
MS.554         	5.52           	-0.004
MS.555         	5.51           	0.024
MS.556         	5.5            	0.044
MS.557         	5.487          	0.032
MS.558         	5.477          	0.032
MS.559         	5.465          	0.024
MS.560         	5.455          	0.034
MS.561         	5.445          	-0.006
MS.562         	5.432          	0.002
MS.563         	5.422          	0.048
MS.564         	5.412          	0.036
MS.565         	5.4            	0.046
MS.566         	5.39           	0.002
MS.567         	5.38           	0.046
MS.568         	5.367          	0.046
MS.569         	5.358          	0.05
MS.570         	5.347          	-0.004
MS.571         	5.338          	-0.002
MS.572         	5.325          	0.000
MS.573         	5.315          	0.000
MS.574         	5.305          	0.046
MS.575         	5.295          	-0.002
MS.576         	5.282          	0.000
MS.577         	5.273          	0.004
MS.578         	5.262          	0.004
MS.579         	5.253          	-0.002
MS.580         	5.242          	0.002
MS.581         	5.23           	0.048
MS.582         	5.22           	0.000
MS.583         	5.21           	-0.002
MS.584         	5.2            	0.000
MS.585         	5.19           	0.002
MS.586         	5.18           	0.002
MS.587         	5.168          	0.000
MS.588         	5.157          	-0.002
MS.589         	5.148          	0.002
MS.590         	5.137          	0.000
MS.591         	5.128          	0.000
MS.592         	5.117          	0.002
MS.593         	5.108          	-0.002
MS.594         	5.097          	0.002
MS.595         	5.088          	-0.002
MS.596         	5.077          	0.002
MS.597         	5.065          	-0.002
MS.598         	5.055          	-0.002
MS.599         	5.045          	0.000
MS.600         	5.035          	0.000
MS.601         	5.025          	0.006
MS.602         	5.015          	0.000
MS.603         	5.005          	0.002
MS.604         	4.995          	0.000
MS.605         	4.985          	0.002
MS.606         	4.975          	0.002
MS.607         	4.965          	-0.002
MS.608         	4.955          	0.000
MS.609         	4.945          	-0.004
MS.610         	4.935          	-0.002
MS.611         	4.927          	0.002
MS.612         	4.918          	0.000
MS.613         	4.907          	0.004
MS.614         	4.898          	0.000
MS.615         	4.887          	0.000
MS.616         	4.878          	0.000
MS.617         	4.867          	0.002
MS.618         	4.858          	0.002
MS.619         	4.847          	-0.002
MS.620         	4.838          	0.002
MS.621         	4.827          	0.004
MS.622         	4.82           	0.002
MS.623         	4.81           	0.000
DERIVED EXCITABILITY VARIABLES
Program = QTracP 3/4/2020
Threshold method = 6 (optimised for CAP, using data for present condition only)
SR method = 1 (using actual data values)
6.                 	0.000               	Peak response\(mV)
9.                 	33.3                	Temperature ( C)
17.                	29                  	Age (years)
18.                	1                   	Sex (M=1, F=2)

EXTRA VARIABLES

MScPeak(mV) = 7.08
MScS5(mA) = 6.55
MScS50(mA) = 10.4
MScS95(mA) = 13.3
MScNSteps = 3
MScSteps(%) = 7
MScStepMax(%) = 2.8
MScD50 = 50
MScSlope = 4.06
MSFPeakAmp(mV) = 6.99
MSFNUnits = 98
MSFMeanUnitAmp(uV) = 71.3
MSFHuntTime(m) = 3.19
MSFError(%) = 2.98
MSFNLarge = 28.24
MSFMedianAmp(%) = 0.832
MSFMedianAmp(mV) = 0.0582
MSFHalfAmpAmp(%) = 1.14
MSFHalfAmpAmp(mV) = 0.0796
MSFLargestAmp(%) = 4.36
MSFLargestAmp(mV) = 0.305
MSFMeanRS(%) = 1.99
MSFOpts = 10106121
MScDuration(min) = 5.8
MSFTraces = 571
MSFSizeLimit(uV) = 17.5
MSFLimitType = 1
MSFSmallestAmp(uV) = 22.7

EXTRA WAVEFORMS


!MScan Model
!98
	1	5.41	0.33	2
	2	5.85	0.63	2
	3	6.17	0.54	2
	4	6.27	0.63	2
	5	6.39	1.83	2
	6	6.6	0.74	2
	7	6.6	0.5	2
	8	6.77	0.84	2
	9	6.97	1.26	2
	10	7.04	0.5	2
	11	7.3	0.94	2
	12	7.48	1.22	2
	13	8.05	4.36	1.69
	14	8.07	0.91	2
	15	8.59	1.13	2
	16	8.71	1.69	2
	17	8.87	2.24	2
	18	8.98	3.03	2
	19	9.08	2.93	2
	20	9.22	2.2	2
	21	9.28	1.48	2
	22	9.32	0.71	2
	23	9.34	0.49	2
	24	9.39	0.63	2
	25	9.42	0.54	2
	26	9.44	0.54	2
	27	9.47	0.48	2
	28	9.5	0.47	2
	29	9.52	0.54	2
	30	9.55	0.66	2
	31	9.58	0.47	2
	32	9.62	0.53	2
	33	9.65	0.44	2
	34	9.69	0.52	2
	35	9.74	0.78	2
	36	9.83	1.25	2
	37	9.93	1.31	2
	38	10	1.25	2
	39	10.06	1.58	2
	40	10.11	1.13	2
	41	10.15	0.79	2
	42	10.21	1.49	2
	43	10.29	1.96	2
	44	10.39	1.95	2
	45	10.46	1.16	2
	46	10.54	1.67	2
	47	10.62	1.34	2
	48	10.66	0.66	2
	49	10.71	0.94	2
	50	10.77	1.35	2
	51	10.82	0.92	2
	52	10.85	0.5	2
	53	10.87	0.7	2
	54	10.9	0.68	2
	55	10.93	0.61	2
	56	10.95	0.6	2
	57	10.98	0.54	2
	58	11	0.61	2
	59	11.03	0.67	2
	60	11.06	0.83	2
	61	11.1	0.6	2
	62	11.13	0.7	2
	63	11.16	0.79	2
	64	11.2	0.95	2
	65	11.24	0.95	2
	66	11.28	0.74	2
	67	11.32	0.99	2
	68	11.37	1.14	2
	69	11.42	0.99	2
	70	11.46	0.69	2
	71	11.51	0.99	2
	72	11.56	1.1	2
	73	11.6	1.11	2
	74	11.64	0.85	2
	75	11.68	0.96	2
	76	11.72	0.88	2
	77	11.76	0.8	2
	78	11.8	0.64	2
	79	11.84	0.61	2
	80	11.94	1.68	2
	81	12.11	2.49	2
	82	12.17	0.79	2
	83	12.25	1.57	2
	84	12.35	1.51	2
	85	12.46	1.38	2
	86	12.56	1.38	2
	87	12.67	0.93	2
	88	12.75	0.68	2
	89	12.82	0.45	2
	90	12.92	0.93	2
	91	13.01	0.53	2
	92	13.08	0.32	2
	93	13.19	0.89	2
	94	13.29	0.72	2
	95	13.39	1.18	2
	96	13.74	0.79	2
	97	13.74	0.53	2
	98	14.27	0.56	2

