File:              	C:\Qtrac\Data\Daniel M Sørensen\MScan multicentre study\Data from centres\Oxford\Raw data (sorted for use)\ATC01204C.QZD
Name:              	UK.OXF.NC.4.1
Protocol:          	MSCAN-R2
Date:              	4/12/20
Start time:        	14:20:08
Age:               	37
Sex:               	F
Temperature:       	32.1
S/R sites:         	TA
NC/disease:        	NC
Operator:          	AT
Comments:          	First trail Tibial n
M-SCAN DATA (6.2-1.6m)
Scanpts: 38, 45, 492, 513
Stim. (mA)     	Amp. (mV)
MS.1           	24.5           	4.56
MS.2           	24.5           	4.548
MS.3           	24.5           	4.548
MS.4           	24.5           	4.516
MS.5           	24.5           	4.588
MS.6           	24.5           	4.494
MS.7           	24.5           	4.475
MS.8           	24.5           	4.512
MS.9           	24.5           	4.53
MS.10          	24.5           	4.488
MS.11          	24.5           	4.524
MS.12          	24.5           	4.58
MS.13          	24.5           	4.554
MS.14          	24.5           	4.558
MS.15          	24.5           	4.504
MS.16          	24.5           	4.534
MS.17          	24.5           	4.534
MS.18          	24.5           	4.538
MS.19          	24.5           	4.568
MS.20          	24.5           	4.558
MS.21          	24.5           	4.614
MS.22          	24.5           	4.546
MS.23          	24.5           	4.572
MS.24          	24.403         	4.502
MS.25          	24.352         	4.52
MS.26          	24.305         	4.506
MS.27          	24.255         	4.479
MS.28          	24.207         	4.566
MS.29          	24.16          	4.61
MS.30          	24.11          	4.522
MS.31          	24.062         	4.534
MS.32          	24.015         	4.54
MS.33          	23.967         	4.486
MS.34          	23.92          	4.524
MS.35          	23.87          	4.504
MS.36          	23.823         	4.512
MS.37          	23.775         	4.5
MS.38          	23.727         	4.516
MS.39          	23.68          	4.508
MS.40          	23.632         	4.514
MS.41          	23.587         	4.526
MS.42          	23.54          	4.498
MS.43          	23.493         	4.53
MS.44          	23.445         	4.52
MS.45          	23.397         	4.506
MS.46          	23.352         	4.49
MS.47          	23.305         	4.494
MS.48          	23.257         	4.524
MS.49          	23.212         	4.51
MS.50          	23.165         	4.494
MS.51          	23.12          	4.538
MS.52          	23.073         	4.508
MS.53          	23.028         	4.502
MS.54          	22.98          	4.482
MS.55          	22.935         	4.56
MS.56          	22.89          	4.449
MS.57          	22.842         	4.55
MS.58          	22.797         	4.54
MS.59          	22.752         	4.453
MS.60          	22.707         	4.435
MS.61          	22.663         	4.522
MS.62          	22.618         	4.475
MS.63          	22.57          	4.556
MS.64          	22.525         	4.463
MS.65          	22.48          	4.471
MS.66          	22.435         	4.461
MS.67          	22.39          	4.471
MS.68          	22.347         	4.492
MS.69          	22.302         	4.413
MS.70          	22.257         	4.463
MS.71          	22.212         	4.459
MS.72          	22.167         	4.542
MS.73          	22.125         	4.427
MS.74          	22.08          	4.457
MS.75          	22.035         	4.441
MS.76          	21.993         	4.431
MS.77          	21.948         	4.469
MS.78          	21.905         	4.397
MS.79          	21.86          	4.451
MS.80          	21.817         	4.381
MS.81          	21.772         	4.401
MS.82          	21.73          	4.363
MS.83          	21.685         	4.488
MS.84          	21.642         	4.381
MS.85          	21.6           	4.377
MS.86          	21.557         	4.32
MS.87          	21.512         	4.409
MS.88          	21.47          	4.355
MS.89          	21.427         	4.371
MS.90          	21.385         	4.369
MS.91          	21.342         	4.391
MS.92          	21.3           	4.371
MS.93          	21.257         	4.369
MS.94          	21.215         	4.381
MS.95          	21.172         	4.324
MS.96          	21.13          	4.347
MS.97          	21.087         	4.324
MS.98          	21.045         	4.31
MS.99          	21.002         	4.332
MS.100         	20.96          	4.341
MS.101         	20.92          	4.268
MS.102         	20.877         	4.27
MS.103         	20.835         	4.238
MS.104         	20.795         	4.264
MS.105         	20.752         	4.29
MS.106         	20.71          	4.232
MS.107         	20.67          	4.296
MS.108         	20.627         	4.216
MS.109         	20.587         	4.193
MS.110         	20.545         	4.264
MS.111         	20.505         	4.218
MS.112         	20.465         	4.149
MS.113         	20.422         	4.222
MS.114         	20.382         	4.21
MS.115         	20.342         	4.208
MS.116         	20.3           	4.155
MS.117         	20.26          	4.191
MS.118         	20.22          	4.204
MS.119         	20.18          	4.147
MS.120         	20.14          	4.153
MS.121         	20.1           	4.21
MS.122         	20.06          	4.107
MS.123         	20.017         	4.097
MS.124         	19.977         	4.083
MS.125         	19.94          	4.109
MS.126         	19.9           	4.059
MS.127         	19.86          	4.006
MS.128         	19.82          	4.042
MS.129         	19.78          	4.065
MS.130         	19.74          	4.006
MS.131         	19.7           	3.982
MS.132         	19.663         	3.998
MS.133         	19.622         	3.966
MS.134         	19.583         	3.964
MS.135         	19.545         	3.972
MS.136         	19.505         	3.948
MS.137         	19.465         	4.012
MS.138         	19.427         	3.899
MS.139         	19.387         	3.905
MS.140         	19.35          	3.916
MS.141         	19.31          	3.899
MS.142         	19.272         	3.938
MS.143         	19.235         	3.889
MS.144         	19.195         	3.964
MS.145         	19.157         	3.903
MS.146         	19.118         	3.881
MS.147         	19.08          	3.847
MS.148         	19.042         	3.861
MS.149         	19.005         	3.827
MS.150         	18.967         	3.833
MS.151         	18.927         	3.825
MS.152         	18.89          	3.795
MS.153         	18.852         	3.762
MS.154         	18.815         	3.726
MS.155         	18.778         	3.795
MS.156         	18.74          	3.736
MS.157         	18.702         	3.829
MS.158         	18.665         	3.748
MS.159         	18.628         	3.766
MS.160         	18.59          	3.734
MS.161         	18.552         	3.789
MS.162         	18.517         	3.773
MS.163         	18.48          	3.688
MS.164         	18.442         	3.734
MS.165         	18.405         	3.682
MS.166         	18.37          	3.64
MS.167         	18.333         	3.664
MS.168         	18.295         	3.766
MS.169         	18.26          	3.682
MS.170         	18.222         	3.601
MS.171         	18.188         	3.543
MS.172         	18.15          	3.64
MS.173         	18.112         	3.66
MS.174         	18.077         	3.66
MS.175         	18.042         	3.668
MS.176         	18.005         	3.638
MS.177         	17.97          	3.507
MS.178         	17.932         	3.555
MS.179         	17.897         	3.607
MS.180         	17.862         	3.642
MS.181         	17.825         	3.476
MS.182         	17.79          	3.569
MS.183         	17.755         	3.551
MS.184         	17.72          	3.495
MS.185         	17.685         	3.493
MS.186         	17.65          	3.531
MS.187         	17.612         	3.331
MS.188         	17.577         	3.344
MS.189         	17.542         	3.474
MS.190         	17.507         	3.289
MS.191         	17.472         	3.227
MS.192         	17.438         	3.37
MS.193         	17.403         	3.38
MS.194         	17.368         	3.339
MS.195         	17.335         	3.362
MS.196         	17.3           	3.319
MS.197         	17.265         	3.43
MS.198         	17.23          	3.261
MS.199         	17.195         	3.378
MS.200         	17.163         	3.299
MS.201         	17.128         	3.315
MS.202         	17.092         	3.418
MS.203         	17.06          	3.335
MS.204         	17.025         	3.247
MS.205         	16.99          	3.285
MS.206         	16.958         	3.263
MS.207         	16.922         	3.265
MS.208         	16.89          	3.134
MS.209         	16.855         	3.18
MS.210         	16.823         	3.148
MS.211         	16.788         	3.086
MS.212         	16.755         	3.156
MS.213         	16.72          	3.076
MS.214         	16.688         	3.021
MS.215         	16.655         	3.021
MS.216         	16.62          	3.124
MS.217         	16.587         	3.053
MS.218         	16.555         	3.011
MS.219         	16.522         	2.973
MS.220         	16.487         	2.987
MS.221         	16.455         	2.971
MS.222         	16.422         	2.959
MS.223         	16.39          	2.933
MS.224         	16.358         	2.917
MS.225         	16.325         	2.84
MS.226         	16.292         	2.874
MS.227         	16.26          	2.81
MS.228         	16.227         	2.868
MS.229         	16.195         	2.767
MS.230         	16.163         	2.737
MS.231         	16.13          	2.733
MS.232         	16.097         	2.788
MS.233         	16.065         	2.675
MS.234         	16.032         	2.637
MS.235         	16.003         	2.675
MS.236         	15.97          	2.719
MS.237         	15.938         	2.661
MS.238         	15.905         	2.6
MS.239         	15.875         	2.659
MS.240         	15.842         	2.616
MS.241         	15.81          	2.63
MS.242         	15.78          	2.61
MS.243         	15.747         	2.61
MS.244         	15.715         	2.612
MS.245         	15.685         	2.536
MS.246         	15.652         	2.57
MS.247         	15.622         	2.562
MS.248         	15.59          	2.508
MS.249         	15.56          	2.516
MS.250         	15.527         	2.508
MS.251         	15.497         	2.534
MS.252         	15.467         	2.498
MS.253         	15.435         	2.453
MS.254         	15.405         	2.437
MS.255         	15.375         	2.459
MS.256         	15.342         	2.485
MS.257         	15.312         	2.469
MS.258         	15.282         	2.445
MS.259         	15.252         	2.32
MS.260         	15.22          	2.371
MS.261         	15.19          	2.357
MS.262         	15.16          	2.363
MS.263         	15.13          	2.326
MS.264         	15.1           	2.33
MS.265         	15.07          	2.357
MS.266         	15.04          	2.149
MS.267         	15.01          	2.371
MS.268         	14.98          	2.302
MS.269         	14.95          	2.22
MS.270         	14.92          	2.131
MS.271         	14.89          	2.139
MS.272         	14.86          	2.054
MS.273         	14.83          	2.062
MS.274         	14.8           	2.171
MS.275         	14.77          	2.004
MS.276         	14.742         	2.062
MS.277         	14.712         	2.062
MS.278         	14.682         	1.98
MS.279         	14.652         	1.972
MS.280         	14.625         	2.026
MS.281         	14.595         	2.018
MS.282         	14.565         	2.01
MS.283         	14.537         	1.861
MS.284         	14.507         	1.936
MS.285         	14.477         	1.924
MS.286         	14.45          	1.924
MS.287         	14.42          	1.827
MS.288         	14.392         	1.789
MS.289         	14.362         	1.823
MS.290         	14.335         	1.857
MS.291         	14.305         	1.948
MS.292         	14.278         	1.789
MS.293         	14.247         	1.849
MS.294         	14.22          	1.748
MS.295         	14.193         	1.801
MS.296         	14.162         	1.69
MS.297         	14.135         	1.682
MS.298         	14.108         	1.726
MS.299         	14.08          	1.746
MS.300         	14.05          	1.69
MS.301         	14.023         	1.629
MS.302         	13.995         	1.638
MS.303         	13.967         	1.688
MS.304         	13.938         	1.726
MS.305         	13.91          	1.629
MS.306         	13.882         	1.597
MS.307         	13.855         	1.672
MS.308         	13.827         	1.646
MS.309         	13.8           	1.539
MS.310         	13.773         	1.565
MS.311         	13.745         	1.579
MS.312         	13.717         	1.615
MS.313         	13.69          	1.581
MS.314         	13.662         	1.617
MS.315         	13.635         	1.565
MS.316         	13.608         	1.472
MS.317         	13.58          	1.492
MS.318         	13.555         	1.396
MS.319         	13.528         	1.442
MS.320         	13.5           	1.428
MS.321         	13.472         	1.531
MS.322         	13.445         	1.299
MS.323         	13.42          	1.458
MS.324         	13.392         	1.341
MS.325         	13.365         	1.277
MS.326         	13.337         	1.202
MS.327         	13.312         	1.084
MS.328         	13.285         	1.104
MS.329         	13.26          	1.146
MS.330         	13.233         	1.182
MS.331         	13.205         	1.116
MS.332         	13.18          	1.039
MS.333         	13.153         	1.176
MS.334         	13.127         	1.118
MS.335         	13.1           	1.092
MS.336         	13.075         	0.985
MS.337         	13.047         	1.015
MS.338         	13.023         	0.957
MS.339         	12.997         	1.003
MS.340         	12.97          	1.023
MS.341         	12.945         	0.922
MS.342         	12.917         	0.834
MS.343         	12.892         	0.876
MS.344         	12.867         	0.784
MS.345         	12.842         	0.904
MS.346         	12.815         	0.848
MS.347         	12.79          	0.745
MS.348         	12.765         	0.888
MS.349         	12.74          	0.828
MS.350         	12.712         	0.745
MS.351         	12.688         	0.729
MS.352         	12.662         	0.733
MS.353         	12.637         	0.763
MS.354         	12.613         	0.731
MS.355         	12.587         	0.751
MS.356         	12.562         	0.685
MS.357         	12.537         	0.653
MS.358         	12.512         	0.614
MS.359         	12.488         	0.612
MS.360         	12.462         	0.578
MS.361         	12.438         	0.653
MS.362         	12.412         	0.63
MS.363         	12.387         	0.578
MS.364         	12.363         	0.586
MS.365         	12.337         	0.485
MS.366         	12.312         	0.566
MS.367         	12.287         	0.528
MS.368         	12.265         	0.439
MS.369         	12.24          	0.512
MS.370         	12.215         	0.479
MS.371         	12.19          	0.431
MS.372         	12.167         	0.453
MS.373         	12.142         	0.447
MS.374         	12.117         	0.485
MS.375         	12.092         	0.518
MS.376         	12.07          	0.405
MS.377         	12.045         	0.465
MS.378         	12.02          	0.389
MS.379         	11.997         	0.381
MS.380         	11.972         	0.411
MS.381         	11.95          	0.421
MS.382         	11.925         	0.363
MS.383         	11.903         	0.393
MS.384         	11.877         	0.348
MS.385         	11.855         	0.304
MS.386         	11.83          	0.328
MS.387         	11.807         	0.354
MS.388         	11.782         	0.318
MS.389         	11.76          	0.308
MS.390         	11.735         	0.318
MS.391         	11.712         	0.357
MS.392         	11.69          	0.274
MS.393         	11.665         	0.27
MS.394         	11.642         	0.29
MS.395         	11.62          	0.342
MS.396         	11.595         	0.268
MS.397         	11.572         	0.296
MS.398         	11.55          	0.272
MS.399         	11.528         	0.272
MS.400         	11.502         	0.258
MS.401         	11.48          	0.23
MS.402         	11.457         	0.272
MS.403         	11.435         	0.246
MS.404         	11.412         	0.272
MS.405         	11.39          	0.163
MS.406         	11.367         	0.236
MS.407         	11.345         	0.242
MS.408         	11.32          	0.228
MS.409         	11.297         	0.274
MS.410         	11.275         	0.238
MS.411         	11.252         	0.129
MS.412         	11.23          	0.276
MS.413         	11.207         	0.131
MS.414         	11.185         	0.119
MS.415         	11.162         	0.113
MS.416         	11.142         	0.149
MS.417         	11.12          	0.079
MS.418         	11.097         	0.117
MS.419         	11.075         	0.119
MS.420         	11.052         	0.115
MS.421         	11.03          	0.091
MS.422         	11.007         	0.091
MS.423         	10.988         	0.077
MS.424         	10.965         	0.079
MS.425         	10.943         	0.107
MS.426         	10.92          	0.097
MS.427         	10.9           	0.163
MS.428         	10.877         	0.181
MS.429         	10.855         	0.097
MS.430         	10.835         	0.056
MS.431         	10.812         	0.091
MS.432         	10.79          	0.085
MS.433         	10.77          	0.038
MS.434         	10.747         	0.056
MS.435         	10.725         	0.066
MS.436         	10.705         	0.026
MS.437         	10.682         	0.036
MS.438         	10.662         	0.028
MS.439         	10.64          	0.034
MS.440         	10.62          	0.052
MS.441         	10.597         	0.012
MS.442         	10.577         	0.012
MS.443         	10.555         	0.018
MS.444         	10.535         	0.058
MS.445         	10.512         	0.024
MS.446         	10.492         	0.073
MS.447         	10.472         	0.034
MS.448         	10.45          	0.008
MS.449         	10.43          	0.002
MS.450         	10.41          	0.058
MS.451         	10.387         	0.066
MS.452         	10.367         	0.008
MS.453         	10.347         	-0.006
MS.454         	10.325         	0.006
MS.455         	10.305         	-0.006
MS.456         	10.285         	-0.006
MS.457         	10.265         	0.008
MS.458         	10.245         	0.004
MS.459         	10.222         	0.004
MS.460         	10.202         	-0.006
MS.461         	10.182         	0.004
MS.462         	10.162         	-0.006
MS.463         	10.142         	0.002
MS.464         	10.122         	-0.002
MS.465         	10.102         	-0.004
MS.466         	10.08          	-0.006
MS.467         	10.06          	-0.006
MS.468         	10.04          	-0.004
MS.469         	10.02          	-0.006
MS.470         	10             	-0.006
MS.471         	9.98           	-0.006
MS.472         	9.96           	-0.006
MS.473         	9.94           	-0.004
MS.474         	9.92           	-0.006
MS.475         	9.903          	-0.004
MS.476         	9.882          	-0.006
MS.477         	9.863          	-0.006
MS.478         	9.842          	-0.006
MS.479         	9.823          	-0.006
MS.480         	9.802          	-0.006
MS.481         	9.782          	-0.006
MS.482         	9.762          	-0.006
MS.483         	9.745          	-0.006
MS.484         	9.725          	-0.006
MS.485         	9.705          	-0.006
MS.486         	9.685          	-0.006
MS.487         	9.667          	-0.006
MS.488         	9.648          	-0.006
MS.489         	9.627          	-0.004
MS.490         	9.608          	-0.006
MS.491         	9.59           	-0.004
MS.492         	9.57           	-0.004
MS.493         	9.55           	-0.006
MS.494         	9.532          	-0.006
MS.495         	9.512          	-0.006
MS.496         	9.495          	-0.004
MS.497         	9.475          	-0.006
MS.498         	9.455          	-0.004
MS.499         	9.438          	-0.006
MS.500         	9.417          	-0.004
MS.501         	9.4            	-0.006
MS.502         	9.38           	-0.004
MS.503         	9.363          	-0.006
MS.504         	9.342          	-0.006
MS.505         	9.325          	-0.006
MS.506         	9.305          	-0.006
MS.507         	9.287          	-0.004
MS.508         	9.27           	-0.006
MS.509         	9.25           	-0.006
MS.510         	9.233          	-0.004
MS.511         	9.212          	-0.006
MS.512         	9.195          	-0.004
MS.513         	9.177          	-0.004
DERIVED EXCITABILITY VARIABLES
Program = QTracP 3/4/2020
Threshold method = 6 (optimised for CAP, using data for present condition only)
SR method = 1 (using actual data values)
6.                 	0.000               	Peak response\(mV)
9.                 	32.1                	Temperature ( C)
17.                	37                  	Age (years)
18.                	2                   	Sex (M=1, F=2)

EXTRA VARIABLES

MScPeak(mV) = 4.54
MScS5(mA) = 11.3
MScS50(mA) = 15.02
MScS95(mA) = 21.02
MScNSteps = 0
MScSteps(%) = 0.0
MScStepMax(%) = 0.0
MScD50 = 68
MScSlope = 3.64
MSFPeakAmp(mV) = 4.52
MSFNUnits = 156
MSFMeanUnitAmp(uV) = 29
MSFHuntTime(m) = 2.49
MSFError(%) = 1.88
MSFNLarge = 49.69
MSFMedianAmp(%) = 0.556
MSFMedianAmp(mV) = 0.0251
MSFHalfAmpAmp(%) = 0.72
MSFHalfAmpAmp(mV) = 0.0326
MSFLargestAmp(%) = 2.37
MSFLargestAmp(mV) = 0.107
MSFMeanRS(%) = 2
MSFOpts = 10106121
MScDuration(min) = 4.6
MSFTraces = 476
MSFSizeLimit(uV) = 11.3
MSFLimitType = 1
MSFSmallestAmp(uV) = 11.7

EXTRA WAVEFORMS


!MScan Model
!156
	1	10.34	0.43	2
	2	10.71	1.08	2
	3	11.04	1.31	2
	4	11.17	0.74	2
	5	11.27	0.78	2
	6	11.47	1.31	2
	7	11.58	0.69	2
	8	11.67	0.48	2
	9	11.74	0.46	2
	10	11.8	0.44	2
	11	11.85	0.31	2
	12	11.91	0.41	2
	13	11.97	0.51	2
	14	12.04	0.51	2
	15	12.11	0.7	2
	16	12.18	0.62	2
	17	12.24	0.55	2
	18	12.28	0.42	2
	19	12.33	0.47	2
	20	12.35	0.28	2
	21	12.38	0.33	2
	22	12.4	0.35	2
	23	12.43	0.42	2
	24	12.47	0.42	2
	25	12.5	0.44	2
	26	12.55	0.65	2
	27	12.6	0.71	2
	28	12.65	0.64	2
	29	12.69	0.54	2
	30	12.73	0.64	2
	31	12.77	0.6	2
	32	12.81	0.57	2
	33	12.85	0.6	2
	34	12.89	0.65	2
	35	12.94	0.79	2
	36	13.01	0.93	2
	37	13.06	0.78	2
	38	13.11	0.89	2
	39	13.16	0.96	2
	40	13.2	0.8	2
	41	13.24	0.8	2
	42	13.25	0.89	2
	43	13.28	0.87	2
	44	13.32	0.91	2
	45	13.35	0.56	2
	46	13.39	0.7	2
	47	13.43	0.81	2
	48	13.47	0.92	2
	49	13.57	0.76	2
	50	13.67	1.05	2
	51	13.67	0.7	2
	52	13.76	1.08	2.4
	53	13.84	0.72	2
	54	13.92	0.83	2
	55	14.01	0.78	2
	56	14.11	1.07	2
	57	14.18	0.59	2
	58	14.25	0.71	2
	59	14.31	0.73	2
	60	14.37	0.73	2
	61	14.46	1.08	2
	62	14.56	1.13	2
	63	14.61	0.54	2
	64	14.66	0.71	2
	65	14.71	0.81	2
	66	14.77	0.79	2
	67	14.82	0.76	2
	68	14.87	0.67	2
	69	14.92	0.54	2
	70	14.96	0.71	2
	71	15.02	0.88	2
	72	15.08	0.88	2
	73	15.15	1.08	2
	74	15.24	1.23	2
	75	15.3	0.57	2
	76	15.33	0.32	2
	77	15.36	0.32	2
	78	15.4	0.31	2
	79	15.44	0.39	2
	80	15.48	0.44	2
	81	15.53	0.4	2
	82	15.57	0.37	2
	83	15.62	0.4	2
	84	15.67	0.37	2
	85	15.72	0.37	2
	86	15.77	0.36	2
	87	15.81	0.43	2
	88	15.86	0.48	2
	89	15.9	0.42	2
	90	15.94	0.31	2
	91	15.97	0.37	2
	92	16.01	0.41	2
	93	16.04	0.34	2
	94	16.08	0.46	2
	95	16.12	0.55	2
	96	16.17	0.38	2
	97	16.19	0.29	2
	98	16.21	0.29	2
	99	16.23	0.3	2
	100	16.26	0.36	2
	101	16.29	0.3	2
	102	16.31	0.31	2
	103	16.34	0.34	2
	104	16.37	0.39	2
	105	16.4	0.42	2
	106	16.43	0.44	2
	107	16.46	0.44	2
	108	16.49	0.39	2
	109	16.53	0.36	2
	110	16.56	0.36	2
	111	16.59	0.41	2
	112	16.62	0.51	2
	113	16.66	0.52	2
	114	16.69	0.43	2
	115	16.74	0.67	2
	116	16.8	0.61	2
	117	16.85	0.62	2
	118	16.92	0.76	2
	119	17	1.31	2
	120	17.39	2.37	2
	121	17.57	1.3	2
	122	17.68	0.73	2
	123	17.82	1.52	2
	124	18.02	1.58	2
	125	18.23	1.19	2
	126	18.45	1.15	2
	127	18.66	1.16	2
	128	18.79	0.73	2
	129	18.9	0.57	2
	130	19.01	0.44	2
	131	19.1	0.48	2
	132	19.19	0.45	2
	133	19.28	0.54	2
	134	19.37	0.58	2
	135	19.46	0.45	2
	136	19.55	0.51	2
	137	19.61	0.47	2
	138	19.71	0.41	2
	139	19.76	0.35	2
	140	19.81	0.36	2
	141	19.85	0.29	2
	142	19.93	0.44	2
	143	19.97	0.26	2
	144	20.06	0.64	2
	145	20.16	0.5	2
	146	20.28	0.67	2
	147	20.44	0.73	2
	148	20.58	0.64	2
	149	20.7	0.44	2
	150	20.8	0.43	2
	151	20.88	0.37	2
	152	20.97	0.29	2
	153	21.07	0.4	2
	154	21.28	0.75	2
	155	21.76	1.23	2
	156	22.59	1.74	2

