File:              	C:\Qtrac\Data\Daniel M Sørensen\MScan multicentre study\Data from centres\Newcastle\Processed data\SMC00224A.QZD
Name:              	UK.NEW.NC.7.1
Protocol:          	MSCAN-R2
Date:              	24/2/20
Start time:        	14:12:04
Age:               	56
Sex:               	M
Temperature:       	33.1
S/R sites:         	APB
NC/disease:        	NC
Operator:          	SM
Comments:
M-SCAN DATA (6.1-1.6m)
Scanpts: 113, 124, 481, 503
Stim. (mA)     	Amp. (mV)
MS.1           	13.5           	10.526
MS.2           	13.5           	10.51
MS.3           	13.5           	10.496
MS.4           	13.5           	10.47
MS.5           	13.5           	10.407
MS.6           	13.5           	10.341
MS.7           	13.5           	10.341
MS.8           	13.5           	10.302
MS.9           	13.5           	10.383
MS.10          	13.5           	10.365
MS.11          	13.5           	10.323
MS.12          	13.5           	10.317
MS.13          	13.5           	10.268
MS.14          	13.5           	10.226
MS.15          	13.5           	10.222
MS.16          	13.5           	10.18
MS.17          	13.5           	10.228
MS.18          	13.5           	10.21
MS.19          	13.5           	10.26
MS.20          	13.5           	10.292
MS.21          	13.5           	10.315
MS.22          	13.5           	10.28
MS.23          	13.5           	10.335
MS.24          	13.445         	10.292
MS.25          	13.42          	10.383
MS.26          	13.392         	10.355
MS.27          	13.365         	10.359
MS.28          	13.34          	10.375
MS.29          	13.312         	10.407
MS.30          	13.285         	10.383
MS.31          	13.26          	10.357
MS.32          	13.233         	10.341
MS.33          	13.205         	10.383
MS.34          	13.18          	10.308
MS.35          	13.153         	10.335
MS.36          	13.127         	10.353
MS.37          	13.1           	10.361
MS.38          	13.075         	10.28
MS.39          	13.047         	10.325
MS.40          	13.023         	10.488
MS.41          	12.997         	10.524
MS.42          	12.97          	10.5
MS.43          	12.945         	10.5
MS.44          	12.92          	10.572
MS.45          	12.892         	10.578
MS.46          	12.867         	10.512
MS.47          	12.842         	10.496
MS.48          	12.815         	10.528
MS.49          	12.79          	10.429
MS.50          	12.765         	10.464
MS.51          	12.74          	10.395
MS.52          	12.715         	10.355
MS.53          	12.688         	10.373
MS.54          	12.662         	10.345
MS.55          	12.637         	10.379
MS.56          	12.613         	10.369
MS.57          	12.587         	10.343
MS.58          	12.562         	10.321
MS.59          	12.537         	10.246
MS.60          	12.512         	10.268
MS.61          	12.488         	10.2
MS.62          	12.462         	10.246
MS.63          	12.438         	10.21
MS.64          	12.412         	10.139
MS.65          	12.387         	10.188
MS.66          	12.363         	10.306
MS.67          	12.337         	10.176
MS.68          	12.312         	10.286
MS.69          	12.29          	10.18
MS.70          	12.265         	10.28
MS.71          	12.24          	10.085
MS.72          	12.215         	10.087
MS.73          	12.19          	10.194
MS.74          	12.167         	10.065
MS.75          	12.142         	10.045
MS.76          	12.117         	10.045
MS.77          	12.092         	10.107
MS.78          	12.07          	10.174
MS.79          	12.045         	10.133
MS.80          	12.023         	10.133
MS.81          	11.997         	10.22
MS.82          	11.972         	10.169
MS.83          	11.95          	10.153
MS.84          	11.925         	10.133
MS.85          	11.903         	10.141
MS.86          	11.877         	10.198
MS.87          	11.855         	10.262
MS.88          	11.83          	10.262
MS.89          	11.807         	10.397
MS.90          	11.782         	10.329
MS.91          	11.76          	10.319
MS.92          	11.738         	10.294
MS.93          	11.712         	10.302
MS.94          	11.69          	10.268
MS.95          	11.665         	10.256
MS.96          	11.642         	10.28
MS.97          	11.62          	10.25
MS.98          	11.597         	10.234
MS.99          	11.572         	10.262
MS.100         	11.55          	10.27
MS.101         	11.528         	10.302
MS.102         	11.505         	10.319
MS.103         	11.48          	10.385
MS.104         	11.457         	10.359
MS.105         	11.435         	10.31
MS.106         	11.412         	10.381
MS.107         	11.39          	10.371
MS.108         	11.367         	10.363
MS.109         	11.345         	10.361
MS.110         	11.322         	10.24
MS.111         	11.297         	10.274
MS.112         	11.275         	10.333
MS.113         	11.252         	10.325
MS.114         	11.23          	10.306
MS.115         	11.207         	10.294
MS.116         	11.188         	10.353
MS.117         	11.165         	10.359
MS.118         	11.142         	10.365
MS.119         	11.12          	10.3
MS.120         	11.097         	10.323
MS.121         	11.075         	10.286
MS.122         	11.052         	10.284
MS.123         	11.03          	10.321
MS.124         	11.007         	10.367
MS.125         	10.988         	10.397
MS.126         	10.965         	10.325
MS.127         	10.943         	10.276
MS.128         	10.92          	10.335
MS.129         	10.9           	10.304
MS.130         	10.877         	10.284
MS.131         	10.855         	10.31
MS.132         	10.835         	10.308
MS.133         	10.812         	10.294
MS.134         	10.79          	10.389
MS.135         	10.77          	10.353
MS.136         	10.747         	10.453
MS.137         	10.725         	10.425
MS.138         	10.705         	10.508
MS.139         	10.682         	10.369
MS.140         	10.662         	10.363
MS.141         	10.64          	10.294
MS.142         	10.62          	10.319
MS.143         	10.597         	10.329
MS.144         	10.577         	10.331
MS.145         	10.555         	10.351
MS.146         	10.535         	10.419
MS.147         	10.515         	10.383
MS.148         	10.492         	10.31
MS.149         	10.472         	10.264
MS.150         	10.45          	10.3
MS.151         	10.43          	10.302
MS.152         	10.41          	10.292
MS.153         	10.387         	10.363
MS.154         	10.367         	10.353
MS.155         	10.347         	10.46
MS.156         	10.325         	10.462
MS.157         	10.305         	10.377
MS.158         	10.285         	10.385
MS.159         	10.265         	10.319
MS.160         	10.245         	10.373
MS.161         	10.222         	10.353
MS.162         	10.202         	10.286
MS.163         	10.182         	10.256
MS.164         	10.162         	10.26
MS.165         	10.142         	10.194
MS.166         	10.122         	10.274
MS.167         	10.102         	10.23
MS.168         	10.082         	10.224
MS.169         	10.06          	10.216
MS.170         	10.04          	10.288
MS.171         	10.02          	10.252
MS.172         	10             	10.274
MS.173         	9.98           	10.232
MS.174         	9.96           	10.238
MS.175         	9.94           	10.23
MS.176         	9.922          	10.327
MS.177         	9.903          	10.355
MS.178         	9.882          	10.363
MS.179         	9.863          	10.373
MS.180         	9.842          	10.161
MS.181         	9.823          	10.268
MS.182         	9.802          	10.141
MS.183         	9.782          	10.123
MS.184         	9.765          	10.087
MS.185         	9.745          	10.143
MS.186         	9.725          	10.073
MS.187         	9.705          	10.282
MS.188         	9.685          	10.079
MS.189         	9.667          	10.049
MS.190         	9.648          	10.105
MS.191         	9.627          	10.099
MS.192         	9.61           	10.053
MS.193         	9.59           	9.986
MS.194         	9.57           	10.117
MS.195         	9.552          	10.055
MS.196         	9.532          	10.097
MS.197         	9.512          	10.002
MS.198         	9.495          	9.936
MS.199         	9.475          	9.94
MS.200         	9.457          	10.115
MS.201         	9.438          	9.98
MS.202         	9.417          	10.014
MS.203         	9.4            	9.847
MS.204         	9.38           	9.811
MS.205         	9.363          	9.835
MS.206         	9.342          	9.843
MS.207         	9.325          	10.047
MS.208         	9.305          	9.984
MS.209         	9.287          	10.037
MS.210         	9.27           	9.95
MS.211         	9.25           	9.892
MS.212         	9.233          	9.849
MS.213         	9.212          	9.722
MS.214         	9.195          	9.783
MS.215         	9.177          	9.69
MS.216         	9.158          	9.692
MS.217         	9.14           	9.815
MS.218         	9.122          	9.753
MS.219         	9.102          	9.769
MS.220         	9.085          	9.751
MS.221         	9.068          	9.714
MS.222         	9.05           	9.666
MS.223         	9.03           	9.648
MS.224         	9.012          	9.67
MS.225         	8.995          	9.452
MS.226         	8.977          	9.519
MS.227         	8.96           	9.797
MS.228         	8.943          	9.666
MS.229         	8.922          	9.38
MS.230         	8.905          	9.662
MS.231         	8.887          	9.398
MS.232         	8.87           	9.414
MS.233         	8.852          	9.438
MS.234         	8.835          	9.372
MS.235         	8.818          	9.499
MS.236         	8.8            	9.229
MS.237         	8.783          	9.438
MS.238         	8.765          	9.444
MS.239         	8.747          	9.344
MS.240         	8.73           	9.201
MS.241         	8.712          	9.102
MS.242         	8.695          	9.096
MS.243         	8.677          	9.183
MS.244         	8.66           	9.215
MS.245         	8.642          	9.112
MS.246         	8.625          	9.098
MS.247         	8.608          	9.11
MS.248         	8.59           	9.09
MS.249         	8.573          	9.213
MS.250         	8.557          	9.181
MS.251         	8.54           	9.14
MS.252         	8.523          	8.965
MS.253         	8.505          	8.927
MS.254         	8.488          	9.158
MS.255         	8.472          	8.997
MS.256         	8.455          	8.844
MS.257         	8.438          	8.917
MS.258         	8.42           	8.838
MS.259         	8.405          	8.882
MS.260         	8.387          	8.82
MS.261         	8.37           	8.925
MS.262         	8.352          	8.461
MS.263         	8.337          	8.643
MS.264         	8.32           	8.931
MS.265         	8.302          	8.681
MS.266         	8.287          	8.343
MS.267         	8.27           	8.512
MS.268         	8.255          	8.52
MS.269         	8.238          	8.508
MS.270         	8.22           	8.621
MS.271         	8.205          	8.506
MS.272         	8.188          	8.341
MS.273         	8.172          	8.52
MS.274         	8.155          	8.337
MS.275         	8.14           	8.182
MS.276         	8.122          	8.506
MS.277         	8.108          	8.236
MS.278         	8.09           	8.117
MS.279         	8.075          	8.184
MS.280         	8.057          	8.059
MS.281         	8.042          	7.99
MS.282         	8.025          	8.125
MS.283         	8.01           	7.777
MS.284         	7.995          	7.962
MS.285         	7.977          	7.986
MS.286         	7.962          	7.976
MS.287         	7.945          	7.783
MS.288         	7.93           	7.821
MS.289         	7.915          	7.362
MS.290         	7.898          	7.493
MS.291         	7.882          	7.555
MS.292         	7.867          	7.706
MS.293         	7.852          	7.233
MS.294         	7.835          	6.862
MS.295         	7.82           	7.172
MS.296         	7.805          	7.41
MS.297         	7.79           	7.332
MS.298         	7.773          	6.874
MS.299         	7.757          	6.848
MS.300         	7.742          	7.221
MS.301         	7.727          	6.469
MS.302         	7.712          	6.353
MS.303         	7.695          	6.82
MS.304         	7.68           	6.198
MS.305         	7.665          	6.113
MS.306         	7.65           	6.109
MS.307         	7.635          	6.051
MS.308         	7.62           	5.613
MS.309         	7.605          	6.328
MS.310         	7.59           	5.553
MS.311         	7.572          	5.666
MS.312         	7.557          	5.436
MS.313         	7.543          	5.237
MS.314         	7.527          	5.414
MS.315         	7.512          	5.329
MS.316         	7.497          	4.874
MS.317         	7.482          	5.559
MS.318         	7.467          	4.989
MS.319         	7.452          	5.251
MS.320         	7.438          	5.003
MS.321         	7.425          	4.953
MS.322         	7.41           	4.689
MS.323         	7.395          	5.132
MS.324         	7.38           	4.826
MS.325         	7.365          	4.409
MS.326         	7.35           	4.357
MS.327         	7.335          	4.49
MS.328         	7.32           	4.423
MS.329         	7.305          	4.786
MS.330         	7.293          	4.006
MS.331         	7.277          	4.272
MS.332         	7.262          	4.21
MS.333         	7.247          	4.288
MS.334         	7.233          	3.964
MS.335         	7.22           	4.131
MS.336         	7.205          	4.312
MS.337         	7.19           	3.865
MS.338         	7.175          	3.662
MS.339         	7.162          	3.672
MS.340         	7.148          	3.831
MS.341         	7.132          	3.94
MS.342         	7.117          	3.305
MS.343         	7.105          	3.724
MS.344         	7.09           	3.245
MS.345         	7.075          	3.603
MS.346         	7.062          	3.684
MS.347         	7.047          	3.474
MS.348         	7.032          	3.537
MS.349         	7.02           	3.303
MS.350         	7.005          	3.291
MS.351         	6.992          	3.13
MS.352         	6.977          	3.337
MS.353         	6.962          	3.374
MS.354         	6.95           	3.18
MS.355         	6.935          	3.271
MS.356         	6.922          	3.033
MS.357         	6.907          	2.908
MS.358         	6.895          	2.767
MS.359         	6.88           	2.649
MS.360         	6.867          	2.997
MS.361         	6.852          	3.072
MS.362         	6.84           	2.751
MS.363         	6.825          	2.969
MS.364         	6.812          	2.481
MS.365         	6.797          	2.508
MS.366         	6.785          	2.584
MS.367         	6.773          	2.532
MS.368         	6.757          	2.578
MS.369         	6.745          	2.498
MS.370         	6.73           	2.538
MS.371         	6.717          	2.338
MS.372         	6.705          	2.272
MS.373         	6.69           	2.169
MS.374         	6.677          	2.101
MS.375         	6.665          	2.093
MS.376         	6.65           	2.193
MS.377         	6.637          	1.938
MS.378         	6.625          	2.052
MS.379         	6.61           	1.974
MS.380         	6.597          	2.062
MS.381         	6.585          	1.617
MS.382         	6.57           	2.022
MS.383         	6.557          	1.674
MS.384         	6.545          	1.682
MS.385         	6.532          	1.96
MS.386         	6.52           	1.865
MS.387         	6.505          	1.652
MS.388         	6.492          	1.801
MS.389         	6.48           	1.557
MS.390         	6.467          	1.488
MS.391         	6.455          	1.638
MS.392         	6.44           	1.402
MS.393         	6.427          	1.416
MS.394         	6.415          	1.44
MS.395         	6.402          	1.378
MS.396         	6.39           	1.466
MS.397         	6.378          	1.466
MS.398         	6.365          	1.204
MS.399         	6.352          	1.418
MS.400         	6.34           	1.287
MS.401         	6.325          	1.106
MS.402         	6.312          	1.221
MS.403         	6.3            	0.989
MS.404         	6.287          	0.894
MS.405         	6.275          	1.227
MS.406         	6.262          	1.206
MS.407         	6.25           	0.931
MS.408         	6.237          	1.118
MS.409         	6.225          	1.128
MS.410         	6.213          	1.001
MS.411         	6.2            	1.09
MS.412         	6.188          	0.973
MS.413         	6.175          	0.971
MS.414         	6.165          	0.979
MS.415         	6.152          	0.864
MS.416         	6.14           	0.777
MS.417         	6.128          	0.687
MS.418         	6.115          	0.735
MS.419         	6.102          	0.769
MS.420         	6.09           	0.898
MS.421         	6.077          	0.669
MS.422         	6.065          	0.634
MS.423         	6.055          	0.558
MS.424         	6.043          	0.598
MS.425         	6.03           	0.719
MS.426         	6.017          	0.566
MS.427         	6.005          	0.546
MS.428         	5.992          	0.715
MS.429         	5.983          	0.562
MS.430         	5.97           	0.385
MS.431         	5.957          	0.552
MS.432         	5.945          	0.56
MS.433         	5.935          	0.55
MS.434         	5.922          	0.638
MS.435         	5.91           	0.655
MS.436         	5.898          	0.534
MS.437         	5.887          	0.512
MS.438         	5.875          	0.338
MS.439         	5.862          	0.588
MS.440         	5.852          	0.475
MS.441         	5.84           	0.236
MS.442         	5.827          	0.54
MS.443         	5.817          	0.244
MS.444         	5.805          	0.296
MS.445         	5.793          	0.046
MS.446         	5.782          	0.258
MS.447         	5.77           	0.222
MS.448         	5.757          	0.236
MS.449         	5.747          	0.548
MS.450         	5.735          	0.131
MS.451         	5.725          	0.073
MS.452         	5.713          	0.05
MS.453         	5.702          	0.284
MS.454         	5.69           	0.048
MS.455         	5.677          	0.216
MS.456         	5.668          	0.234
MS.457         	5.655          	0.014
MS.458         	5.645          	0.205
MS.459         	5.632          	0.111
MS.460         	5.622          	0.28
MS.461         	5.61           	0.306
MS.462         	5.6            	0.064
MS.463         	5.588          	0.02
MS.464         	5.577          	0.022
MS.465         	5.565          	0.026
MS.466         	5.555          	0.018
MS.467         	5.545          	0.006
MS.468         	5.532          	0.012
MS.469         	5.523          	0.002
MS.470         	5.51           	0.008
MS.471         	5.5            	0.018
MS.472         	5.487          	0.04
MS.473         	5.477          	0.004
MS.474         	5.467          	0.016
MS.475         	5.455          	0.008
MS.476         	5.445          	0.006
MS.477         	5.435          	0.01
MS.478         	5.422          	0.01
MS.479         	5.412          	0.016
MS.480         	5.402          	0.01
MS.481         	5.39           	0.008
MS.482         	5.38           	0.002
MS.483         	5.37           	0.012
MS.484         	5.358          	0.01
MS.485         	5.347          	0.01
MS.486         	5.338          	0.006
MS.487         	5.327          	0.000
MS.488         	5.315          	0.006
MS.489         	5.305          	0.002
MS.490         	5.295          	0.002
MS.491         	5.285          	-0.004
MS.492         	5.273          	0.008
MS.493         	5.262          	0.000
MS.494         	5.253          	0.000
MS.495         	5.242          	-0.002
MS.496         	5.233          	-0.002
MS.497         	5.22           	-0.002
MS.498         	5.21           	0.012
MS.499         	5.2            	0.002
MS.500         	5.19           	0.002
MS.501         	5.18           	-0.002
MS.502         	5.17           	0.002
MS.503         	5.157          	0.000
DERIVED EXCITABILITY VARIABLES
Program = QTracP 9/10/2021
Threshold method = 6 (optimised for CAP, using data for present condition only)
SR method = 1 (using actual data values)
6.                 	0.000               	Peak response\(mV)
9.                 	33.1                	Temperature ( C)
17.                	56                  	Age (years)
18.                	1                   	Sex (M=1, F=2)

EXTRA VARIABLES

MScPeak(mV) = 10.33
MScS5(mA) = 5.86
MScS50(mA) = 7.47
MScS95(mA) = 9.17
MScNSteps = 3
MScSteps(%) = 10
MScStepMax(%) = 3.7
MScD50 = 44
MScSlope = 6.6
MScDuration(min) = 4.5
MSFTraces = 391
MSFPeakAmp(mV) = 10.3
MSFNUnits = 94
MSFMeanUnitAmp(uV) = 109.8
MSFHuntTime(m) = 2.21
MSFError(%) = 5.96
MSFNLarge = 36.58
MSFMedianAmp(%) = 1.08
MSFMedianAmp(mV) = 0.111
MSFHalfAmpAmp(%) = 1.2
MSFHalfAmpAmp(mV) = 0.124
MSFLargestAmp(%) = 2.08
MSFLargestAmp(mV) = 0.215
MSFMeanRS(%) = 2
MSFSizeLimit(uV) = 25.8
MSFLimitType = 1
MSFSmallestAmp(uV) = 61.9
MSFOpts = 10106121

EXTRA WAVEFORMS


!MScan Model
!94
	1	5.75	2.08	2
	2	5.76	0.6	2
	3	5.87	1.68	2.4
	4	5.97	1.42	2
	5	6.03	1.08	2
	6	6.08	0.67	2
	7	6.12	0.7	2
	8	6.17	0.83	2
	9	6.2	0.67	2
	10	6.24	0.75	2
	11	6.27	0.73	2
	12	6.31	0.73	2
	13	6.34	0.8	2
	14	6.37	0.8	2
	15	6.41	0.8	2
	16	6.44	0.7	2
	17	6.47	0.72	2
	18	6.5	0.73	2
	19	6.52	0.67	2
	20	6.54	0.72	2
	21	6.59	0.61	2
	22	6.61	0.62	2
	23	6.63	0.74	2
	24	6.66	0.94	2
	25	6.69	0.87	2
	26	6.71	0.64	2
	27	6.73	0.66	2
	28	6.75	0.7	2
	29	6.77	0.7	2
	30	6.79	0.67	2
	31	6.81	0.65	2
	32	6.83	0.6	2
	33	6.84	0.99	2
	34	6.87	0.95	2
	35	6.9	0.92	2
	36	6.93	1.19	2
	37	6.98	1.35	2
	38	7.02	1.5	2
	39	7.06	1.27	2
	40	7.1	1.34	2
	41	7.14	1.32	2
	42	7.18	1.3	2
	43	7.21	1.27	2
	44	7.24	1.34	2
	45	7.28	1.15	2
	46	7.31	1.21	2
	47	7.34	1.29	2
	48	7.37	1.38	2
	49	7.4	1.27	2
	50	7.42	1.19	2
	51	7.45	1.23	2
	52	7.48	1.2	2
	53	7.5	1.24	2
	54	7.53	1.37	2
	55	7.55	1.36	2
	56	7.57	1.35	2
	57	7.6	1.38	2
	58	7.62	1.44	2
	59	7.65	1.15	2
	60	7.67	1.2	1.6
	61	7.69	1.27	2
	62	7.72	1.62	2
	63	7.74	1.24	2
	64	7.76	1.18	2
	65	7.78	1.28	2
	66	7.81	1.46	2
	67	7.84	1.31	2
	68	7.87	1.18	2
	69	7.9	1.44	2
	70	7.93	1.2	2
	71	7.97	1.65	2
	72	8.01	1.44	2
	73	8.05	1.27	2
	74	8.09	1.04	2
	75	8.14	1.25	2
	76	8.19	1.08	2
	77	8.23	0.97	2
	78	8.28	1.03	2
	79	8.34	1.13	2
	80	8.39	0.86	2
	81	8.45	0.9	2
	82	8.53	1.06	2
	83	8.67	1.03	2
	84	8.75	0.94	2
	85	8.81	0.69	2
	86	8.86	0.64	2
	87	8.93	0.79	2
	88	8.94	0.98	2
	89	9.01	1	2
	90	9.12	1.03	2
	91	9.27	1.28	2
	92	9.45	1.19	2
	93	9.85	1.15	2
	94	10	1	2

