File:              	C:\Qtrac\Data\Daniel M Sørensen\MScan multicentre study\Data from centres\Newcastle\Processed data\SMC00228A.QZD
Name:              	UK.NEW.NC.5.2
Protocol:          	MSCAN-R2
Date:              	28/2/20
Start time:        	09:12:52
Age:               	40
Sex:               	F
Temperature:       	32
S/R sites:         	APB
NC/disease:        	NC
Operator:          	SM
Comments:
M-SCAN DATA (4.9-1.5m)
Scanpts: 71, 80, 364, 385
Stim. (mA)     	Amp. (mV)
MS.1           	11.5           	5.744
MS.2           	11.5           	5.754
MS.3           	11.5           	5.738
MS.4           	11.5           	5.738
MS.5           	11.5           	5.728
MS.6           	11.5           	5.748
MS.7           	11.5           	5.75
MS.8           	11.5           	5.742
MS.9           	11.5           	5.746
MS.10          	11.5           	5.75
MS.11          	11.5           	5.756
MS.12          	11.5           	5.75
MS.13          	11.5           	5.763
MS.14          	11.5           	5.777
MS.15          	11.5           	5.767
MS.16          	11.5           	5.773
MS.17          	11.5           	5.754
MS.18          	11.5           	5.765
MS.19          	11.5           	5.773
MS.20          	11.5           	5.773
MS.21          	11.5           	5.769
MS.22          	11.5           	5.773
MS.23          	11.5           	5.781
MS.24          	11.455         	5.777
MS.25          	11.43          	5.787
MS.26          	11.407         	5.785
MS.27          	11.385         	5.805
MS.28          	11.363         	5.805
MS.29          	11.34          	5.815
MS.30          	11.318         	5.819
MS.31          	11.295         	5.823
MS.32          	11.273         	5.817
MS.33          	11.25          	5.827
MS.34          	11.227         	5.825
MS.35          	11.205         	5.827
MS.36          	11.182         	5.815
MS.37          	11.16          	5.839
MS.38          	11.137         	5.821
MS.39          	11.115         	5.837
MS.40          	11.092         	5.839
MS.41          	11.07          	5.851
MS.42          	11.05          	5.867
MS.43          	11.028         	5.865
MS.44          	11.005         	5.885
MS.45          	10.983         	5.877
MS.46          	10.96          	5.893
MS.47          	10.94          	5.867
MS.48          	10.917         	5.865
MS.49          	10.895         	5.869
MS.50          	10.872         	5.875
MS.51          	10.852         	5.871
MS.52          	10.83          	5.863
MS.53          	10.807         	5.875
MS.54          	10.787         	5.889
MS.55          	10.765         	5.904
MS.56          	10.745         	5.891
MS.57          	10.722         	5.887
MS.58          	10.7           	5.887
MS.59          	10.68          	5.899
MS.60          	10.657         	5.899
MS.61          	10.637         	5.908
MS.62          	10.615         	5.914
MS.63          	10.595         	5.908
MS.64          	10.573         	5.831
MS.65          	10.552         	5.92
MS.66          	10.53          	5.93
MS.67          	10.51          	5.952
MS.68          	10.49          	5.861
MS.69          	10.467         	5.946
MS.70          	10.448         	5.958
MS.71          	10.427         	5.865
MS.72          	10.405         	5.861
MS.73          	10.385         	5.863
MS.74          	10.365         	5.865
MS.75          	10.342         	5.877
MS.76          	10.323         	5.867
MS.77          	10.302         	5.883
MS.78          	10.282         	5.873
MS.79          	10.26          	5.873
MS.80          	10.24          	5.873
MS.81          	10.22          	5.885
MS.82          	10.2           	5.873
MS.83          	10.18          	5.881
MS.84          	10.16          	5.861
MS.85          	10.137         	5.895
MS.86          	10.117         	5.875
MS.87          	10.097         	5.883
MS.88          	10.077         	5.819
MS.89          	10.057         	5.885
MS.90          	10.037         	5.809
MS.91          	10.017         	5.553
MS.92          	9.997          	5.551
MS.93          	9.977          	5.895
MS.94          	9.957          	5.835
MS.95          	9.938          	5.553
MS.96          	9.917          	5.825
MS.97          	9.898          	5.565
MS.98          	9.877          	5.831
MS.99          	9.858          	5.569
MS.100         	9.84           	5.65
MS.101         	9.82           	5.541
MS.102         	9.8            	5.642
MS.103         	9.78           	5.571
MS.104         	9.76           	5.819
MS.105         	9.74           	5.567
MS.106         	9.722          	5.543
MS.107         	9.702          	5.571
MS.108         	9.682          	5.547
MS.109         	9.662          	5.555
MS.110         	9.645          	5.827
MS.111         	9.625          	5.577
MS.112         	9.605          	5.555
MS.113         	9.587          	5.46
MS.114         	9.568          	5.551
MS.115         	9.547          	5.454
MS.116         	9.53           	5.458
MS.117         	9.51           	5.458
MS.118         	9.49           	5.557
MS.119         	9.472          	5.46
MS.120         	9.452          	5.462
MS.121         	9.435          	5.454
MS.122         	9.415          	5.563
MS.123         	9.398          	5.452
MS.124         	9.377          	5.462
MS.125         	9.36           	5.466
MS.126         	9.34           	5.45
MS.127         	9.323          	5.573
MS.128         	9.302          	5.464
MS.129         	9.285          	5.46
MS.130         	9.265          	5.34
MS.131         	9.247          	5.342
MS.132         	9.23           	5.348
MS.133         	9.21           	5.46
MS.134         	9.193          	5.346
MS.135         	9.172          	5.442
MS.136         	9.155          	5.348
MS.137         	9.137          	5.344
MS.138         	9.12           	5.35
MS.139         	9.1            	5.301
MS.140         	9.082          	5.342
MS.141         	9.065          	5.319
MS.142         	9.045          	5.327
MS.143         	9.028          	5.307
MS.144         	9.01           	5.301
MS.145         	8.992          	5.448
MS.146         	8.975          	5.201
MS.147         	8.955          	5.309
MS.148         	8.938          	5.197
MS.149         	8.92           	5.265
MS.150         	8.903          	5.122
MS.151         	8.885          	5.277
MS.152         	8.867          	5.249
MS.153         	8.85           	5.082
MS.154         	8.832          	5.076
MS.155         	8.815          	5.15
MS.156         	8.797          	5.068
MS.157         	8.78           	5.068
MS.158         	8.762          	5.118
MS.159         	8.745          	5.128
MS.160         	8.727          	4.969
MS.161         	8.71           	5.064
MS.162         	8.693          	5.035
MS.163         	8.675          	4.967
MS.164         	8.658          	5.003
MS.165         	8.64           	4.925
MS.166         	8.622          	5.148
MS.167         	8.605          	4.925
MS.168         	8.587          	4.989
MS.169         	8.57           	4.971
MS.170         	8.552          	4.88
MS.171         	8.537          	4.866
MS.172         	8.52           	4.878
MS.173         	8.502          	4.856
MS.174         	8.485          	4.8
MS.175         	8.467          	4.876
MS.176         	8.452          	4.814
MS.177         	8.435          	4.649
MS.178         	8.417          	4.622
MS.179         	8.4            	4.85
MS.180         	8.385          	4.88
MS.181         	8.367          	4.844
MS.182         	8.35           	4.713
MS.183         	8.335          	4.782
MS.184         	8.318          	4.794
MS.185         	8.3            	4.792
MS.186         	8.285          	4.733
MS.187         	8.267          	4.427
MS.188         	8.25           	4.796
MS.189         	8.235          	4.56
MS.190         	8.217          	4.435
MS.191         	8.202          	4.276
MS.192         	8.185          	4.544
MS.193         	8.17           	4.206
MS.194         	8.153          	4.471
MS.195         	8.137          	4.063
MS.196         	8.12           	4.065
MS.197         	8.105          	3.702
MS.198         	8.087          	4.326
MS.199         	8.073          	4.083
MS.200         	8.055          	3.869
MS.201         	8.04           	3.966
MS.202         	8.023          	3.734
MS.203         	8.007          	3.871
MS.204         	7.99           	3.722
MS.205         	7.975          	3.648
MS.206         	7.96           	3.41
MS.207         	7.942          	3.503
MS.208         	7.927          	3.211
MS.209         	7.912          	3.325
MS.210         	7.895          	3.366
MS.211         	7.88           	3.605
MS.212         	7.865          	3.305
MS.213         	7.847          	3.37
MS.214         	7.832          	3.408
MS.215         	7.817          	3.386
MS.216         	7.802          	3.221
MS.217         	7.785          	3.031
MS.218         	7.77           	2.834
MS.219         	7.755          	3.15
MS.220         	7.74           	3.055
MS.221         	7.725          	3.047
MS.222         	7.707          	2.995
MS.223         	7.692          	2.584
MS.224         	7.677          	2.86
MS.225         	7.662          	3.001
MS.226         	7.648          	2.898
MS.227         	7.632          	2.78
MS.228         	7.617          	2.852
MS.229         	7.602          	2.649
MS.230         	7.587          	2.572
MS.231         	7.57           	2.596
MS.232         	7.555          	2.361
MS.233         	7.54           	2.614
MS.234         	7.525          	2.784
MS.235         	7.51           	2.51
MS.236         	7.495          	2.349
MS.237         	7.48           	2.635
MS.238         	7.465          	2.626
MS.239         	7.45           	2.115
MS.240         	7.435          	2.429
MS.241         	7.42           	2.103
MS.242         	7.407          	1.829
MS.243         	7.392          	2.071
MS.244         	7.378          	1.917
MS.245         	7.362          	1.801
MS.246         	7.347          	1.779
MS.247         	7.332          	1.936
MS.248         	7.317          	1.972
MS.249         	7.302          	1.742
MS.250         	7.29           	2.153
MS.251         	7.275          	2.034
MS.252         	7.26           	1.714
MS.253         	7.245          	1.76
MS.254         	7.23           	1.559
MS.255         	7.217          	1.801
MS.256         	7.202          	1.807
MS.257         	7.188          	1.583
MS.258         	7.172          	1.295
MS.259         	7.16           	1.374
MS.260         	7.145          	1.406
MS.261         	7.13           	1.257
MS.262         	7.115          	1.402
MS.263         	7.102          	1.404
MS.264         	7.087          	1.38
MS.265         	7.072          	1.243
MS.266         	7.06           	1.547
MS.267         	7.045          	1.295
MS.268         	7.03           	1.082
MS.269         	7.017          	1.11
MS.270         	7.003          	1.194
MS.271         	6.99           	0.947
MS.272         	6.975          	1.108
MS.273         	6.96           	0.965
MS.274         	6.947          	0.818
MS.275         	6.932          	0.874
MS.276         	6.92           	1.031
MS.277         	6.905          	0.89
MS.278         	6.892          	0.916
MS.279         	6.878          	0.904
MS.280         	6.865          	0.892
MS.281         	6.85           	0.796
MS.282         	6.837          	0.487
MS.283         	6.822          	0.641
MS.284         	6.81           	0.765
MS.285         	6.795          	0.741
MS.286         	6.782          	0.663
MS.287         	6.77           	0.638
MS.288         	6.755          	0.453
MS.289         	6.742          	0.659
MS.290         	6.727          	0.781
MS.291         	6.715          	0.586
MS.292         	6.702          	0.395
MS.293         	6.688          	0.618
MS.294         	6.675          	0.548
MS.295         	6.662          	0.57
MS.296         	6.648          	0.433
MS.297         	6.635          	0.449
MS.298         	6.622          	0.477
MS.299         	6.608          	0.383
MS.300         	6.595          	0.604
MS.301         	6.582          	0.314
MS.302         	6.57           	0.423
MS.303         	6.555          	0.282
MS.304         	6.543          	0.3
MS.305         	6.53           	0.365
MS.306         	6.517          	0.264
MS.307         	6.503          	0.312
MS.308         	6.49           	0.312
MS.309         	6.477          	0.407
MS.310         	6.465          	0.288
MS.311         	6.452          	0.296
MS.312         	6.44           	0.342
MS.313         	6.425          	0.244
MS.314         	6.412          	0.181
MS.315         	6.4            	0.175
MS.316         	6.387          	0.173
MS.317         	6.375          	0.075
MS.318         	6.362          	0.25
MS.319         	6.35           	0.115
MS.320         	6.338          	0.226
MS.321         	6.325          	0.177
MS.322         	6.312          	0.123
MS.323         	6.297          	0.189
MS.324         	6.285          	0.298
MS.325         	6.273          	0.31
MS.326         	6.26           	0.119
MS.327         	6.247          	0.105
MS.328         	6.235          	0.121
MS.329         	6.222          	0.161
MS.330         	6.21           	0.064
MS.331         	6.197          	0.183
MS.332         	6.188          	0.125
MS.333         	6.175          	0.24
MS.334         	6.162          	0.101
MS.335         	6.15           	0.02
MS.336         	6.137          	0.105
MS.337         	6.125          	0.07
MS.338         	6.112          	0.109
MS.339         	6.1            	0.111
MS.340         	6.088          	0.004
MS.341         	6.075          	0.006
MS.342         	6.065          	0.046
MS.343         	6.052          	0.002
MS.344         	6.04           	0.004
MS.345         	6.027          	0.002
MS.346         	6.015          	0.004
MS.347         	6.003          	0.034
MS.348         	5.992          	0.068
MS.349         	5.98           	0.004
MS.350         	5.967          	0.004
MS.351         	5.955          	0.004
MS.352         	5.945          	0.014
MS.353         	5.932          	0.002
MS.354         	5.92           	0.002
MS.355         	5.907          	0.004
MS.356         	5.898          	0.002
MS.357         	5.885          	0.002
MS.358         	5.872          	0.000
MS.359         	5.86           	0.000
MS.360         	5.85           	0.004
MS.361         	5.838          	0.004
MS.362         	5.825          	0.004
MS.363         	5.815          	0.014
MS.364         	5.802          	0.004
MS.365         	5.79           	0.004
MS.366         	5.78           	0.000
MS.367         	5.767          	0.004
MS.368         	5.757          	0.002
MS.369         	5.745          	0.000
MS.370         	5.733          	0.002
MS.371         	5.722          	0.004
MS.372         	5.71           	0.006
MS.373         	5.7            	0.002
MS.374         	5.688          	0.006
MS.375         	5.677          	0.004
MS.376         	5.665          	0.004
MS.377         	5.655          	0.004
MS.378         	5.642          	0.002
MS.379         	5.632          	0.004
MS.380         	5.62           	0.006
MS.381         	5.61           	0.004
MS.382         	5.597          	0.002
MS.383         	5.588          	0.000
MS.384         	5.575          	0.006
MS.385         	5.565          	0.002
DERIVED EXCITABILITY VARIABLES
Program = QTracP 9/10/2021
Threshold method = 6 (optimised for CAP, using data for present condition only)
SR method = 1 (using actual data values)
6.                 	0.000               	Peak response\(mV)
9.                 	32                  	Temperature ( C)
17.                	40                  	Age (years)
18.                	2                   	Sex (M=1, F=2)

EXTRA VARIABLES

MScPeak(mV) = 5.75
MScS5(mA) = 6.45
MScS50(mA) = 7.71
MScS95(mA) = 9.45
MScNSteps = 5
MScSteps(%) = 12.7
MScStepMax(%) = 3.4
MScD50 = 33
MScSlope = 7.33
MScDuration(min) = 3.4
MSFTraces = 315
MSFPeakAmp(mV) = 5.87
MSFNUnits = 53
MSFMeanUnitAmp(uV) = 110.7
MSFHuntTime(m) = 1.58
MSFError(%) = 4.19
MSFNLarge = 18.66
MSFMedianAmp(%) = 1.73
MSFMedianAmp(mV) = 0.101
MSFHalfAmpAmp(%) = 1.98
MSFHalfAmpAmp(mV) = 0.116
MSFLargestAmp(%) = 6.04
MSFLargestAmp(mV) = 0.354
MSFMeanRS(%) = 2.01
MSFSizeLimit(uV) = 22.1
MSFLimitType = 3
MSFSmallestAmp(uV) = 39.7
MSFOpts = 10106121

EXTRA WAVEFORMS


!MScan Model
!53
	1	6.09	0.89	2
	2	6.17	1.9	2.4
	3	6.45	1.71	2
	4	6.53	1.3	2
	5	6.6	1.51	2
	6	6.7	1.9	2
	7	6.76	2.08	2
	8	6.83	1.57	2
	9	6.87	1.58	2
	10	6.91	1.4	2
	11	6.95	1.13	2
	12	6.98	1.5	2
	13	7.02	1.58	2
	14	7.06	1.27	2
	15	7.09	1.42	2
	16	7.13	2.13	2
	17	7.19	2.39	2
	18	7.26	2.23	2
	19	7.31	3.14	2
	20	7.37	2.88	2
	21	7.42	2.33	2
	22	7.44	2.08	2
	23	7.47	2.2	2
	24	7.58	3.38	2
	25	7.64	2.42	2
	26	7.68	1.93	2
	27	7.73	2.02	2
	28	7.78	1.7	2
	29	7.82	1.73	2
	30	7.86	1.89	2
	31	7.9	1.92	2
	32	7.94	1.98	2
	33	7.97	2.02	2
	34	8.01	2.01	2
	35	8.04	1.21	2
	36	8.06	1.28	2
	37	8.09	1.61	2
	38	8.12	2.08	2
	39	8.15	1.87	2
	40	8.2	2.79	2
	41	8.27	6.04	2
	42	8.6	1.72	2
	43	8.66	0.95	2
	44	8.69	1.55	2
	45	8.73	1.06	2
	46	8.79	0.78	2
	47	8.84	0.68	2
	48	8.9	0.89	2
	49	8.98	1.07	2
	50	9.1	1.4	2
	51	9.3	1.48	2
	52	9.67	1.97	2
	53	9.88	4.47	2

