File:              	C:\Qtrac\Data\Daniel M Sørensen\MScan multicentre study\Data from centres\Newcastle\Processed data\SMC00225C.QZD
Name:              	UK.NEW.NC.1.2
Protocol:          	MSCAN-R2
Date:              	25/2/20
Start time:        	16:22:05
Age:               	31
Sex:               	F
Temperature:       	31.8
S/R sites:         	TA
NC/disease:        	NC
Operator:          	SM
Comments:
M-SCAN DATA (1.4-0.0m)
Scanpts: 7, 18, 717, 740
Stim. (mA)     	Amp. (mV)
MS.1           	17.5           	10.081
MS.2           	17.5           	10.117
MS.3           	17.43          	10.012
MS.4           	17.395         	10.002
MS.5           	17.36          	10.016
MS.6           	17.325         	10.043
MS.7           	17.29          	10.051
MS.8           	17.257         	10.024
MS.9           	17.222         	10.091
MS.10          	17.188         	10.016
MS.11          	17.153         	10.079
MS.12          	17.12          	10.055
MS.13          	17.085         	10.069
MS.14          	17.05          	10.004
MS.15          	17.017         	10.061
MS.16          	16.983         	10.029
MS.17          	16.95          	9.998
MS.18          	16.915         	10.073
MS.19          	16.88          	9.992
MS.20          	16.847         	9.992
MS.21          	16.812         	9.998
MS.22          	16.78          	10.091
MS.23          	16.747         	9.984
MS.24          	16.712         	9.994
MS.25          	16.68          	10.035
MS.26          	16.647         	10.037
MS.27          	16.612         	9.986
MS.28          	16.58          	9.96
MS.29          	16.547         	9.99
MS.30          	16.515         	9.96
MS.31          	16.48          	9.954
MS.32          	16.448         	9.984
MS.33          	16.415         	9.96
MS.34          	16.382         	9.978
MS.35          	16.35          	9.984
MS.36          	16.317         	9.972
MS.37          	16.285         	9.964
MS.38          	16.253         	10.037
MS.39          	16.22          	10.004
MS.40          	16.188         	9.962
MS.41          	16.155         	9.958
MS.42          	16.122         	9.958
MS.43          	16.09          	10.033
MS.44          	16.057         	9.968
MS.45          	16.025         	10.006
MS.46          	15.992         	9.962
MS.47          	15.962         	9.998
MS.48          	15.93          	9.968
MS.49          	15.898         	10.043
MS.50          	15.867         	9.964
MS.51          	15.835         	9.952
MS.52          	15.802         	10.024
MS.53          	15.773         	10.014
MS.54          	15.74          	9.948
MS.55          	15.707         	9.974
MS.56          	15.677         	9.954
MS.57          	15.645         	10.004
MS.58          	15.615         	10.002
MS.59          	15.582         	10.018
MS.60          	15.552         	9.95
MS.61          	15.52          	9.962
MS.62          	15.49          	9.946
MS.63          	15.46          	9.932
MS.64          	15.427         	9.936
MS.65          	15.398         	9.936
MS.66          	15.367         	9.922
MS.67          	15.335         	9.928
MS.68          	15.305         	9.948
MS.69          	15.275         	9.932
MS.70          	15.245         	9.912
MS.71          	15.212         	9.998
MS.72          	15.182         	9.982
MS.73          	15.152         	9.946
MS.74          	15.122         	9.992
MS.75          	15.092         	10.006
MS.76          	15.062         	9.9
MS.77          	15.032         	9.92
MS.78          	15.002         	9.988
MS.79          	14.972         	9.9
MS.80          	14.943         	9.91
MS.81          	14.912         	9.912
MS.82          	14.882         	9.95
MS.83          	14.852         	9.888
MS.84          	14.822         	9.926
MS.85          	14.792         	9.968
MS.86          	14.765         	9.896
MS.87          	14.735         	9.964
MS.88          	14.705         	9.892
MS.89          	14.675         	9.934
MS.90          	14.648         	9.869
MS.91          	14.617         	9.922
MS.92          	14.587         	9.892
MS.93          	14.56          	9.865
MS.94          	14.53          	9.881
MS.95          	14.5           	9.97
MS.96          	14.472         	9.849
MS.97          	14.443         	9.877
MS.98          	14.415         	9.952
MS.99          	14.385         	9.892
MS.100         	14.358         	9.912
MS.101         	14.327         	9.908
MS.102         	14.3           	9.857
MS.103         	14.27          	9.861
MS.104         	14.242         	9.916
MS.105         	14.212         	9.865
MS.106         	14.185         	9.835
MS.107         	14.157         	9.849
MS.108         	14.127         	9.948
MS.109         	14.1           	9.853
MS.110         	14.072         	9.827
MS.111         	14.045         	9.873
MS.112         	14.015         	9.849
MS.113         	13.987         	9.835
MS.114         	13.96          	9.861
MS.115         	13.932         	9.839
MS.116         	13.905         	9.825
MS.117         	13.877         	9.879
MS.118         	13.85          	9.877
MS.119         	13.82          	9.879
MS.120         	13.792         	9.849
MS.121         	13.765         	9.904
MS.122         	13.737         	9.781
MS.123         	13.71          	9.859
MS.124         	13.682         	9.859
MS.125         	13.655         	9.789
MS.126         	13.63          	9.815
MS.127         	13.602         	9.797
MS.128         	13.575         	9.809
MS.129         	13.547         	9.801
MS.130         	13.52          	9.857
MS.131         	13.492         	9.873
MS.132         	13.467         	9.801
MS.133         	13.44          	9.857
MS.134         	13.412         	9.789
MS.135         	13.385         	9.841
MS.136         	13.36          	9.791
MS.137         	13.332         	9.797
MS.138         	13.305         	9.835
MS.139         	13.28          	9.779
MS.140         	13.252         	9.771
MS.141         	13.225         	9.845
MS.142         	13.2           	9.767
MS.143         	13.172         	9.769
MS.144         	13.148         	9.773
MS.145         	13.12          	9.718
MS.146         	13.095         	9.791
MS.147         	13.068         	9.736
MS.148         	13.042         	9.801
MS.149         	13.015         	9.769
MS.150         	12.99          	9.734
MS.151         	12.965         	9.813
MS.152         	12.938         	9.736
MS.153         	12.912         	9.795
MS.154         	12.887         	9.734
MS.155         	12.86          	9.769
MS.156         	12.835         	9.712
MS.157         	12.81          	9.734
MS.158         	12.785         	9.829
MS.159         	12.757         	9.769
MS.160         	12.733         	9.745
MS.161         	12.707         	9.728
MS.162         	12.682         	9.674
MS.163         	12.657         	9.769
MS.164         	12.632         	9.759
MS.165         	12.608         	9.722
MS.166         	12.58          	9.761
MS.167         	12.555         	9.718
MS.168         	12.53          	9.69
MS.169         	12.505         	9.676
MS.170         	12.48          	9.706
MS.171         	12.455         	9.708
MS.172         	12.43          	9.7
MS.173         	12.405         	9.676
MS.174         	12.382         	9.728
MS.175         	12.358         	9.648
MS.176         	12.332         	9.672
MS.177         	12.307         	9.638
MS.178         	12.282         	9.724
MS.179         	12.257         	9.585
MS.180         	12.233         	9.602
MS.181         	12.21          	9.674
MS.182         	12.185         	9.7
MS.183         	12.16          	9.7
MS.184         	12.135         	9.656
MS.185         	12.113         	9.656
MS.186         	12.087         	9.616
MS.187         	12.062         	9.62
MS.188         	12.04          	9.547
MS.189         	12.015         	9.652
MS.190         	11.992         	9.634
MS.191         	11.967         	9.571
MS.192         	11.943         	9.644
MS.193         	11.92          	9.535
MS.194         	11.895         	9.583
MS.195         	11.872         	9.573
MS.196         	11.847         	9.557
MS.197         	11.825         	9.547
MS.198         	11.8           	9.543
MS.199         	11.778         	9.513
MS.200         	11.755         	9.525
MS.201         	11.73          	9.529
MS.202         	11.707         	9.593
MS.203         	11.682         	9.557
MS.204         	11.66          	9.531
MS.205         	11.637         	9.525
MS.206         	11.615         	9.495
MS.207         	11.59          	9.511
MS.208         	11.568         	9.511
MS.209         	11.545         	9.521
MS.210         	11.523         	9.477
MS.211         	11.497         	9.577
MS.212         	11.475         	9.531
MS.213         	11.452         	9.525
MS.214         	11.43          	9.553
MS.215         	11.407         	9.515
MS.216         	11.385         	9.461
MS.217         	11.36          	9.515
MS.218         	11.337         	9.471
MS.219         	11.315         	9.624
MS.220         	11.292         	9.328
MS.221         	11.27          	9.491
MS.222         	11.247         	9.368
MS.223         	11.225         	9.326
MS.224         	11.202         	9.432
MS.225         	11.18          	9.368
MS.226         	11.157         	9.43
MS.227         	11.135         	9.422
MS.228         	11.115         	9.301
MS.229         	11.092         	9.332
MS.230         	11.07          	9.406
MS.231         	11.047         	9.386
MS.232         	11.025         	9.303
MS.233         	11.002         	9.352
MS.234         	10.983         	9.146
MS.235         	10.96          	9.269
MS.236         	10.938         	9.136
MS.237         	10.915         	9.112
MS.238         	10.895         	9.265
MS.239         	10.872         	9.162
MS.240         	10.85          	9.07
MS.241         	10.827         	9.048
MS.242         	10.807         	9.054
MS.243         	10.785         	9.072
MS.244         	10.765         	9.046
MS.245         	10.742         	9.056
MS.246         	10.72          	8.929
MS.247         	10.7           	9.021
MS.248         	10.677         	9.017
MS.249         	10.657         	8.985
MS.250         	10.635         	8.893
MS.251         	10.615         	8.856
MS.252         	10.592         	9.005
MS.253         	10.573         	8.981
MS.254         	10.55          	8.907
MS.255         	10.53          	8.907
MS.256         	10.507         	8.947
MS.257         	10.488         	8.872
MS.258         	10.467         	8.943
MS.259         	10.445         	8.88
MS.260         	10.425         	8.969
MS.261         	10.405         	8.866
MS.262         	10.382         	8.858
MS.263         	10.363         	8.876
MS.264         	10.342         	8.834
MS.265         	10.32          	8.754
MS.266         	10.3           	8.796
MS.267         	10.28          	8.76
MS.268         	10.26          	8.709
MS.269         	10.24          	8.717
MS.270         	10.217         	8.701
MS.271         	10.198         	8.697
MS.272         	10.177         	8.653
MS.273         	10.157         	8.699
MS.274         	10.137         	8.516
MS.275         	10.117         	8.492
MS.276         	10.097         	8.592
MS.277         	10.077         	8.568
MS.278         	10.057         	8.482
MS.279         	10.035         	8.538
MS.280         	10.015         	8.383
MS.281         	9.995          	8.498
MS.282         	9.975          	8.333
MS.283         	9.955          	8.417
MS.284         	9.938          	8.359
MS.285         	9.917          	8.252
MS.286         	9.898          	8.248
MS.287         	9.877          	8.204
MS.288         	9.858          	8.192
MS.289         	9.837          	8.149
MS.290         	9.818          	8.147
MS.291         	9.797          	8.125
MS.292         	9.778          	8.145
MS.293         	9.76           	8.188
MS.294         	9.74           	8.137
MS.295         	9.72           	8.073
MS.296         	9.7            	8.121
MS.297         	9.682          	8.065
MS.298         	9.662          	7.986
MS.299         	9.642          	7.968
MS.300         	9.622          	7.936
MS.301         	9.605          	7.932
MS.302         	9.585          	7.94
MS.303         	9.565          	7.95
MS.304         	9.547          	7.896
MS.305         	9.528          	7.926
MS.306         	9.507          	7.972
MS.307         	9.49           	7.904
MS.308         	9.47           	7.889
MS.309         	9.452          	7.867
MS.310         	9.432          	7.829
MS.311         	9.415          	7.885
MS.312         	9.395          	7.837
MS.313         	9.377          	7.857
MS.314         	9.358          	7.779
MS.315         	9.34           	7.69
MS.316         	9.32           	7.664
MS.317         	9.302          	7.714
MS.318         	9.283          	7.736
MS.319         	9.265          	7.618
MS.320         	9.245          	7.624
MS.321         	9.227          	7.706
MS.322         	9.21           	7.63
MS.323         	9.19           	7.557
MS.324         	9.172          	7.557
MS.325         	9.155          	7.458
MS.326         	9.135          	7.505
MS.327         	9.117          	7.495
MS.328         	9.1            	7.354
MS.329         	9.08           	7.46
MS.330         	9.062          	7.42
MS.331         	9.045          	7.348
MS.332         	9.028          	7.223
MS.333         	9.01           	7.275
MS.334         	8.99           	7.315
MS.335         	8.972          	7.321
MS.336         	8.955          	7.303
MS.337         	8.938          	7.142
MS.338         	8.92           	7.231
MS.339         	8.903          	7.021
MS.340         	8.882          	7.142
MS.341         	8.865          	6.975
MS.342         	8.847          	7.18
MS.343         	8.83           	7.078
MS.344         	8.812          	6.76
MS.345         	8.795          	7.176
MS.346         	8.778          	6.856
MS.347         	8.76           	6.967
MS.348         	8.742          	6.627
MS.349         	8.725          	6.83
MS.350         	8.707          	6.923
MS.351         	8.69           	6.592
MS.352         	8.672          	6.856
MS.353         	8.655          	6.484
MS.354         	8.637          	6.653
MS.355         	8.62           	6.689
MS.356         	8.602          	6.234
MS.357         	8.587          	6.504
MS.358         	8.57           	6.179
MS.359         	8.552          	6.494
MS.360         	8.535          	6.173
MS.361         	8.517          	6.393
MS.362         	8.5            	6.185
MS.363         	8.485          	6.063
MS.364         	8.467          	6.085
MS.365         	8.45           	5.97
MS.366         	8.432          	5.803
MS.367         	8.417          	5.783
MS.368         	8.4            	5.628
MS.369         	8.382          	5.924
MS.370         	8.365          	5.72
MS.371         	8.35           	5.65
MS.372         	8.332          	5.662
MS.373         	8.315          	5.42
MS.374         	8.3            	5.412
MS.375         	8.283          	5.023
MS.376         	8.267          	5.136
MS.377         	8.25           	5.158
MS.378         	8.233          	5.134
MS.379         	8.217          	5.082
MS.380         	8.2            	5.124
MS.381         	8.185          	4.967
MS.382         	8.167          	4.844
MS.383         	8.153          	5.039
MS.384         	8.135          	4.84
MS.385         	8.12           	4.838
MS.386         	8.102          	4.782
MS.387         	8.087          	4.884
MS.388         	8.07           	4.985
MS.389         	8.055          	4.89
MS.390         	8.037          	4.757
MS.391         	8.023          	4.633
MS.392         	8.005          	4.715
MS.393         	7.99           	4.649
MS.394         	7.975          	4.61
MS.395         	7.957          	4.498
MS.396         	7.942          	4.6
MS.397         	7.927          	4.477
MS.398         	7.91           	4.586
MS.399         	7.895          	4.614
MS.400         	7.88           	4.471
MS.401         	7.862          	4.431
MS.402         	7.847          	4.467
MS.403         	7.832          	4.302
MS.404         	7.815          	4.33
MS.405         	7.8            	4.31
MS.406         	7.785          	4.274
MS.407         	7.77           	4.28
MS.408         	7.755          	4.332
MS.409         	7.737          	4.33
MS.410         	7.722          	4.117
MS.411         	7.707          	4.169
MS.412         	7.692          	4.145
MS.413         	7.677          	4.123
MS.414         	7.662          	3.984
MS.415         	7.645          	3.932
MS.416         	7.63           	4.024
MS.417         	7.615          	4.028
MS.418         	7.6            	3.972
MS.419         	7.585          	3.934
MS.420         	7.57           	3.94
MS.421         	7.555          	3.815
MS.422         	7.54           	3.815
MS.423         	7.525          	3.805
MS.424         	7.51           	3.807
MS.425         	7.495          	3.777
MS.426         	7.48           	3.742
MS.427         	7.465          	3.656
MS.428         	7.45           	3.734
MS.429         	7.435          	3.573
MS.430         	7.42           	3.537
MS.431         	7.405          	3.561
MS.432         	7.39           	3.567
MS.433         	7.375          	3.474
MS.434         	7.36           	3.484
MS.435         	7.347          	3.577
MS.436         	7.332          	3.446
MS.437         	7.317          	3.38
MS.438         	7.302          	3.344
MS.439         	7.287          	3.356
MS.440         	7.273          	3.301
MS.441         	7.257          	3.229
MS.442         	7.245          	3.297
MS.443         	7.23           	3.293
MS.444         	7.215          	3.261
MS.445         	7.2            	3.138
MS.446         	7.188          	3.072
MS.447         	7.172          	3.068
MS.448         	7.157          	2.981
MS.449         	7.142          	2.824
MS.450         	7.13           	2.931
MS.451         	7.115          	2.945
MS.452         	7.1            	2.81
MS.453         	7.087          	2.935
MS.454         	7.072          	2.757
MS.455         	7.057          	2.862
MS.456         	7.045          	2.757
MS.457         	7.03           	2.721
MS.458         	7.015          	2.439
MS.459         	7.003          	2.701
MS.460         	6.987          	2.683
MS.461         	6.975          	2.693
MS.462         	6.96           	2.437
MS.463         	6.945          	2.465
MS.464         	6.932          	2.465
MS.465         	6.918          	2.34
MS.466         	6.905          	2.278
MS.467         	6.89           	2.258
MS.468         	6.878          	2.248
MS.469         	6.862          	2.193
MS.470         	6.85           	2.328
MS.471         	6.835          	2.262
MS.472         	6.822          	2.284
MS.473         	6.807          	2.143
MS.474         	6.795          	2.143
MS.475         	6.782          	2.089
MS.476         	6.767          	2.01
MS.477         	6.755          	2.073
MS.478         	6.74           	2.069
MS.479         	6.727          	1.909
MS.480         	6.715          	1.944
MS.481         	6.7            	2.026
MS.482         	6.688          	1.881
MS.483         	6.675          	1.841
MS.484         	6.66           	1.779
MS.485         	6.648          	1.783
MS.486         	6.635          	1.897
MS.487         	6.62           	1.742
MS.488         	6.608          	1.754
MS.489         	6.595          	1.893
MS.490         	6.58           	1.752
MS.491         	6.567          	1.631
MS.492         	6.555          	1.65
MS.493         	6.543          	1.523
MS.494         	6.527          	1.533
MS.495         	6.515          	1.563
MS.496         	6.503          	1.629
MS.497         	6.49           	1.47
MS.498         	6.477          	1.378
MS.499         	6.462          	1.432
MS.500         	6.45           	1.39
MS.501         	6.438          	1.408
MS.502         	6.425          	1.438
MS.503         	6.412          	1.366
MS.504         	6.4            	1.331
MS.505         	6.387          	1.396
MS.506         	6.375          	1.41
MS.507         	6.36           	1.333
MS.508         	6.347          	1.263
MS.509         	6.335          	1.235
MS.510         	6.322          	1.251
MS.511         	6.31           	1.196
MS.512         	6.297          	1.204
MS.513         	6.285          	1.202
MS.514         	6.273          	1.16
MS.515         	6.26           	1.015
MS.516         	6.247          	1.124
MS.517         	6.235          	1.182
MS.518         	6.222          	1.09
MS.519         	6.21           	0.941
MS.520         	6.197          	1.013
MS.521         	6.185          	0.945
MS.522         	6.172          	0.939
MS.523         	6.16           	0.931
MS.524         	6.148          	0.892
MS.525         	6.135          	0.898
MS.526         	6.125          	0.884
MS.527         	6.112          	0.808
MS.528         	6.1            	0.779
MS.529         	6.088          	0.703
MS.530         	6.075          	0.779
MS.531         	6.062          	0.641
MS.532         	6.05           	0.733
MS.533         	6.037          	0.717
MS.534         	6.027          	0.757
MS.535         	6.015          	0.731
MS.536         	6.003          	0.695
MS.537         	5.99           	0.709
MS.538         	5.977          	0.673
MS.539         	5.967          	0.651
MS.540         	5.955          	0.628
MS.541         	5.942          	0.669
MS.542         	5.93           	0.544
MS.543         	5.92           	0.542
MS.544         	5.907          	0.481
MS.545         	5.895          	0.55
MS.546         	5.885          	0.594
MS.547         	5.872          	0.504
MS.548         	5.86           	0.554
MS.549         	5.847          	0.483
MS.550         	5.838          	0.489
MS.551         	5.825          	0.524
MS.552         	5.812          	0.55
MS.553         	5.802          	0.457
MS.554         	5.79           	0.443
MS.555         	5.78           	0.439
MS.556         	5.767          	0.489
MS.557         	5.755          	0.292
MS.558         	5.745          	0.506
MS.559         	5.733          	0.391
MS.560         	5.722          	0.419
MS.561         	5.71           	0.322
MS.562         	5.697          	0.336
MS.563         	5.688          	0.443
MS.564         	5.675          	0.304
MS.565         	5.665          	0.361
MS.566         	5.652          	0.389
MS.567         	5.642          	0.308
MS.568         	5.63           	0.278
MS.569         	5.62           	0.314
MS.570         	5.608          	0.363
MS.571         	5.597          	0.246
MS.572         	5.585          	0.35
MS.573         	5.575          	0.31
MS.574         	5.562          	0.207
MS.575         	5.552          	0.195
MS.576         	5.54           	0.26
MS.577         	5.53           	0.264
MS.578         	5.52           	0.332
MS.579         	5.507          	0.238
MS.580         	5.497          	0.218
MS.581         	5.485          	0.22
MS.582         	5.475          	0.205
MS.583         	5.465          	0.222
MS.584         	5.452          	0.209
MS.585         	5.443          	0.193
MS.586         	5.432          	0.195
MS.587         	5.42           	0.209
MS.588         	5.41           	0.195
MS.589         	5.4            	0.167
MS.590         	5.387          	0.185
MS.591         	5.378          	0.191
MS.592         	5.367          	0.232
MS.593         	5.355          	0.173
MS.594         	5.345          	0.187
MS.595         	5.335          	0.179
MS.596         	5.325          	0.159
MS.597         	5.312          	0.211
MS.598         	5.302          	0.157
MS.599         	5.293          	0.175
MS.600         	5.282          	0.169
MS.601         	5.27           	0.151
MS.602         	5.26           	0.147
MS.603         	5.25           	0.185
MS.604         	5.24           	0.159
MS.605         	5.23           	0.155
MS.606         	5.217          	0.143
MS.607         	5.207          	0.133
MS.608         	5.197          	0.149
MS.609         	5.188          	0.123
MS.610         	5.177          	0.171
MS.611         	5.168          	0.133
MS.612         	5.155          	0.157
MS.613         	5.145          	0.155
MS.614         	5.135          	0.101
MS.615         	5.125          	0.145
MS.616         	5.115          	0.131
MS.617         	5.105          	0.167
MS.618         	5.095          	0.121
MS.619         	5.085          	0.125
MS.620         	5.075          	0.135
MS.621         	5.065          	0.113
MS.622         	5.055          	0.121
MS.623         	5.045          	0.103
MS.624         	5.035          	0.107
MS.625         	5.025          	0.127
MS.626         	5.015          	0.129
MS.627         	5.005          	0.101
MS.628         	4.995          	0.109
MS.629         	4.985          	0.131
MS.630         	4.975          	0.097
MS.631         	4.965          	0.109
MS.632         	4.955          	0.097
MS.633         	4.945          	0.093
MS.634         	4.935          	0.103
MS.635         	4.925          	0.099
MS.636         	4.915          	0.097
MS.637         	4.905          	0.093
MS.638         	4.895          	0.107
MS.639         	4.885          	0.095
MS.640         	4.875          	0.087
MS.641         	4.865          	0.099
MS.642         	4.855          	0.089
MS.643         	4.845          	0.075
MS.644         	4.838          	0.099
MS.645         	4.827          	0.073
MS.646         	4.818          	0.099
MS.647         	4.807          	0.081
MS.648         	4.797          	0.075
MS.649         	4.787          	0.07
MS.650         	4.78           	0.093
MS.651         	4.77           	0.097
MS.652         	4.76           	0.093
MS.653         	4.75           	0.085
MS.654         	4.74           	0.062
MS.655         	4.733          	0.07
MS.656         	4.722          	0.058
MS.657         	4.713          	0.068
MS.658         	4.702          	0.064
MS.659         	4.693          	0.083
MS.660         	4.685          	0.054
MS.661         	4.675          	0.058
MS.662         	4.665          	0.075
MS.663         	4.655          	0.05
MS.664         	4.648          	0.058
MS.665         	4.637          	0.05
MS.666         	4.628          	0.05
MS.667         	4.62           	0.064
MS.668         	4.61           	0.048
MS.669         	4.6            	0.048
MS.670         	4.592          	0.036
MS.671         	4.582          	0.046
MS.672         	4.572          	0.034
MS.673         	4.565          	0.044
MS.674         	4.555          	0.048
MS.675         	4.545          	0.026
MS.676         	4.537          	0.024
MS.677         	4.527          	0.026
MS.678         	4.517          	0.05
MS.679         	4.51           	0.036
MS.680         	4.5            	0.034
MS.681         	4.492          	0.032
MS.682         	4.483          	0.036
MS.683         	4.472          	0.034
MS.684         	4.465          	0.042
MS.685         	4.455          	0.022
MS.686         	4.447          	0.034
MS.687         	4.438          	0.026
MS.688         	4.43           	0.016
MS.689         	4.42           	0.018
MS.690         	4.412          	0.026
MS.691         	4.402          	0.012
MS.692         	4.395          	0.016
MS.693         	4.385          	0.03
MS.694         	4.378          	0.014
MS.695         	4.367          	0.03
MS.696         	4.36           	0.014
MS.697         	4.35           	0.024
MS.698         	4.342          	0.024
MS.699         	4.332          	0.01
MS.700         	4.325          	0.016
MS.701         	4.315          	0.012
MS.702         	4.307          	0.008
MS.703         	4.298          	0.000
MS.704         	4.29           	0.002
MS.705         	4.28           	0.016
MS.706         	4.273          	0.000
MS.707         	4.265          	0.014
MS.708         	4.255          	0.02
MS.709         	4.247          	0.008
MS.710         	4.237          	0.016
MS.711         	4.23           	0.000
MS.712         	4.222          	-0.004
MS.713         	4.213          	-0.002
MS.714         	4.205          	0.000
MS.715         	4.197          	0.000
MS.716         	4.188          	-0.004
MS.717         	4.18           	-0.002
MS.718         	4.17           	0.014
MS.719         	4.162          	0.012
MS.720         	4.155          	-0.004
MS.721         	4.145          	0.002
MS.722         	4.137          	0.000
MS.723         	4.13           	0.000
MS.724         	4.122          	-0.004
MS.725         	4.112          	0.012
MS.726         	4.105          	-0.004
MS.727         	4.097          	-0.002
MS.728         	4.088          	-0.002
MS.729         	4.08           	0.000
MS.730         	4.072          	-0.002
MS.731         	4.065          	0.002
MS.732         	4.055          	0.002
MS.733         	4.048          	-0.002
MS.734         	4.04           	-0.004
MS.735         	4.032          	0.000
MS.736         	4.023          	0.000
MS.737         	4.015          	0.000
MS.738         	4.007          	0.002
MS.739         	4              	-0.002
MS.740         	3.992          	-0.004
MS.741         	3.982          	-0.002
MS.742         	3.975          	-0.004
MS.743         	3.967          	0.000
MS.744         	3.96           	-0.002
MS.745         	3.952          	-0.004
MS.746         	3.945          	0.004
MS.747         	3.935          	0.004
MS.748         	3.928          	0.002
MS.749         	3.92           	-0.002
MS.750         	3.912          	-0.004
MS.751         	3.905          	-0.004
MS.752         	3.897          	-0.004
MS.753         	3.89           	0.002
MS.754         	3.882          	-0.002
MS.755         	3.872          	0.000
MS.756         	3.865          	0.002
MS.757         	3.857          	0.000
MS.758         	3.85           	0.000
MS.759         	3.842          	-0.002
MS.760         	3.835          	-0.002
MS.761         	3.827          	0.000
DERIVED EXCITABILITY VARIABLES
Program = QTracP 9/10/2021
Threshold method = 6 (optimised for CAP, using data for present condition only)
SR method = 1 (using actual data values)
6.                 	0.000               	Peak response\(mV)
9.                 	31.8                	Temperature ( C)
17.                	31                  	Age (years)
18.                	2                   	Sex (M=1, F=2)

EXTRA VARIABLES

MScPeak(mV) = 0.00
MScS5(mA) = 4.04
MScS50(mA) = 4.04
MScS95(mA) = 4.04
MScNSteps = 0
MScSteps(%) = 0.0
MScStepMax(%) = 0.0
MScD50 = 66
MScSlope = 136606
MScDuration(min) = 1.4
MSFTraces = 734
MSFPeakAmp(mV) = 10
MSFNUnits = 173
MSFMeanUnitAmp(uV) = 58.1
MSFHuntTime(m) = 4.49
MSFError(%) = 2.88
MSFNLarge = 50.09
MSFMedianAmp(%) = 0.456
MSFMedianAmp(mV) = 0.0458
MSFHalfAmpAmp(%) = 0.606
MSFHalfAmpAmp(mV) = 0.0609
MSFLargestAmp(%) = 2.76
MSFLargestAmp(mV) = 0.277
MSFMeanRS(%) = 2
MSFSizeLimit(uV) = 25.1
MSFLimitType = 1
MSFSmallestAmp(uV) = 25.6
MSFOpts = 10106121

EXTRA WAVEFORMS


!MScan Model
!173
	1	4.45	0.34	2
	2	4.68	0.27	2
	3	4.99	0.47	2
	4	5.2	0.4	2
	5	5.37	0.39	2
	6	5.52	0.96	2
	7	5.7	0.85	2
	8	5.81	0.66	2
	9	5.81	0.44	2
	10	5.9	0.77	2
	11	5.92	0.35	2
	12	5.96	0.38	2
	13	6.03	0.8	2
	14	6.06	0.31	2
	15	6.08	0.38	2
	16	6.1	0.26	2
	17	6.12	0.52	2
	18	6.15	0.42	2
	19	6.16	0.31	2
	20	6.18	0.38	2
	21	6.2	0.34	2
	22	6.22	0.4	2
	23	6.24	0.44	2
	24	6.26	0.41	2
	25	6.28	0.4	2
	26	6.3	0.27	2
	27	6.33	0.49	2
	28	6.36	0.61	2
	29	6.4	0.58	2
	30	6.44	0.52	2
	31	6.47	0.51	2
	32	6.49	0.36	2
	33	6.52	0.45	2
	34	6.54	0.56	2
	35	6.57	0.71	2
	36	6.61	0.82	2
	37	6.67	1.3	2
	38	6.69	0.31	2
	39	6.72	0.45	2
	40	6.74	0.45	2
	41	6.76	0.5	2
	42	6.78	0.37	2
	43	6.8	0.41	2
	44	6.82	0.5	2
	45	6.85	0.6	2
	46	6.88	0.51	2
	47	6.91	0.64	2
	48	6.94	0.8	2
	49	6.97	0.84	2
	50	7	0.94	2
	51	7.04	1.1	2
	52	7.09	1.04	2
	53	7.11	0.48	2
	54	7.13	0.61	2
	55	7.14	0.52	2
	56	7.16	0.4	2
	57	7.17	0.38	2
	58	7.2	0.49	2
	59	7.22	0.4	2
	60	7.23	0.42	2
	61	7.25	0.66	2
	62	7.28	0.59	2
	63	7.3	0.38	2
	64	7.31	0.34	2
	65	7.33	0.3	2
	66	7.35	0.29	2
	67	7.37	0.33	2
	68	7.38	0.33	2
	69	7.4	0.38	2
	70	7.42	0.41	2
	71	7.45	0.49	2
	72	7.47	0.36	2
	73	7.48	0.35	2
	74	7.5	0.38	2
	75	7.52	0.43	2
	76	7.54	0.38	2
	77	7.56	0.32	2
	78	7.58	0.32	2
	79	7.6	0.38	2
	80	7.62	0.45	2
	81	7.65	0.54	2
	82	7.67	0.47	2
	83	7.69	0.48	2
	84	7.72	0.26	2
	85	7.75	0.55	2
	86	7.78	0.75	2
	87	7.82	0.71	2
	88	7.85	0.56	2
	89	7.88	0.39	2
	90	7.91	0.6	2
	91	7.95	0.85	2
	92	8	0.89	2
	93	8.06	0.87	2
	94	8.14	1.69	2
	95	8.18	0.49	2
	96	8.21	0.61	2
	97	8.23	0.89	2
	98	8.25	0.55	2
	99	8.28	0.82	2
	100	8.3	0.87	2
	101	8.32	1.01	2
	102	8.34	0.6	2
	103	8.36	0.72	2
	104	8.38	0.81	2
	105	8.41	1.08	2
	106	8.43	1.15	2
	107	8.46	0.98	2
	108	8.49	1.01	2
	109	8.53	1.47	2
	110	8.58	1.63	2
	111	8.64	1.49	2
	112	8.74	2.76	2
	113	8.88	2.58	2
	114	8.94	0.8	2
	115	8.98	0.66	2
	116	9.01	0.56	2
	117	9.04	0.4	2
	118	9.07	0.4	2
	119	9.09	0.34	2
	120	9.11	0.31	2
	121	9.14	0.37	2
	122	9.16	0.34	2
	123	9.18	0.31	2
	124	9.21	0.34	2
	125	9.23	0.3	2
	126	9.26	0.3	2
	127	9.28	0.28	2
	128	9.3	0.25	2
	129	9.34	0.39	2
	130	9.38	0.49	2
	131	9.42	0.42	2
	132	9.46	0.37	2
	133	9.51	0.36	2
	134	9.56	0.29	2
	135	9.6	0.3	2
	136	9.65	0.46	2
	137	9.68	0.53	2
	138	9.76	0.46	2
	139	9.79	0.31	2
	140	9.82	0.36	2
	141	9.84	0.27	2
	142	9.87	0.34	2
	143	9.9	0.36	2
	144	9.94	0.47	2
	145	9.95	0.26	2
	146	9.98	0.5	2
	147	10.02	0.5	2
	148	10.05	0.43	2
	149	10.08	0.39	2
	150	10.11	0.36	2
	151	10.14	0.36	2
	152	10.17	0.31	2
	153	10.21	0.43	2
	154	10.24	0.26	2
	155	10.26	0.31	2
	156	10.29	0.3	2
	157	10.32	0.26	2
	158	10.38	0.57	2
	159	10.52	0.83	2
	160	10.67	0.51	2
	161	10.73	0.37	2
	162	10.79	0.49	2
	163	10.85	0.55	2
	164	10.92	0.62	2
	165	10.99	1.16	2
	166	11.23	1.83	2
	167	11.76	0.64	2
	168	11.95	0.4	2
	169	12.4	0.89	2
	170	13.13	0.94	2
	171	13.67	0.87	2
	172	15.32	0.95	2
	173	16.8	0.61	2

