File:              	C:\Qtrac\Data\Daniel M Sørensen\MScan multicentre study\Data from centres\Odense\Processed data\PHC00914A.QZD
Name:              	DK.ODE.NC.3.2
Protocol:          	MSCAN-R2
Date:              	14/9/20
Start time:        	09:50:09
Age:               	29
Sex:               	M
Temperature:       	33.9
S/R sites:         	APB
NC/disease:        	NC
Operator:          	TK
Comments:
M-SCAN DATA (6.3-1.3m)
Scanpts: 25, 31, 382, 390
Stim. (mA)     	Amp. (mV)
MS.1           	11.5           	7.336
MS.2           	11.5           	7.259
MS.3           	11.5           	7.261
MS.4           	11.5           	7.241
MS.5           	11.5           	7.219
MS.6           	11.5           	7.205
MS.7           	11.5           	7.271
MS.8           	11.5           	7.243
MS.9           	11.5           	7.251
MS.10          	11.5           	7.205
MS.11          	11.5           	7.221
MS.12          	11.5           	7.247
MS.13          	11.5           	7.195
MS.14          	11.5           	7.215
MS.15          	11.5           	7.263
MS.16          	11.5           	7.245
MS.17          	11.5           	7.36
MS.18          	11.5           	7.237
MS.19          	11.5           	7.233
MS.20          	11.5           	7.203
MS.21          	11.5           	7.213
MS.22          	11.5           	7.215
MS.23          	11.455         	7.247
MS.24          	11.43          	7.239
MS.25          	11.407         	7.295
MS.26          	11.385         	7.251
MS.27          	11.363         	7.259
MS.28          	11.34          	7.279
MS.29          	11.318         	7.301
MS.30          	11.295         	7.257
MS.31          	11.273         	7.271
MS.32          	11.25          	7.279
MS.33          	11.227         	7.281
MS.34          	11.205         	7.267
MS.35          	11.182         	7.241
MS.36          	11.16          	7.229
MS.37          	11.137         	7.261
MS.38          	11.115         	7.233
MS.39          	11.092         	7.307
MS.40          	11.07          	7.301
MS.41          	11.05          	7.187
MS.42          	11.028         	7.215
MS.43          	11.005         	7.273
MS.44          	10.983         	7.215
MS.45          	10.96          	7.245
MS.46          	10.94          	7.253
MS.47          	10.917         	7.251
MS.48          	10.895         	7.197
MS.49          	10.872         	7.237
MS.50          	10.852         	7.233
MS.51          	10.83          	7.215
MS.52          	10.807         	7.138
MS.53          	10.787         	7.235
MS.54          	10.765         	7.142
MS.55          	10.745         	7.225
MS.56          	10.722         	7.241
MS.57          	10.7           	7.255
MS.58          	10.68          	7.235
MS.59          	10.657         	7.197
MS.60          	10.637         	7.136
MS.61          	10.615         	7.168
MS.62          	10.595         	7.225
MS.63          	10.573         	7.237
MS.64          	10.552         	7.227
MS.65          	10.53          	7.287
MS.66          	10.51          	7.207
MS.67          	10.49          	7.223
MS.68          	10.467         	7.172
MS.69          	10.448         	7.158
MS.70          	10.427         	7.195
MS.71          	10.405         	7.185
MS.72          	10.385         	7.106
MS.73          	10.365         	7.231
MS.74          	10.342         	7.233
MS.75          	10.323         	7.162
MS.76          	10.302         	7.17
MS.77          	10.282         	7.158
MS.78          	10.26          	7.172
MS.79          	10.24          	7.176
MS.80          	10.22          	7.283
MS.81          	10.2           	7.152
MS.82          	10.18          	7.168
MS.83          	10.16          	7.142
MS.84          	10.137         	7.104
MS.85          	10.117         	7.219
MS.86          	10.097         	7.15
MS.87          	10.077         	7.118
MS.88          	10.057         	7.09
MS.89          	10.037         	7.166
MS.90          	10.017         	7.12
MS.91          	9.997          	7.021
MS.92          	9.977          	7.221
MS.93          	9.957          	7.1
MS.94          	9.938          	7.201
MS.95          	9.917          	7.11
MS.96          	9.898          	7.098
MS.97          	9.877          	7.13
MS.98          	9.858          	7.158
MS.99          	9.84           	7.126
MS.100         	9.82           	7.096
MS.101         	9.8            	7.084
MS.102         	9.78           	7.031
MS.103         	9.76           	7.106
MS.104         	9.74           	7.1
MS.105         	9.722          	7.114
MS.106         	9.702          	7.052
MS.107         	9.682          	7.146
MS.108         	9.662          	6.991
MS.109         	9.645          	7.076
MS.110         	9.625          	7.011
MS.111         	9.605          	7.068
MS.112         	9.587          	7.064
MS.113         	9.568          	7.076
MS.114         	9.547          	6.991
MS.115         	9.53           	7.116
MS.116         	9.51           	7.011
MS.117         	9.49           	7.023
MS.118         	9.472          	7.035
MS.119         	9.452          	6.987
MS.120         	9.435          	6.896
MS.121         	9.415          	6.864
MS.122         	9.398          	7.005
MS.123         	9.377          	6.894
MS.124         	9.36           	6.846
MS.125         	9.34           	7.005
MS.126         	9.323          	6.838
MS.127         	9.302          	6.723
MS.128         	9.285          	6.689
MS.129         	9.265          	6.506
MS.130         	9.247          	6.842
MS.131         	9.23           	6.693
MS.132         	9.21           	6.608
MS.133         	9.193          	6.568
MS.134         	9.172          	6.629
MS.135         	9.155          	6.733
MS.136         	9.137          	6.762
MS.137         	9.12           	6.51
MS.138         	9.1            	6.578
MS.139         	9.082          	6.387
MS.140         	9.065          	6.488
MS.141         	9.045          	6.494
MS.142         	9.028          	6.431
MS.143         	9.01           	6.431
MS.144         	8.992          	6.534
MS.145         	8.975          	6.113
MS.146         	8.955          	6.544
MS.147         	8.938          	6.566
MS.148         	8.92           	6.502
MS.149         	8.903          	6.008
MS.150         	8.885          	6.423
MS.151         	8.867          	6.093
MS.152         	8.85           	6.204
MS.153         	8.832          	6.055
MS.154         	8.815          	5.859
MS.155         	8.797          	5.92
MS.156         	8.78           	6.097
MS.157         	8.762          	5.946
MS.158         	8.745          	5.883
MS.159         	8.727          	6.093
MS.160         	8.71           	5.787
MS.161         	8.693          	5.833
MS.162         	8.675          	5.783
MS.163         	8.658          	5.795
MS.164         	8.64           	5.779
MS.165         	8.622          	6.047
MS.166         	8.605          	5.823
MS.167         	8.587          	5.791
MS.168         	8.57           	5.364
MS.169         	8.552          	5.557
MS.170         	8.537          	5.65
MS.171         	8.52           	5.585
MS.172         	8.502          	5.724
MS.173         	8.485          	5.64
MS.174         	8.467          	5.567
MS.175         	8.452          	5.16
MS.176         	8.435          	5.746
MS.177         	8.417          	5.636
MS.178         	8.4            	5.36
MS.179         	8.385          	5.217
MS.180         	8.367          	5.34
MS.181         	8.35           	5.38
MS.182         	8.335          	5.573
MS.183         	8.318          	5.082
MS.184         	8.3            	5.114
MS.185         	8.285          	5.122
MS.186         	8.267          	5.025
MS.187         	8.25           	5.027
MS.188         	8.235          	5.07
MS.189         	8.217          	5.001
MS.190         	8.202          	4.884
MS.191         	8.185          	5.084
MS.192         	8.17           	5.084
MS.193         	8.153          	5.043
MS.194         	8.137          	4.88
MS.195         	8.12           	4.973
MS.196         	8.105          	4.653
MS.197         	8.087          	4.82
MS.198         	8.073          	4.602
MS.199         	8.055          	4.691
MS.200         	8.04           	4.753
MS.201         	8.023          	4.633
MS.202         	8.007          	4.602
MS.203         	7.99           	4.723
MS.204         	7.975          	4.647
MS.205         	7.96           	4.699
MS.206         	7.942          	4.451
MS.207         	7.927          	4.486
MS.208         	7.912          	4.282
MS.209         	7.895          	4.56
MS.210         	7.88           	4.496
MS.211         	7.865          	4.649
MS.212         	7.847          	4.375
MS.213         	7.832          	4.312
MS.214         	7.817          	3.819
MS.215         	7.802          	3.785
MS.216         	7.785          	4.2
MS.217         	7.77           	4.278
MS.218         	7.755          	3.692
MS.219         	7.74           	3.962
MS.220         	7.725          	4.079
MS.221         	7.707          	3.766
MS.222         	7.692          	4.012
MS.223         	7.677          	3.682
MS.224         	7.662          	3.553
MS.225         	7.648          	3.513
MS.226         	7.632          	3.694
MS.227         	7.617          	3.164
MS.228         	7.602          	3.797
MS.229         	7.587          	3.241
MS.230         	7.57           	3.047
MS.231         	7.555          	3.18
MS.232         	7.54           	3.253
MS.233         	7.525          	2.937
MS.234         	7.51           	2.983
MS.235         	7.495          	3.134
MS.236         	7.48           	2.554
MS.237         	7.465          	2.87
MS.238         	7.45           	2.473
MS.239         	7.435          	2.49
MS.240         	7.42           	2.673
MS.241         	7.407          	2.78
MS.242         	7.392          	2.336
MS.243         	7.378          	2.187
MS.244         	7.362          	2.574
MS.245         	7.347          	2.628
MS.246         	7.332          	2.075
MS.247         	7.317          	2.447
MS.248         	7.302          	2.393
MS.249         	7.29           	2.175
MS.250         	7.275          	2.052
MS.251         	7.26           	1.805
MS.252         	7.245          	2.181
MS.253         	7.23           	2.05
MS.254         	7.217          	1.893
MS.255         	7.202          	1.899
MS.256         	7.188          	2.044
MS.257         	7.172          	2.046
MS.258         	7.16           	1.837
MS.259         	7.145          	1.714
MS.260         	7.13           	1.835
MS.261         	7.115          	1.793
MS.262         	7.102          	1.607
MS.263         	7.087          	1.793
MS.264         	7.072          	1.638
MS.265         	7.06           	1.609
MS.266         	7.045          	1.503
MS.267         	7.03           	1.533
MS.268         	7.017          	1.575
MS.269         	7.003          	1.372
MS.270         	6.99           	1.382
MS.271         	6.975          	1.444
MS.272         	6.96           	1.335
MS.273         	6.947          	1.384
MS.274         	6.932          	1.202
MS.275         	6.92           	1.497
MS.276         	6.905          	1.204
MS.277         	6.892          	1.301
MS.278         	6.878          	1.14
MS.279         	6.865          	1.293
MS.280         	6.85           	1.225
MS.281         	6.837          	1.08
MS.282         	6.822          	1.182
MS.283         	6.81           	0.931
MS.284         	6.795          	0.886
MS.285         	6.782          	1.112
MS.286         	6.77           	1.025
MS.287         	6.755          	1.213
MS.288         	6.742          	0.955
MS.289         	6.727          	0.906
MS.290         	6.715          	0.9
MS.291         	6.702          	1.098
MS.292         	6.688          	0.784
MS.293         	6.675          	0.874
MS.294         	6.662          	0.838
MS.295         	6.648          	0.908
MS.296         	6.635          	0.784
MS.297         	6.622          	0.741
MS.298         	6.608          	0.659
MS.299         	6.595          	0.661
MS.300         	6.582          	0.455
MS.301         	6.57           	0.675
MS.302         	6.555          	0.695
MS.303         	6.543          	0.743
MS.304         	6.53           	0.675
MS.305         	6.517          	0.552
MS.306         	6.503          	0.514
MS.307         	6.49           	0.55
MS.308         	6.477          	0.572
MS.309         	6.465          	0.457
MS.310         	6.452          	0.272
MS.311         	6.44           	0.53
MS.312         	6.425          	0.369
MS.313         	6.412          	0.268
MS.314         	6.4            	0.508
MS.315         	6.387          	0.203
MS.316         	6.375          	0.282
MS.317         	6.362          	0.367
MS.318         	6.35           	0.433
MS.319         	6.338          	0.244
MS.320         	6.325          	0.411
MS.321         	6.312          	0.443
MS.322         	6.297          	0.211
MS.323         	6.285          	0.246
MS.324         	6.273          	0.205
MS.325         	6.26           	0.183
MS.326         	6.247          	0.26
MS.327         	6.235          	0.155
MS.328         	6.222          	0.211
MS.329         	6.21           	0.113
MS.330         	6.197          	0.167
MS.331         	6.188          	0.175
MS.332         	6.175          	0.113
MS.333         	6.162          	0.127
MS.334         	6.15           	0.177
MS.335         	6.137          	0.113
MS.336         	6.125          	0.127
MS.337         	6.112          	0.135
MS.338         	6.1            	0.163
MS.339         	6.088          	0.121
MS.340         	6.075          	0.147
MS.341         	6.065          	0.054
MS.342         	6.052          	0.091
MS.343         	6.04           	0.079
MS.344         	6.027          	0.133
MS.345         	6.015          	0.107
MS.346         	6.003          	0.077
MS.347         	5.992          	0.032
MS.348         	5.98           	0.07
MS.349         	5.967          	0.115
MS.350         	5.955          	0.034
MS.351         	5.945          	0.107
MS.352         	5.932          	0.087
MS.353         	5.92           	0.089
MS.354         	5.907          	0.077
MS.355         	5.898          	0.133
MS.356         	5.885          	0.075
MS.357         	5.872          	0.077
MS.358         	5.86           	0.062
MS.359         	5.85           	0.101
MS.360         	5.838          	0.062
MS.361         	5.825          	0.075
MS.362         	5.815          	0.038
MS.363         	5.802          	0.056
MS.364         	5.79           	0.03
MS.365         	5.78           	0.04
MS.366         	5.767          	0.085
MS.367         	5.757          	0.052
MS.368         	5.745          	0.079
MS.369         	5.733          	0.105
MS.370         	5.722          	0.012
MS.371         	5.71           	0.109
MS.372         	5.7            	0.058
MS.373         	5.688          	0.089
MS.374         	5.677          	0.058
MS.375         	5.665          	0.07
MS.376         	5.655          	0.117
MS.377         	5.642          	0.03
MS.378         	5.632          	0.117
MS.379         	5.62           	0.107
MS.380         	5.61           	0.109
MS.381         	5.597          	0.083
MS.382         	5.588          	0.097
MS.383         	5.575          	0.052
MS.384         	5.565          	0.089
MS.385         	5.552          	0.101
MS.386         	5.543          	0.05
MS.387         	5.53           	0.087
MS.388         	5.52           	0.103
MS.389         	5.51           	0.046
MS.390         	5.497          	0.105
MS.391         	5.487          	0.105
MS.392         	5.475          	0.083
MS.393         	5.465          	0.062
MS.394         	5.455          	0.075
MS.395         	5.443          	0.101
MS.396         	5.432          	0.07
MS.397         	5.422          	0.022
MS.398         	5.41           	0.054
MS.399         	5.4            	0.081
MS.400         	5.39           	0.165
MS.401         	5.378          	0.07
MS.402         	5.367          	0.101
MS.403         	5.358          	0.141
MS.404         	5.345          	0.06
MS.405         	5.335          	0.07
MS.406         	5.325          	0.054
MS.407         	5.315          	0.099
MS.408         	5.302          	0.073
MS.409         	5.293          	0.054
MS.410         	5.282          	0.073
MS.411         	5.273          	0.07
MS.412         	5.26           	0.097
MS.413         	5.25           	0.093
MS.414         	5.24           	0.135
MS.415         	5.23           	0.093
MS.416         	5.22           	0.07
MS.417         	5.21           	0.107
MS.418         	5.197          	0.064
MS.419         	5.188          	0.085
MS.420         	5.177          	0.115
MS.421         	5.168          	0.089
MS.422         	5.157          	0.131
MS.423         	5.148          	0.119
MS.424         	5.137          	0.046
MS.425         	5.125          	0.075
MS.426         	5.115          	0.123
MS.427         	5.105          	0.093
MS.428         	5.095          	0.097
MS.429         	5.085          	0.062
MS.430         	5.075          	0.091
MS.431         	5.065          	0.056
MS.432         	5.055          	0.054
MS.433         	5.045          	0.085
MS.434         	5.035          	0.099
MS.435         	5.025          	0.044
MS.436         	5.015          	0.054
MS.437         	5.005          	0.064
MS.438         	4.995          	0.026
MS.439         	4.985          	0.083
MS.440         	4.975          	0.113
MS.441         	4.965          	0.085
MS.442         	4.955          	0.115
MS.443         	4.945          	0.062
MS.444         	4.935          	0.103
MS.445         	4.925          	0.097
MS.446         	4.915          	0.064
MS.447         	4.905          	0.036
MS.448         	4.895          	0.042
MS.449         	4.885          	0.109
MS.450         	4.875          	0.04
MS.451         	4.867          	0.097
MS.452         	4.858          	0.054
MS.453         	4.847          	0.068
MS.454         	4.838          	0.085
MS.455         	4.827          	0.089
MS.456         	4.818          	0.093
MS.457         	4.807          	0.056
MS.458         	4.797          	0.121
MS.459         	4.79           	0.103
MS.460         	4.78           	0.034
MS.461         	4.77           	0.075
MS.462         	4.76           	0.101
MS.463         	4.75           	0.073
MS.464         	4.742          	0.052
MS.465         	4.733          	0.095
MS.466         	4.722          	0.054
MS.467         	4.713          	0.075
MS.468         	4.702          	0.169
MS.469         	4.695          	0.081
MS.470         	4.685          	0.193
MS.471         	4.675          	0.105
MS.472         	4.665          	0.081
MS.473         	4.657          	0.044
MS.474         	4.648          	0.121
MS.475         	4.637          	0.119
MS.476         	4.63           	0.046
MS.477         	4.62           	0.06
MS.478         	4.61           	0.129
MS.479         	4.602          	0.091
MS.480         	4.592          	0.113
MS.481         	4.582          	0.109
MS.482         	4.575          	0.075
MS.483         	4.565          	0.109
MS.484         	4.555          	0.123
MS.485         	4.548          	0.101
MS.486         	4.537          	0.087
MS.487         	4.527          	0.077
MS.488         	4.52           	0.127
MS.489         	4.51           	0.123
MS.490         	4.5            	0.115
MS.491         	4.492          	0.097
MS.492         	4.483          	0.125
MS.493         	4.475          	0.135
MS.494         	4.465          	0.06
MS.495         	4.457          	0.089
MS.496         	4.447          	0.066
MS.497         	4.438          	0.091
MS.498         	4.43           	0.085
MS.499         	4.42           	0.081
MS.500         	4.412          	0.147
MS.501         	4.402          	0.058
MS.502         	4.395          	0.064
MS.503         	4.385          	0.111
MS.504         	4.378          	0.095
MS.505         	4.367          	0.115
MS.506         	4.36           	0.085
MS.507         	4.35           	0.121
MS.508         	4.342          	0.052
MS.509         	4.332          	0.125
MS.510         	4.325          	0.113
MS.511         	4.315          	0.06
MS.512         	4.307          	0.066
MS.513         	4.3            	0.127
MS.514         	4.29           	0.121
MS.515         	4.282          	0.129
MS.516         	4.273          	0.109
MS.517         	4.265          	0.159
MS.518         	4.255          	0.089
MS.519         	4.247          	0.056
MS.520         	4.24           	0.111
MS.521         	4.23           	0.097
MS.522         	4.222          	0.04
MS.523         	4.213          	0.119
MS.524         	4.205          	0.058
MS.525         	4.197          	0.079
MS.526         	4.188          	0.099
MS.527         	4.18           	0.099
MS.528         	4.173          	0.133
MS.529         	4.162          	0.105
MS.530         	4.155          	0.147
MS.531         	4.148          	0.171
MS.532         	4.137          	0.135
MS.533         	4.13           	0.048
MS.534         	4.122          	0.095
MS.535         	4.115          	0.056
MS.536         	4.105          	0.167
MS.537         	4.097          	0.075
MS.538         	4.09           	0.105
MS.539         	4.08           	0.099
MS.540         	4.072          	0.095
MS.541         	4.065          	0.123
MS.542         	4.057          	0.052
MS.543         	4.048          	0.101
MS.544         	4.04           	0.105
MS.545         	4.032          	0.095
DERIVED EXCITABILITY VARIABLES
Program = QTracP 9/10/2021
Threshold method = 6 (optimised for CAP, using data for present condition only)
SR method = 1 (using actual data values)
6.                 	0.000               	Peak response\(mV)
9.                 	33.9                	Temperature ( C)
17.                	29                  	Age (years)
18.                	1                   	Sex (M=1, F=2)

EXTRA VARIABLES

MScPeak(mV) = 7.14
MScS5(mA) = 6.39
MScS50(mA) = 7.63
MScS95(mA) = 9.27
MScNSteps = 5
MScSteps(%) = 11.2
MScStepMax(%) = 2.6
MScD50 = 39
MScSlope = 5.95
MScDuration(min) = 5
MSFTraces = 366
MSFPeakAmp(mV) = 7.19
MSFNUnits = 71
MSFMeanUnitAmp(uV) = 101.3
MSFHuntTime(m) = 1.73
MSFError(%) = 4.27
MSFNLarge = 23.83
MSFMedianAmp(%) = 1.34
MSFMedianAmp(mV) = 0.0965
MSFHalfAmpAmp(%) = 1.69
MSFHalfAmpAmp(mV) = 0.121
MSFLargestAmp(%) = 2.76
MSFLargestAmp(mV) = 0.198
MSFMeanRS(%) = 2
MSFSizeLimit(uV) = 20
MSFLimitType = 3
MSFSmallestAmp(uV) = 23.1
MSFOpts = 10106121

EXTRA WAVEFORMS


!MScan Model
!71
	1	6.05	0.32	2
	2	6.19	0.83	2
	3	6.23	0.57	2
	4	6.3	0.95	2
	5	6.41	1.8	2
	6	6.47	0.91	2
	7	6.51	1.15	2
	8	6.55	0.93	2
	9	6.59	1.16	2
	10	6.63	1.1	2
	11	6.66	0.54	2
	12	6.71	1.44	2
	13	6.77	1.71	2
	14	6.82	1.17	2
	15	6.87	0.78	2
	16	6.9	1.09	2
	17	6.93	1.27	2
	18	6.96	0.69	2
	19	6.99	0.59	2
	20	7.01	0.9	2
	21	7.03	0.65	2
	22	7.05	0.5	2
	23	7.07	0.49	2
	24	7.08	0.55	2
	25	7.1	0.58	2
	26	7.14	1.49	2
	27	7.18	1.34	2
	28	7.22	1.8	2
	29	7.26	1.71	2
	30	7.31	1.25	2
	31	7.36	2.39	2
	32	7.4	2.05	2
	33	7.44	1.92	2
	34	7.47	1.55	2
	35	7.49	1.15	2
	36	7.52	1.29	2
	37	7.54	1.44	2
	38	7.56	1.46	2
	39	7.59	2.25	2
	40	7.61	1.32	2
	41	7.67	2.5	2
	42	7.72	2.35	2
	43	7.76	2.76	2
	44	7.81	2.57	2
	45	7.86	2.03	2
	46	7.91	1.98	2
	47	8	2.5	2
	48	8.04	1.1	2
	49	8.08	1.07	2
	50	8.12	0.7	2
	51	8.17	1.24	2
	52	8.22	1.69	2
	53	8.28	1.39	2
	54	8.35	1.96	2
	55	8.41	2.01	2
	56	8.54	1.73	2
	57	8.54	1.15	2
	58	8.63	1.84	2
	59	8.72	2.36	2
	60	8.8	1.45	2
	61	8.87	2.12	2
	62	8.96	2.15	2
	63	9.06	2.12	2
	64	9.15	1.44	2
	65	9.24	1.66	2
	66	9.31	1.16	2
	67	9.36	0.81	2
	68	9.45	1.56	2
	69	9.55	0.73	2
	70	10.02	1.57	2
	71	10.87	1.2	2

