File:              	C:\Qtrac\Data\Daniel M Sørensen\MScan multicentre study\Data from centres\Aarhus\Processed data\DMSC10423B.QZD
Name:              	DK.AAR.NC.12.2
Protocol:          	MSCAN-R2
Date:              	23/4/21
Start time:        	10:54:16
Age:               	26
Sex:               	f
Temperature:       	31,4
S/R sites:         	ADM
NC/disease:        	NC
Operator:          	DS
Comments:
M-SCAN DATA (5.6-1.2m)
Scanpts: 10, 17, 466, 487
Stim. (mA)     	Amp. (mV)
MS.1           	16.5           	14.8
MS.2           	16.5           	14.772
MS.3           	16.5           	14.84
MS.4           	16.5           	14.949
MS.5           	16.5           	14.895
MS.6           	16.5           	14.923
MS.7           	16.5           	14.909
MS.8           	16.5           	15.034
MS.9           	16.5           	14.961
MS.10          	16.5           	15.012
MS.11          	16.5           	14.917
MS.12          	16.5           	14.941
MS.13          	16.5           	14.919
MS.14          	16.5           	15.018
MS.15          	16.5           	14.957
MS.16          	16.5           	14.977
MS.17          	16.5           	14.933
MS.18          	16.5           	14.943
MS.19          	16.5           	14.923
MS.20          	16.5           	14.977
MS.21          	16.5           	14.965
MS.22          	16.5           	14.951
MS.23          	16.5           	14.907
MS.24          	16.4           	14.899
MS.25          	16.368         	14.923
MS.26          	16.335         	14.925
MS.27          	16.302         	14.931
MS.28          	16.27          	14.897
MS.29          	16.237         	14.879
MS.30          	16.205         	14.897
MS.31          	16.172         	14.935
MS.32          	16.14          	14.891
MS.33          	16.108         	14.669
MS.34          	16.077         	14.693
MS.35          	16.045         	14.891
MS.36          	16.012         	14.671
MS.37          	15.98          	14.679
MS.38          	15.947         	14.899
MS.39          	15.917         	14.637
MS.40          	15.885         	14.679
MS.41          	15.852         	14.846
MS.42          	15.822         	14.621
MS.43          	15.79          	14.611
MS.44          	15.757         	14.53
MS.45          	15.727         	14.764
MS.46          	15.695         	14.56
MS.47          	15.665         	14.607
MS.48          	15.632         	14.585
MS.49          	15.602         	14.556
MS.50          	15.57          	14.534
MS.51          	15.54          	14.494
MS.52          	15.507         	14.423
MS.53          	15.477         	14.48
MS.54          	15.445         	14.516
MS.55          	15.415         	14.371
MS.56          	15.385         	14.448
MS.57          	15.352         	14.375
MS.58          	15.322         	14.482
MS.59          	15.292         	14.466
MS.60          	15.262         	14.351
MS.61          	15.233         	14.466
MS.62          	15.2           	14.373
MS.63          	15.17          	14.391
MS.64          	15.14          	14.329
MS.65          	15.11          	14.357
MS.66          	15.08          	14.363
MS.67          	15.05          	14.288
MS.68          	15.02          	14.284
MS.69          	14.99          	14.294
MS.70          	14.96          	14.264
MS.71          	14.93          	14.327
MS.72          	14.9           	14.178
MS.73          	14.87          	14.288
MS.74          	14.84          	14.182
MS.75          	14.81          	14.117
MS.76          	14.78          	14.18
MS.77          	14.752         	14.119
MS.78          	14.722         	14.041
MS.79          	14.693         	14.123
MS.80          	14.662         	13.952
MS.81          	14.635         	14.031
MS.82          	14.605         	13.93
MS.83          	14.575         	13.825
MS.84          	14.547         	13.872
MS.85          	14.517         	13.948
MS.86          	14.487         	13.803
MS.87          	14.46          	13.872
MS.88          	14.43          	13.872
MS.89          	14.403         	13.618
MS.90          	14.372         	13.628
MS.91          	14.345         	13.648
MS.92          	14.315         	13.644
MS.93          	14.287         	13.7
MS.94          	14.257         	13.644
MS.95          	14.23          	13.541
MS.96          	14.202         	13.666
MS.97          	14.172         	13.471
MS.98          	14.145         	13.414
MS.99          	14.117         	13.592
MS.100         	14.087         	13.326
MS.101         	14.06          	13.503
MS.102         	14.032         	13.297
MS.103         	14.005         	13.33
MS.104         	13.975         	13.249
MS.105         	13.947         	13.289
MS.106         	13.92          	13.618
MS.107         	13.892         	13.434
MS.108         	13.865         	13.38
MS.109         	13.837         	13.231
MS.110         	13.81          	13.33
MS.111         	13.782         	12.941
MS.112         	13.755         	13.189
MS.113         	13.727         	13.001
MS.114         	13.7           	13.088
MS.115         	13.672         	13.08
MS.116         	13.645         	12.814
MS.117         	13.617         	12.848
MS.118         	13.59          	12.832
MS.119         	13.562         	12.764
MS.120         	13.535         	12.973
MS.121         	13.51          	12.705
MS.122         	13.483         	12.846
MS.123         	13.455         	12.717
MS.124         	13.427         	12.635
MS.125         	13.403         	12.653
MS.126         	13.375         	12.508
MS.127         	13.347         	12.377
MS.128         	13.32          	12.462
MS.129         	13.295         	12.427
MS.130         	13.267         	12.369
MS.131         	13.242         	12.222
MS.132         	13.215         	12.22
MS.133         	13.188         	12.226
MS.134         	13.162         	12.212
MS.135         	13.135         	12.216
MS.136         	13.11          	12.113
MS.137         	13.082         	12.224
MS.138         	13.057         	12.192
MS.139         	13.032         	12.2
MS.140         	13.005         	12.113
MS.141         	12.98          	12.115
MS.142         	12.952         	12.057
MS.143         	12.927         	12.073
MS.144         	12.903         	12.196
MS.145         	12.875         	11.982
MS.146         	12.85          	11.851
MS.147         	12.825         	11.958
MS.148         	12.8           	11.882
MS.149         	12.773         	11.859
MS.150         	12.747         	11.795
MS.151         	12.722         	11.847
MS.152         	12.697         	11.946
MS.153         	12.672         	11.779
MS.154         	12.645         	11.64
MS.155         	12.62          	11.698
MS.156         	12.595         	11.779
MS.157         	12.57          	11.68
MS.158         	12.545         	11.702
MS.159         	12.52          	11.646
MS.160         	12.495         	11.517
MS.161         	12.47          	11.465
MS.162         	12.445         	11.553
MS.163         	12.42          	11.386
MS.164         	12.395         	11.023
MS.165         	12.37          	11.112
MS.166         	12.347         	11.106
MS.167         	12.322         	11.074
MS.168         	12.297         	11.007
MS.169         	12.273         	10.923
MS.170         	12.247         	10.963
MS.171         	12.222         	10.639
MS.172         	12.2           	10.538
MS.173         	12.175         	10.629
MS.174         	12.15          	10.48
MS.175         	12.125         	10.441
MS.176         	12.102         	10.113
MS.177         	12.077         	10.51
MS.178         	12.052         	9.896
MS.179         	12.03          	10.244
MS.180         	12.005         	10.401
MS.181         	11.983         	9.803
MS.182         	11.957         	9.412
MS.183         	11.932         	9.634
MS.184         	11.91          	9.656
MS.185         	11.885         	9.497
MS.186         	11.863         	9.485
MS.187         	11.837         	9.595
MS.188         	11.815         	9.217
MS.189         	11.79          	9.324
MS.190         	11.767         	9.322
MS.191         	11.745         	8.909
MS.192         	11.72          	9.12
MS.193         	11.697         	9.277
MS.194         	11.675         	9.072
MS.195         	11.65          	8.792
MS.196         	11.627         	8.383
MS.197         	11.605         	8.413
MS.198         	11.58          	8.884
MS.199         	11.557         	8.105
MS.200         	11.535         	7.952
MS.201         	11.512         	7.918
MS.202         	11.488         	8.026
MS.203         	11.465         	7.706
MS.204         	11.443         	7.666
MS.205         	11.42          	7.696
MS.206         	11.398         	7.493
MS.207         	11.375         	7.63
MS.208         	11.352         	7.374
MS.209         	11.33          	7.011
MS.210         	11.307         	7.386
MS.211         	11.282         	7.311
MS.212         	11.26          	7.315
MS.213         	11.238         	7.054
MS.214         	11.215         	7.086
MS.215         	11.195         	6.903
MS.216         	11.172         	6.909
MS.217         	11.15          	7.015
MS.218         	11.127         	6.713
MS.219         	11.105         	6.612
MS.220         	11.082         	6.77
MS.221         	11.06          	6.685
MS.222         	11.037         	6.707
MS.223         	11.015         	6.621
MS.224         	10.995         	6.469
MS.225         	10.972         	6.669
MS.226         	10.95          	6.232
MS.227         	10.927         	6.455
MS.228         	10.907         	6.121
MS.229         	10.885         	6.333
MS.230         	10.863         	6.051
MS.231         	10.84          	6.026
MS.232         	10.82          	6.002
MS.233         	10.797         	5.914
MS.234         	10.778         	5.773
MS.235         	10.755         	5.724
MS.236         	10.733         	5.893
MS.237         	10.712         	5.664
MS.238         	10.69          	5.491
MS.239         	10.67          	5.555
MS.240         	10.648         	5.295
MS.241         	10.627         	5.39
MS.242         	10.605         	5.269
MS.243         	10.585         	4.989
MS.244         	10.562         	4.965
MS.245         	10.542         	4.844
MS.246         	10.52          	4.822
MS.247         	10.5           	4.917
MS.248         	10.48          	5.06
MS.249         	10.457         	4.784
MS.250         	10.438         	4.635
MS.251         	10.415         	4.608
MS.252         	10.395         	4.405
MS.253         	10.375         	4.56
MS.254         	10.355         	4.6
MS.255         	10.332         	4.367
MS.256         	10.312         	4.467
MS.257         	10.292         	4.191
MS.258         	10.273         	3.926
MS.259         	10.25          	4.081
MS.260         	10.23          	3.873
MS.261         	10.21          	3.879
MS.262         	10.19          	3.777
MS.263         	10.17          	3.95
MS.264         	10.15          	3.672
MS.265         	10.127         	3.577
MS.266         	10.108         	3.283
MS.267         	10.087         	3.285
MS.268         	10.068         	3.331
MS.269         	10.047         	3.388
MS.270         	10.028         	2.896
MS.271         	10.007         	3.031
MS.272         	9.988          	3.235
MS.273         	9.967          	2.919
MS.274         	9.948          	3.088
MS.275         	9.927          	2.882
MS.276         	9.907          	2.917
MS.277         	9.887          	2.882
MS.278         	9.867          	2.659
MS.279         	9.85           	2.61
MS.280         	9.83           	2.58
MS.281         	9.81           	2.588
MS.282         	9.79           	2.546
MS.283         	9.77           	2.518
MS.284         	9.75           	2.369
MS.285         	9.733          	2.284
MS.286         	9.712          	2.228
MS.287         	9.693          	2.206
MS.288         	9.672          	2.165
MS.289         	9.655          	2.326
MS.290         	9.635          	2.179
MS.291         	9.615          	2.087
MS.292         	9.595          	2.085
MS.293         	9.577          	2.103
MS.294         	9.557          	2.197
MS.295         	9.537          	2.038
MS.296         	9.52           	1.988
MS.297         	9.5            	1.915
MS.298         	9.483          	1.714
MS.299         	9.462          	1.799
MS.300         	9.445          	1.686
MS.301         	9.425          	1.664
MS.302         	9.405          	1.853
MS.303         	9.387          	1.48
MS.304         	9.367          	1.668
MS.305         	9.35           	1.625
MS.306         	9.33           	1.718
MS.307         	9.312          	1.273
MS.308         	9.295          	1.354
MS.309         	9.275          	1.307
MS.310         	9.257          	1.384
MS.311         	9.238          	1.247
MS.312         	9.22           	1.128
MS.313         	9.202          	1.408
MS.314         	9.182          	1.09
MS.315         	9.165          	1.076
MS.316         	9.148          	1.001
MS.317         	9.127          	0.862
MS.318         	9.11           	0.88
MS.319         	9.092          	1.098
MS.320         	9.073          	0.935
MS.321         	9.055          	0.924
MS.322         	9.037          	0.876
MS.323         	9.02           	0.91
MS.324         	9              	0.806
MS.325         	8.983          	0.643
MS.326         	8.965          	0.727
MS.327         	8.948          	0.745
MS.328         	8.93           	0.703
MS.329         	8.912          	0.604
MS.330         	8.895          	0.604
MS.331         	8.875          	0.645
MS.332         	8.858          	0.649
MS.333         	8.84           	0.604
MS.334         	8.823          	0.63
MS.335         	8.805          	0.643
MS.336         	8.787          	0.651
MS.337         	8.77           	0.57
MS.338         	8.752          	0.558
MS.339         	8.735          	0.594
MS.340         	8.717          	0.657
MS.341         	8.7            	0.636
MS.342         	8.682          	0.578
MS.343         	8.665          	0.594
MS.344         	8.648          	0.524
MS.345         	8.63           	0.477
MS.346         	8.613          	0.594
MS.347         	8.597          	0.574
MS.348         	8.58           	0.506
MS.349         	8.562          	0.54
MS.350         	8.545          	0.508
MS.351         	8.528          	0.473
MS.352         	8.51           	0.417
MS.353         	8.495          	0.562
MS.354         	8.477          	0.548
MS.355         	8.46           	0.52
MS.356         	8.443          	0.387
MS.357         	8.427          	0.467
MS.358         	8.41           	0.463
MS.359         	8.392          	0.5
MS.360         	8.375          	0.451
MS.361         	8.36           	0.405
MS.362         	8.342          	0.361
MS.363         	8.325          	0.397
MS.364         	8.31           	0.407
MS.365         	8.292          	0.35
MS.366         	8.275          	0.348
MS.367         	8.26           	0.363
MS.368         	8.242          	0.391
MS.369         	8.227          	0.302
MS.370         	8.21           	0.31
MS.371         	8.193          	0.288
MS.372         	8.177          	0.338
MS.373         	8.16           	0.308
MS.374         	8.145          	0.302
MS.375         	8.127          	0.334
MS.376         	8.113          	0.26
MS.377         	8.095          	0.298
MS.378         	8.08           	0.246
MS.379         	8.062          	0.28
MS.380         	8.047          	0.26
MS.381         	8.033          	0.25
MS.382         	8.015          	0.264
MS.383         	8              	0.262
MS.384         	7.982          	0.155
MS.385         	7.967          	0.203
MS.386         	7.952          	0.22
MS.387         	7.935          	0.149
MS.388         	7.92           	0.23
MS.389         	7.905          	0.159
MS.390         	7.887          	0.199
MS.391         	7.872          	0.201
MS.392         	7.857          	0.199
MS.393         	7.84           	0.151
MS.394         	7.825          	0.153
MS.395         	7.81           	0.205
MS.396         	7.795          	0.201
MS.397         	7.777          	0.197
MS.398         	7.762          	0.248
MS.399         	7.747          	0.199
MS.400         	7.732          	0.157
MS.401         	7.717          	0.199
MS.402         	7.7            	0.201
MS.403         	7.685          	0.155
MS.404         	7.67           	0.153
MS.405         	7.655          	0.203
MS.406         	7.64           	0.157
MS.407         	7.625          	0.157
MS.408         	7.61           	0.159
MS.409         	7.595          	0.157
MS.410         	7.58           	0.157
MS.411         	7.562          	0.153
MS.412         	7.547          	0.153
MS.413         	7.532          	0.151
MS.414         	7.517          	0.153
MS.415         	7.503          	0.157
MS.416         	7.487          	0.095
MS.417         	7.472          	0.153
MS.418         	7.457          	0.155
MS.419         	7.442          	0.151
MS.420         	7.427          	0.089
MS.421         	7.415          	0.091
MS.422         	7.4            	0.153
MS.423         	7.385          	0.155
MS.424         	7.37           	0.093
MS.425         	7.355          	0.153
MS.426         	7.34           	0.093
MS.427         	7.325          	0.091
MS.428         	7.31           	0.093
MS.429         	7.295          	0.091
MS.430         	7.282          	0.093
MS.431         	7.267          	0.091
MS.432         	7.253          	0.091
MS.433         	7.237          	0.091
MS.434         	7.222          	0.151
MS.435         	7.21           	0.149
MS.436         	7.195          	0.091
MS.437         	7.18           	0.149
MS.438         	7.165          	0.095
MS.439         	7.152          	0.091
MS.440         	7.137          	0.093
MS.441         	7.122          	0.091
MS.442         	7.11           	0.091
MS.443         	7.095          	0.151
MS.444         	7.08           	0.093
MS.445         	7.067          	0.093
MS.446         	7.052          	0.093
MS.447         	7.037          	0.093
MS.448         	7.025          	0.091
MS.449         	7.01           	0.089
MS.450         	6.995          	0.091
MS.451         	6.983          	0.089
MS.452         	6.967          	0.093
MS.453         	6.955          	0.093
MS.454         	6.94           	0.091
MS.455         	6.927          	0.089
MS.456         	6.912          	0.091
MS.457         	6.9            	0.091
MS.458         	6.885          	0.089
MS.459         	6.872          	0.089
MS.460         	6.858          	0.091
MS.461         	6.845          	0.093
MS.462         	6.83           	0.093
MS.463         	6.817          	0.093
MS.464         	6.802          	0.089
MS.465         	6.79           	0.091
MS.466         	6.775          	0.093
MS.467         	6.762          	0.089
MS.468         	6.747          	0.089
MS.469         	6.735          	0.091
MS.470         	6.722          	0.093
MS.471         	6.707          	0.091
MS.472         	6.695          	0.089
MS.473         	6.682          	0.093
MS.474         	6.668          	0.093
MS.475         	6.655          	0.091
MS.476         	6.642          	0.091
MS.477         	6.628          	0.089
MS.478         	6.615          	0.093
MS.479         	6.602          	0.095
MS.480         	6.587          	0.095
MS.481         	6.575          	0.091
MS.482         	6.562          	0.091
MS.483         	6.55           	0.093
MS.484         	6.535          	0.093
MS.485         	6.523          	0.091
MS.486         	6.51           	0.091
MS.487         	6.497          	0.091
DERIVED EXCITABILITY VARIABLES
Program = QTracP 9/10/2021
Threshold method = 6 (optimised for CAP, using data for present condition only)
SR method = 1 (using actual data values)
6.                 	0.000               	Peak response\(mV)
9.                 	31                  	Temperature ( C)
17.                	26                  	Age (years)
18.                	2                   	Sex (M=1, F=2)

EXTRA VARIABLES

MScPeak(mV) = 14.84
MScS5(mA) = 8.96
MScS50(mA) = 11.36
MScS95(mA) = 14.71
MScNSteps = 0
MScSteps(%) = 0.0
MScStepMax(%) = 0.0
MScD50 = 53
MScSlope = 5.05
MScDuration(min) = 4.4
MSFTraces = 478
MSFPeakAmp(mV) = 14.9
MSFNUnits = 178
MSFMeanUnitAmp(uV) = 83.5
MSFHuntTime(m) = 2.87
MSFError(%) = 3.67
MSFNLarge = 57.63
MSFMedianAmp(%) = 0.483
MSFMedianAmp(mV) = 0.0717
MSFHalfAmpAmp(%) = 0.569
MSFHalfAmpAmp(mV) = 0.0846
MSFLargestAmp(%) = 1.91
MSFLargestAmp(mV) = 0.284
MSFMeanRS(%) = 2
MSFSizeLimit(uV) = 37.2
MSFLimitType = 1
MSFSmallestAmp(uV) = 37.6
MSFOpts = 10106121

EXTRA WAVEFORMS


!MScan Model
!178
	1	7.29	0.41	2
	2	7.95	0.37	2
	3	8.1	0.46	2
	4	8.18	0.27	2
	5	8.28	0.31	2
	6	8.4	0.59	2
	7	8.41	0.47	2
	8	8.81	0.63	2
	9	8.94	0.63	2
	10	8.96	0.32	2
	11	9.03	0.6	2
	12	9.09	0.57	2
	13	9.13	0.76	2
	14	9.17	0.52	2
	15	9.2	0.42	2
	16	9.24	0.56	2
	17	9.27	0.71	2
	18	9.31	0.49	2
	19	9.36	0.75	2
	20	9.4	0.87	2
	21	9.45	0.77	2
	22	9.48	0.43	2
	23	9.51	0.44	2
	24	9.55	0.68	2
	25	9.6	0.7	2
	26	9.66	0.54	2
	27	9.69	0.47	2
	28	9.72	0.41	2
	29	9.74	0.29	2
	30	9.76	0.3	2
	31	9.78	0.32	2
	32	9.8	0.36	2
	33	9.82	0.53	2
	34	9.85	0.65	2
	35	9.89	0.6	2
	36	9.93	0.71	2
	37	9.97	0.87	2
	38	10.01	0.83	2
	39	10.04	0.57	2
	40	10.06	0.45	2
	41	10.08	0.52	2
	42	10.1	0.56	2
	43	10.12	0.44	2
	44	10.13	0.4	2
	45	10.15	0.4	2
	46	10.16	0.37	2
	47	10.18	0.37	2
	48	10.19	0.39	2
	49	10.21	0.45	2
	50	10.22	0.45	2
	51	10.24	0.46	2
	52	10.25	0.42	2
	53	10.27	0.29	2
	54	10.28	0.33	2
	55	10.3	0.37	2
	56	10.32	0.55	2
	57	10.37	1.13	2
	58	10.41	1.06	2
	59	10.45	0.65	2
	60	10.47	0.51	2
	61	10.5	0.53	2
	62	10.53	0.5	2
	63	10.54	0.43	2
	64	10.56	0.56	2
	65	10.58	0.49	2
	66	10.6	0.49	2
	67	10.62	0.3	2
	68	10.63	0.29	2
	69	10.64	0.29	2
	70	10.65	0.28	2
	71	10.67	0.5	2
	72	10.69	0.27	2
	73	10.7	0.27	2
	74	10.71	0.27	2
	75	10.72	0.27	2
	76	10.73	0.27	2
	77	10.75	0.47	2
	78	10.77	0.47	2
	79	10.79	0.54	2
	80	10.81	0.48	2
	81	10.83	0.43	2
	82	10.85	0.42	2
	83	10.87	0.4	2
	84	10.89	0.37	2
	85	10.91	0.37	2
	86	10.93	0.39	2
	87	10.95	0.39	2
	88	10.98	0.7	2
	89	11.03	0.65	2
	90	11.05	0.43	2
	91	11.07	0.34	2
	92	11.1	0.4	2
	93	11.12	0.44	2
	94	11.14	0.41	2
	95	11.16	0.39	2
	96	11.19	0.52	2
	97	11.23	0.51	2
	98	11.26	0.61	2
	99	11.3	0.68	2
	100	11.34	0.72	2
	101	11.37	0.74	2
	102	11.41	0.68	2
	103	11.43	0.68	2
	104	11.46	0.85	2
	105	11.49	0.82	2
	106	11.51	0.78	2
	107	11.54	0.8	2
	108	11.57	0.87	2
	109	11.59	0.88	2
	110	11.62	0.92	2
	111	11.67	1.68	2
	112	11.73	1.68	2
	113	11.8	1.79	2
	114	11.87	1.39	2
	115	11.93	1.02	2
	116	11.97	1.19	2
	117	12.02	1.05	2
	118	12.07	1.05	2
	119	12.11	1.02	2
	120	12.13	0.53	2
	121	12.15	0.44	2
	122	12.17	0.44	2
	123	12.19	0.49	2
	124	12.21	0.43	2
	125	12.23	0.39	2
	126	12.24	0.39	2
	127	12.26	0.35	2
	128	12.28	0.35	2
	129	12.29	0.37	2
	130	12.31	0.35	2
	131	12.33	0.34	2
	132	12.34	0.34	2
	133	12.36	0.36	2
	134	12.38	0.34	2
	135	12.4	0.33	2
	136	12.42	0.33	2
	137	12.43	0.32	2
	138	12.46	0.55	2
	139	12.52	0.98	2
	140	12.58	0.67	2
	141	12.68	0.77	2
	142	12.75	0.45	2
	143	12.82	0.62	2
	144	12.89	0.46	2
	145	12.96	0.46	2
	146	13.05	0.51	2
	147	13.15	0.49	2
	148	13.19	0.25	2
	149	13.26	0.62	2
	150	13.31	0.42	2
	151	13.33	0.26	2
	152	13.35	0.31	2
	153	13.37	0.31	2
	154	13.42	0.56	2
	155	13.47	0.41	2
	156	13.56	0.96	2
	157	13.66	0.9	2
	158	13.72	0.64	2
	159	13.96	1.91	2
	160	14.12	0.86	2
	161	14.21	0.54	2
	162	14.28	0.43	2
	163	14.34	0.49	2
	164	14.42	0.44	2
	165	14.49	0.47	2
	166	14.56	0.56	2
	167	14.61	0.55	2
	168	14.73	0.53	2
	169	14.76	0.27	2
	170	14.8	0.29	2
	171	14.89	0.45	2
	172	15	0.53	2
	173	15.18	0.5	2
	174	15.43	0.61	2
	175	15.53	0.39	2
	176	15.67	0.46	2
	177	16.01	1.39	2
	178	16.3	0.71	2

