File:              	C:\Qtrac\Data\Daniel M Sørensen\MScan multicentre study\Data from centres\Aarhus\Processed data\DMSC00911A.QZD
Name:              	DK.AAR.NC.7.2
Protocol:          	MSCAN-R2
Date:              	11/9/20
Start time:        	13:18:48
Age:               	65
Sex:               	m
Temperature:       	34.7
S/R sites:         	APB
NC/disease:        	NC
Operator:          	DS
Comments:
M-SCAN DATA (5.5-2m)
Scanpts: 44, 50, 431, 431
Stim. (mA)     	Amp. (mV)
MS.1           	18             	6.083
MS.2           	18             	6.077
MS.3           	18             	6.073
MS.4           	18             	6.073
MS.5           	18             	6.075
MS.6           	18             	6.081
MS.7           	18             	6.081
MS.8           	18             	6.083
MS.9           	18             	6.085
MS.10          	18             	5.988
MS.11          	18             	6.097
MS.12          	18             	6.093
MS.13          	18             	6.103
MS.14          	18             	6
MS.15          	18             	5.99
MS.16          	18             	6.099
MS.17          	18             	5.994
MS.18          	18             	6.121
MS.19          	18             	6.111
MS.20          	18             	6.123
MS.21          	18             	6.123
MS.22          	18             	6.145
MS.23          	17.927         	6.123
MS.24          	17.892         	6.125
MS.25          	17.858         	6.127
MS.26          	17.82          	6.099
MS.27          	17.785         	6.127
MS.28          	17.75          	6.083
MS.29          	17.715         	6.123
MS.30          	17.68          	6.026
MS.31          	17.642         	6.032
MS.32          	17.608         	6.04
MS.33          	17.573         	5.994
MS.34          	17.538         	6.004
MS.35          	17.503         	6.002
MS.36          	17.467         	6.012
MS.37          	17.432         	6.016
MS.38          	17.397         	6.008
MS.39          	17.362         	6.006
MS.40          	17.33          	6.004
MS.41          	17.295         	6.036
MS.42          	17.26          	6.038
MS.43          	17.225         	6.002
MS.44          	17.19          	6.012
MS.45          	17.157         	6.006
MS.46          	17.122         	5.97
MS.47          	17.087         	6.01
MS.48          	17.052         	5.982
MS.49          	17.02          	5.861
MS.50          	16.985         	5.992
MS.51          	16.952         	5.988
MS.52          	16.917         	6.002
MS.53          	16.885         	6.028
MS.54          	16.85          	5.982
MS.55          	16.817         	5.922
MS.56          	16.782         	5.875
MS.57          	16.75          	5.982
MS.58          	16.715         	5.899
MS.59          	16.682         	5.871
MS.60          	16.65          	5.873
MS.61          	16.615         	5.577
MS.62          	16.583         	5.944
MS.63          	16.55          	5.897
MS.64          	16.517         	5.901
MS.65          	16.483         	5.899
MS.66          	16.45          	5.342
MS.67          	16.417         	5.547
MS.68          	16.385         	5.899
MS.69          	16.352         	5.899
MS.70          	16.32          	5.537
MS.71          	16.288         	5.333
MS.72          	16.255         	5.34
MS.73          	16.222         	5.15
MS.74          	16.19          	5.313
MS.75          	16.157         	5.477
MS.76          	16.125         	5.126
MS.77          	16.092         	5.307
MS.78          	16.06          	5.092
MS.79          	16.028         	5.313
MS.80          	15.997         	5.311
MS.81          	15.965         	5.283
MS.82          	15.932         	5.102
MS.83          	15.9           	5.092
MS.84          	15.87          	5.076
MS.85          	15.837         	4.939
MS.86          	15.805         	4.836
MS.87          	15.775         	4.983
MS.88          	15.742         	5.056
MS.89          	15.71          	4.894
MS.90          	15.68          	4.82
MS.91          	15.648         	5.009
MS.92          	15.617         	4.925
MS.93          	15.585         	4.81
MS.94          	15.555         	5.09
MS.95          	15.523         	4.725
MS.96          	15.492         	4.733
MS.97          	15.462         	4.761
MS.98          	15.43          	4.741
MS.99          	15.4           	4.657
MS.100         	15.37          	4.759
MS.101         	15.337         	4.633
MS.102         	15.307         	4.606
MS.103         	15.277         	4.608
MS.104         	15.247         	4.576
MS.105         	15.217         	4.711
MS.106         	15.185         	4.735
MS.107         	15.155         	4.6
MS.108         	15.125         	4.604
MS.109         	15.095         	4.477
MS.110         	15.065         	4.53
MS.111         	15.035         	4.473
MS.112         	15.005         	4.522
MS.113         	14.975         	4.534
MS.114         	14.945         	4.437
MS.115         	14.915         	4.566
MS.116         	14.885         	4.373
MS.117         	14.855         	4.371
MS.118         	14.825         	4.385
MS.119         	14.795         	4.443
MS.120         	14.767         	4.357
MS.121         	14.737         	4.336
MS.122         	14.707         	4.351
MS.123         	14.677         	4.202
MS.124         	14.65          	4.034
MS.125         	14.62          	4.314
MS.126         	14.59          	3.982
MS.127         	14.562         	4.018
MS.128         	14.532         	3.833
MS.129         	14.502         	4.034
MS.130         	14.475         	3.859
MS.131         	14.445         	4.03
MS.132         	14.417         	3.966
MS.133         	14.387         	3.998
MS.134         	14.36          	3.67
MS.135         	14.33          	3.779
MS.136         	14.302         	3.883
MS.137         	14.273         	3.676
MS.138         	14.245         	3.793
MS.139         	14.215         	3.698
MS.140         	14.188         	3.603
MS.141         	14.16          	3.575
MS.142         	14.13          	3.726
MS.143         	14.102         	3.628
MS.144         	14.075         	3.65
MS.145         	14.047         	3.515
MS.146         	14.017         	3.525
MS.147         	13.99          	3.573
MS.148         	13.962         	3.511
MS.149         	13.935         	3.501
MS.150         	13.907         	3.64
MS.151         	13.88          	3.505
MS.152         	13.85          	3.446
MS.153         	13.822         	3.507
MS.154         	13.795         	3.422
MS.155         	13.767         	3.253
MS.156         	13.74          	3.362
MS.157         	13.712         	3.35
MS.158         	13.685         	3.249
MS.159         	13.657         	3.277
MS.160         	13.632         	3.132
MS.161         	13.605         	3.15
MS.162         	13.577         	3.213
MS.163         	13.55          	3.239
MS.164         	13.523         	3.112
MS.165         	13.495         	2.993
MS.166         	13.467         	3.084
MS.167         	13.443         	3.021
MS.168         	13.415         	2.997
MS.169         	13.387         	2.923
MS.170         	13.362         	3.031
MS.171         	13.335         	2.731
MS.172         	13.307         	2.88
MS.173         	13.282         	2.755
MS.174         	13.255         	2.697
MS.175         	13.227         	2.751
MS.176         	13.202         	2.725
MS.177         	13.175         	2.616
MS.178         	13.15          	2.526
MS.179         	13.122         	2.628
MS.180         	13.097         	2.532
MS.181         	13.07          	2.608
MS.182         	13.045         	2.403
MS.183         	13.017         	2.471
MS.184         	12.992         	2.427
MS.185         	12.967         	2.409
MS.186         	12.94          	2.389
MS.187         	12.915         	2.308
MS.188         	12.89          	2.294
MS.189         	12.862         	2.248
MS.190         	12.837         	2.218
MS.191         	12.812         	2.32
MS.192         	12.785         	2.236
MS.193         	12.76          	1.994
MS.194         	12.735         	2.224
MS.195         	12.71          	2.171
MS.196         	12.685         	2.101
MS.197         	12.66          	1.996
MS.198         	12.632         	1.903
MS.199         	12.608         	1.974
MS.200         	12.582         	1.903
MS.201         	12.557         	1.835
MS.202         	12.532         	1.805
MS.203         	12.507         	1.895
MS.204         	12.483         	1.738
MS.205         	12.457         	1.783
MS.206         	12.432         	1.732
MS.207         	12.407         	1.654
MS.208         	12.382         	1.428
MS.209         	12.36          	1.696
MS.210         	12.335         	1.644
MS.211         	12.31          	1.428
MS.212         	12.285         	1.535
MS.213         	12.26          	1.555
MS.214         	12.235         	1.227
MS.215         	12.212         	1.607
MS.216         	12.188         	1.317
MS.217         	12.162         	1.539
MS.218         	12.137         	1.13
MS.219         	12.115         	1.092
MS.220         	12.09          	1.166
MS.221         	12.065         	1.374
MS.222         	12.042         	1.094
MS.223         	12.017         	0.979
MS.224         	11.992         	0.671
MS.225         	11.97          	0.757
MS.226         	11.945         	0.771
MS.227         	11.922         	0.651
MS.228         	11.898         	0.671
MS.229         	11.875         	0.58
MS.230         	11.85          	0.63
MS.231         	11.827         	0.564
MS.232         	11.802         	0.679
MS.233         	11.78          	0.548
MS.234         	11.755         	0.483
MS.235         	11.733         	0.453
MS.236         	11.71          	0.524
MS.237         	11.685         	0.524
MS.238         	11.662         	0.437
MS.239         	11.64          	0.409
MS.240         	11.615         	0.403
MS.241         	11.592         	0.451
MS.242         	11.57          	0.407
MS.243         	11.547         	0.395
MS.244         	11.523         	0.399
MS.245         	11.5           	0.363
MS.246         	11.477         	0.34
MS.247         	11.455         	0.451
MS.248         	11.432         	0.367
MS.249         	11.407         	0.35
MS.250         	11.385         	0.387
MS.251         	11.363         	0.365
MS.252         	11.34          	0.367
MS.253         	11.318         	0.361
MS.254         	11.295         	0.318
MS.255         	11.273         	0.34
MS.256         	11.25          	0.332
MS.257         	11.227         	0.328
MS.258         	11.205         	0.34
MS.259         	11.182         	0.328
MS.260         	11.16          	0.342
MS.261         	11.137         	0.314
MS.262         	11.115         	0.336
MS.263         	11.092         	0.31
MS.264         	11.073         	0.272
MS.265         	11.05          	0.292
MS.266         	11.028         	0.276
MS.267         	11.005         	0.282
MS.268         	10.983         	0.28
MS.269         	10.962         	0.274
MS.270         	10.94          	0.264
MS.271         	10.917         	0.284
MS.272         	10.895         	0.274
MS.273         	10.875         	0.274
MS.274         	10.852         	0.27
MS.275         	10.83          	0.262
MS.276         	10.81          	0.26
MS.277         	10.787         	0.262
MS.278         	10.765         	0.262
MS.279         	10.745         	0.262
MS.280         	10.722         	0.274
MS.281         	10.702         	0.262
MS.282         	10.68          	0.27
MS.283         	10.657         	0.268
MS.284         	10.637         	0.203
MS.285         	10.615         	0.262
MS.286         	10.595         	0.264
MS.287         	10.573         	0.26
MS.288         	10.552         	0.222
MS.289         	10.532         	0.205
MS.290         	10.51          	0.203
MS.291         	10.49          	0.211
MS.292         	10.467         	0.258
MS.293         	10.448         	0.207
MS.294         	10.427         	0.209
MS.295         	10.405         	0.256
MS.296         	10.385         	0.207
MS.297         	10.365         	0.205
MS.298         	10.342         	0.211
MS.299         	10.323         	0.203
MS.300         	10.302         	0.203
MS.301         	10.282         	0.179
MS.302         	10.26          	0.179
MS.303         	10.24          	0.177
MS.304         	10.22          	0.209
MS.305         	10.2           	0.181
MS.306         	10.18          	0.179
MS.307         	10.16          	0.209
MS.308         	10.14          	0.207
MS.309         	10.117         	0.209
MS.310         	10.097         	0.181
MS.311         	10.077         	0.183
MS.312         	10.057         	0.183
MS.313         	10.037         	0.185
MS.314         	10.017         	0.179
MS.315         	9.997          	0.181
MS.316         	9.977          	0.183
MS.317         	9.957          	0.185
MS.318         	9.938          	0.207
MS.319         	9.917          	0.187
MS.320         	9.898          	0.165
MS.321         	9.877          	0.209
MS.322         	9.86           	0.211
MS.323         	9.84           	0.165
MS.324         	9.82           	0.181
MS.325         	9.8            	0.167
MS.326         	9.78           	0.183
MS.327         	9.76           	0.163
MS.328         	9.74           	0.165
MS.329         	9.722          	0.183
MS.330         	9.702          	0.165
MS.331         	9.682          	0.165
MS.332         	9.662          	0.163
MS.333         	9.645          	0.163
MS.334         	9.625          	0.165
MS.335         	9.605          	0.167
MS.336         	9.587          	0.163
MS.337         	9.568          	0.165
MS.338         	9.547          	0.165
MS.339         	9.53           	0.165
MS.340         	9.51           	0.167
MS.341         	9.49           	0.169
MS.342         	9.472          	0.167
MS.343         	9.452          	0.165
MS.344         	9.435          	0.167
MS.345         	9.415          	0.165
MS.346         	9.398          	0.169
MS.347         	9.377          	0.167
MS.348         	9.36           	0.167
MS.349         	9.34           	0.163
MS.350         	9.323          	0.167
MS.351         	9.302          	0.165
MS.352         	9.285          	0.167
MS.353         	9.265          	0.169
MS.354         	9.247          	0.167
MS.355         	9.23           	0.163
MS.356         	9.21           	0.105
MS.357         	9.193          	0.169
MS.358         	9.175          	0.169
MS.359         	9.155          	0.105
MS.360         	9.137          	0.107
MS.361         	9.12           	0.167
MS.362         	9.1            	0.165
MS.363         	9.082          	0.107
MS.364         	9.065          	0.107
MS.365         	9.047          	0.159
MS.366         	9.028          	0.105
MS.367         	9.01           	0.165
MS.368         	8.992          	0.107
MS.369         	8.975          	0.103
MS.370         	8.957          	0.103
MS.371         	8.938          	0.107
MS.372         	8.92           	0.105
MS.373         	8.903          	0.109
MS.374         	8.885          	0.101
MS.375         	8.867          	0.101
MS.376         	8.85           	0.101
MS.377         	8.832          	0.103
MS.378         	8.815          	0.095
MS.379         	8.797          	0.101
MS.380         	8.78           	0.107
MS.381         	8.762          	0.103
MS.382         	8.745          	0.105
MS.383         	8.727          	0.101
MS.384         	8.71           	0.036
MS.385         	8.693          	0.099
MS.386         	8.675          	0.036
MS.387         	8.658          	0.036
MS.388         	8.64           	0.034
MS.389         	8.622          	0.036
MS.390         	8.605          	0.034
MS.391         	8.587          	0.034
MS.392         	8.57           	0.036
MS.393         	8.552          	0.034
MS.394         	8.537          	0.036
MS.395         	8.52           	0.034
MS.396         	8.502          	0.038
MS.397         	8.485          	0.036
MS.398         	8.467          	0.036
MS.399         	8.452          	0.036
MS.400         	8.435          	0.03
MS.401         	8.417          	0.034
MS.402         	8.4            	0.036
MS.403         	8.385          	0.103
MS.404         	8.367          	0.036
MS.405         	8.35           	0.036
MS.406         	8.335          	0.034
MS.407         	8.318          	0.038
MS.408         	8.3            	0.04
MS.409         	8.285          	0.038
MS.410         	8.267          	0.04
MS.411         	8.252          	0.036
MS.412         	8.235          	0.038
MS.413         	8.217          	0.038
MS.414         	8.202          	0.042
MS.415         	8.185          	0.038
MS.416         	8.17           	0.04
MS.417         	8.153          	0.038
MS.418         	8.137          	0.036
MS.419         	8.12           	0.036
MS.420         	8.105          	0.036
MS.421         	8.087          	0.044
MS.422         	8.073          	0.038
MS.423         	8.055          	0.038
MS.424         	8.04           	0.038
MS.425         	8.023          	0.036
MS.426         	8.007          	0.038
MS.427         	7.992          	0.038
MS.428         	7.975          	0.036
MS.429         	7.96           	0.038
MS.430         	7.942          	0.038
MS.431         	7.927          	0.036
DERIVED EXCITABILITY VARIABLES
Program = QTracP 9/10/2021
Threshold method = 6 (optimised for CAP, using data for present condition only)
SR method = 1 (using actual data values)
6.                 	0.000               	Peak response\(mV)
9.                 	34.7                	Temperature ( C)
17.                	65                  	Age (years)
18.                	1                   	Sex (M=1, F=2)

EXTRA VARIABLES

MScPeak(mV) = 6.04
MScS5(mA) = 11.09
MScS50(mA) = 13.43
MScS95(mA) = 16.49
MScNSteps = 5
MScSteps(%) = 14.7
MScStepMax(%) = 4.7
MScD50 = 35
MScSlope = 4.9
MScDuration(min) = 3.5
MSFTraces = 388
MSFPeakAmp(mV) = 5.93
MSFNUnits = 127
MSFMeanUnitAmp(uV) = 46.7
MSFHuntTime(m) = 1.95
MSFError(%) = 3.33
MSFNLarge = 29.81
MSFMedianAmp(%) = 0.553
MSFMedianAmp(mV) = 0.0328
MSFHalfAmpAmp(%) = 1.02
MSFHalfAmpAmp(mV) = 0.0603
MSFLargestAmp(%) = 6.05
MSFLargestAmp(mV) = 0.359
MSFMeanRS(%) = 2
MSFSizeLimit(uV) = 14.8
MSFLimitType = 1
MSFSmallestAmp(uV) = 16.8
MSFOpts = 10106121

EXTRA WAVEFORMS


!MScan Model
!127
	1	8.75	0.5	2
	2	8.97	0.69	2
	3	9.22	0.59	2
	4	9.76	0.43	2
	5	10.36	0.52	2
	6	10.55	0.53	2
	7	10.83	0.55	2
	8	10.97	0.28	2
	9	11.12	0.41	2
	10	11.24	0.43	2
	11	11.4	0.61	2
	12	11.5	0.48	2
	13	11.59	0.57	2
	14	11.65	0.65	2
	15	11.78	0.98	2
	16	11.82	0.43	2
	17	11.82	0.29	2
	18	11.88	2.17	2
	19	11.92	0.6	2
	20	11.95	0.71	2
	21	11.96	1.15	2
	22	11.99	1.12	2
	23	12.02	1	2
	24	12.06	1.43	2
	25	12.06	0.29	2
	26	12.1	1.18	2
	27	12.15	1.63	2
	28	12.22	2.8	2
	29	12.29	1.89	2
	30	12.37	2	2
	31	12.4	0.76	2
	32	12.43	0.58	2
	33	12.46	0.57	2
	34	12.49	0.66	2
	35	12.52	0.66	2
	36	12.54	0.57	2
	37	12.56	0.45	2
	38	12.58	0.51	2
	39	12.6	0.49	2
	40	12.62	0.46	2
	41	12.63	0.42	2
	42	12.65	0.38	2
	43	12.67	0.39	2
	44	12.68	0.39	2
	45	12.7	0.33	2
	46	12.72	0.32	2
	47	12.73	0.32	2
	48	12.75	0.39	2
	49	12.77	0.38	2
	50	12.78	0.38	2
	51	12.81	0.62	2
	52	12.84	0.73	2
	53	12.87	0.6	2
	54	12.9	0.47	2
	55	12.91	0.32	2
	56	12.93	0.31	2
	57	12.95	0.33	2
	58	12.96	0.37	2
	59	12.98	0.38	2
	60	13	0.36	2
	61	13.01	0.31	2
	62	13.03	0.32	2
	63	13.05	0.32	2
	64	13.06	0.33	2
	65	13.08	0.35	2
	66	13.1	0.36	2
	67	13.12	0.42	2
	68	13.13	0.39	2
	69	13.15	0.38	2
	70	13.17	0.41	2
	71	13.19	0.42	2
	72	13.21	0.41	2
	73	13.23	0.37	2
	74	13.24	0.4	2
	75	13.26	0.42	2
	76	13.28	0.44	2
	77	13.3	0.44	2
	78	13.32	0.47	2
	79	13.34	0.47	2
	80	13.36	0.41	2
	81	13.38	0.36	2
	82	13.4	0.41	2
	83	13.42	0.48	2
	84	13.45	0.6	2
	85	13.48	0.63	2
	86	13.51	0.67	2
	87	13.54	0.6	2
	88	13.57	0.55	2
	89	13.59	0.54	2
	90	13.62	0.55	2
	91	13.65	0.54	2
	92	13.68	0.51	2
	93	13.71	0.58	2
	94	13.74	0.62	2
	95	13.77	0.42	2
	96	13.81	0.43	2
	97	13.84	0.54	2
	98	13.9	0.93	2
	99	13.97	0.91	2
	100	14.09	1.51	2
	101	14.14	0.56	2
	102	14.2	0.91	2
	103	14.26	0.92	2
	104	14.35	1.26	2
	105	14.41	0.98	2
	106	14.47	1.38	2
	107	14.53	1.2	2
	108	14.59	1.18	2
	109	14.64	1.09	2
	110	14.7	1.17	2
	111	14.76	0.6	2
	112	14.82	1.03	2
	113	14.89	1.53	2
	114	14.97	1.07	2
	115	15.07	0.77	2
	116	15.17	1.02	2
	117	15.31	1.5	2
	118	15.45	1.61	2
	119	15.58	1.07	2
	120	15.67	1.47	2
	121	15.76	1.41	2
	122	15.85	0.88	2
	123	15.97	1.75	2
	124	16.11	2.39	2
	125	16.26	2.41	2
	126	16.4	6.05	2
	127	16.76	1.74	2

