File:              	C:\Qtrac\Data\Daniel M Sørensen\MScan multicentre study\Data from centres\Aarhus\Processed data\DMSB91126C.QZD
Name:              	DK.AAR.NC.6.1
Protocol:          	MSCAN-R2
Date:              	26/11/19
Start time:        	15:41:25
Age:               	66
Sex:               	f
Temperature:       	33,2
S/R sites:         	TA
NC/disease:        	Control
Operator:          	DS
Comments:
M-SCAN DATA (13.6-7.4m)
Scanpts: 8, 14, 534, 550
Stim. (mA)     	Amp. (mV)
MS.1           	40             	5.783
MS.2           	40             	5.777
MS.3           	40             	5.787
MS.4           	40             	5.781
MS.5           	40             	5.771
MS.6           	40             	5.76
MS.7           	40             	5.775
MS.8           	40             	5.74
MS.9           	40             	5.769
MS.10          	40             	5.76
MS.11          	40             	5.744
MS.12          	40             	5.754
MS.13          	40             	5.76
MS.14          	40             	5.758
MS.15          	40             	5.754
MS.16          	40             	5.748
MS.17          	40             	5.738
MS.18          	40             	5.763
MS.19          	40             	5.746
MS.20          	40             	5.773
MS.21          	40             	5.773
MS.22          	40             	5.763
MS.23          	40             	5.76
MS.24          	39.84          	5.773
MS.25          	39.76          	5.738
MS.26          	39.68          	5.758
MS.27          	39.603         	5.746
MS.28          	39.522         	5.76
MS.29          	39.442         	5.736
MS.30          	39.365         	5.748
MS.31          	39.287         	5.775
MS.32          	39.208         	5.716
MS.33          	39.13          	5.724
MS.34          	39.052         	5.734
MS.35          	38.972         	5.722
MS.36          	38.895         	5.748
MS.37          	38.817         	5.708
MS.38          	38.74          	5.694
MS.39          	38.662         	5.706
MS.40          	38.585         	5.722
MS.41          	38.507         	5.722
MS.42          	38.432         	5.716
MS.43          	38.355         	5.543
MS.44          	38.278         	5.694
MS.45          	38.202         	5.71
MS.46          	38.125         	5.646
MS.47          	38.05          	5.69
MS.48          	37.972         	5.479
MS.49          	37.897         	5.632
MS.50          	37.822         	5.64
MS.51          	37.745         	5.452
MS.52          	37.67          	5.686
MS.53          	37.595         	5.611
MS.54          	37.52          	5.468
MS.55          	37.445         	5.624
MS.56          	37.37          	5.456
MS.57          	37.295         	5.46
MS.58          	37.22          	5.454
MS.59          	37.147         	5.458
MS.60          	37.072         	5.46
MS.61          	36.997         	5.442
MS.62          	36.925         	5.468
MS.63          	36.85          	5.456
MS.64          	36.778         	5.46
MS.65          	36.702         	5.468
MS.66          	36.63          	5.438
MS.67          	36.557         	5.428
MS.68          	36.485         	5.45
MS.69          	36.41          	5.422
MS.70          	36.337         	5.432
MS.71          	36.265         	5.438
MS.72          	36.193         	5.47
MS.73          	36.12          	5.44
MS.74          	36.05          	5.259
MS.75          	35.978         	5.422
MS.76          	35.905         	5.404
MS.77          	35.833         	5.43
MS.78          	35.763         	5.42
MS.79          	35.69          	5.426
MS.80          	35.62          	5.438
MS.81          	35.548         	5.267
MS.82          	35.478         	5.235
MS.83          	35.405         	5.245
MS.84          	35.335         	5.257
MS.85          	35.265         	5.225
MS.86          	35.195         	5.207
MS.87          	35.122         	5.211
MS.88          	35.052         	5.211
MS.89          	34.982         	5.406
MS.90          	34.912         	5.207
MS.91          	34.845         	5.184
MS.92          	34.775         	5.193
MS.93          	34.705         	5.199
MS.94          	34.635         	5.118
MS.95          	34.565         	5.106
MS.96          	34.497         	5.07
MS.97          	34.427         	5.162
MS.98          	34.36          	5.122
MS.99          	34.29          	5.108
MS.100         	34.222         	5.146
MS.101         	34.155         	5.12
MS.102         	34.085         	5.11
MS.103         	34.017         	5.092
MS.104         	33.95          	5.031
MS.105         	33.882         	5.045
MS.106         	33.815         	5.06
MS.107         	33.747         	5.078
MS.108         	33.68          	5.056
MS.109         	33.612         	5.066
MS.110         	33.545         	5.035
MS.111         	33.478         	4.985
MS.112         	33.41          	4.987
MS.113         	33.345         	5.013
MS.114         	33.278         	4.989
MS.115         	33.21          	4.983
MS.116         	33.145         	4.945
MS.117         	33.077         	4.955
MS.118         	33.013         	4.957
MS.119         	32.945         	4.951
MS.120         	32.88          	4.896
MS.121         	32.815         	4.969
MS.122         	32.75          	4.935
MS.123         	32.682         	4.89
MS.124         	32.618         	4.941
MS.125         	32.552         	4.83
MS.126         	32.487         	4.85
MS.127         	32.423         	4.888
MS.128         	32.357         	4.8
MS.129         	32.295         	4.842
MS.130         	32.23          	4.822
MS.131         	32.165         	4.82
MS.132         	32.1           	4.804
MS.133         	32.037         	4.745
MS.134         	31.972         	4.826
MS.135         	31.907         	4.782
MS.136         	31.845         	4.78
MS.137         	31.78          	4.802
MS.138         	31.717         	4.711
MS.139         	31.655         	4.733
MS.140         	31.59          	4.733
MS.141         	31.528         	4.755
MS.142         	31.465         	4.661
MS.143         	31.403         	4.467
MS.144         	31.34          	4.465
MS.145         	31.278         	4.743
MS.146         	31.215         	4.659
MS.147         	31.153         	4.574
MS.148         	31.09          	4.596
MS.149         	31.028         	4.216
MS.150         	30.965         	4.222
MS.151         	30.903         	4.582
MS.152         	30.842         	4.554
MS.153         	30.78          	4.195
MS.154         	30.72          	4.359
MS.155         	30.657         	4.492
MS.156         	30.595         	4.141
MS.157         	30.535         	4.157
MS.158         	30.475         	4.383
MS.159         	30.412         	4.107
MS.160         	30.352         	4.097
MS.161         	30.292         	4.004
MS.162         	30.23          	4.141
MS.163         	30.17          	4.202
MS.164         	30.11          	4.202
MS.165         	30.05          	4.052
MS.166         	29.99          	4.014
MS.167         	29.93          	3.889
MS.168         	29.87          	3.918
MS.169         	29.81          	3.901
MS.170         	29.752         	3.779
MS.171         	29.692         	4.038
MS.172         	29.632         	3.815
MS.173         	29.573         	3.851
MS.174         	29.515         	3.775
MS.175         	29.455         	3.771
MS.176         	29.397         	3.789
MS.177         	29.337         	3.809
MS.178         	29.28          	3.694
MS.179         	29.22          	3.738
MS.180         	29.162         	3.809
MS.181         	29.105         	3.789
MS.182         	29.045         	3.746
MS.183         	28.987         	3.692
MS.184         	28.93          	3.676
MS.185         	28.872         	3.712
MS.186         	28.815         	3.664
MS.187         	28.757         	3.662
MS.188         	28.7           	3.634
MS.189         	28.642         	3.613
MS.190         	28.585         	3.569
MS.191         	28.528         	3.601
MS.192         	28.47          	3.634
MS.193         	28.415         	3.591
MS.194         	28.358         	3.48
MS.195         	28.3           	3.505
MS.196         	28.245         	3.579
MS.197         	28.188         	3.434
MS.198         	28.13          	3.464
MS.199         	28.075         	3.321
MS.200         	28.02          	3.372
MS.201         	27.962         	3.43
MS.202         	27.907         	3.418
MS.203         	27.85          	3.404
MS.204         	27.795         	3.362
MS.205         	27.74          	3.17
MS.206         	27.685         	3.217
MS.207         	27.63          	3.388
MS.208         	27.575         	3.134
MS.209         	27.52          	3.162
MS.210         	27.465         	3.249
MS.211         	27.41          	3.12
MS.212         	27.355         	3.207
MS.213         	27.3           	3.053
MS.214         	27.245         	3.066
MS.215         	27.19          	3.055
MS.216         	27.137         	2.979
MS.217         	27.082         	3.062
MS.218         	27.028         	2.951
MS.219         	26.975         	2.949
MS.220         	26.92          	2.91
MS.221         	26.868         	2.91
MS.222         	26.812         	2.868
MS.223         	26.76          	2.937
MS.224         	26.705         	2.794
MS.225         	26.653         	2.842
MS.226         	26.6           	2.808
MS.227         	26.545         	2.79
MS.228         	26.493         	2.796
MS.229         	26.44          	2.792
MS.230         	26.387         	2.717
MS.231         	26.335         	2.761
MS.232         	26.282         	2.749
MS.233         	26.23          	2.677
MS.234         	26.177         	2.651
MS.235         	26.125         	2.594
MS.236         	26.073         	2.592
MS.237         	26.02          	2.562
MS.238         	25.967         	2.55
MS.239         	25.917         	2.572
MS.240         	25.865         	2.586
MS.241         	25.812         	2.485
MS.242         	25.762         	2.542
MS.243         	25.71          	2.502
MS.244         	25.657         	2.512
MS.245         	25.608         	2.443
MS.246         	25.555         	2.427
MS.247         	25.505         	2.349
MS.248         	25.455         	2.447
MS.249         	25.403         	2.419
MS.250         	25.352         	2.465
MS.251         	25.302         	2.375
MS.252         	25.25          	2.351
MS.253         	25.2           	2.296
MS.254         	25.15          	2.316
MS.255         	25.1           	2.328
MS.256         	25.05          	2.322
MS.257         	25             	2.308
MS.258         	24.95          	2.256
MS.259         	24.9           	2.296
MS.260         	24.85          	2.278
MS.261         	24.8           	2.24
MS.262         	24.75          	2.25
MS.263         	24.702         	2.228
MS.264         	24.653         	2.099
MS.265         	24.602         	2.191
MS.266         	24.555         	2.081
MS.267         	24.505         	2.075
MS.268         	24.455         	2.117
MS.269         	24.407         	2.018
MS.270         	24.358         	2.093
MS.271         	24.31          	1.907
MS.272         	24.26          	1.879
MS.273         	24.212         	1.772
MS.274         	24.165         	1.825
MS.275         	24.115         	1.752
MS.276         	24.067         	1.845
MS.277         	24.02          	1.954
MS.278         	23.972         	1.837
MS.279         	23.925         	1.863
MS.280         	23.875         	1.833
MS.281         	23.827         	1.718
MS.282         	23.78          	1.631
MS.283         	23.733         	1.708
MS.284         	23.685         	1.825
MS.285         	23.637         	1.698
MS.286         	23.59          	1.708
MS.287         	23.545         	1.644
MS.288         	23.497         	1.543
MS.289         	23.45          	1.587
MS.290         	23.403         	1.486
MS.291         	23.358         	1.402
MS.292         	23.31          	1.456
MS.293         	23.262         	1.362
MS.294         	23.217         	1.281
MS.295         	23.17          	1.313
MS.296         	23.125         	1.372
MS.297         	23.077         	1.331
MS.298         	23.032         	1.196
MS.299         	22.985         	1.188
MS.300         	22.94          	1.287
MS.301         	22.895         	1.265
MS.302         	22.847         	1.144
MS.303         	22.802         	1.078
MS.304         	22.757         	1.154
MS.305         	22.712         	1.011
MS.306         	22.665         	1.045
MS.307         	22.62          	1.074
MS.308         	22.575         	1.041
MS.309         	22.53          	1.021
MS.310         	22.485         	0.947
MS.311         	22.44          	0.951
MS.312         	22.395         	0.973
MS.313         	22.35          	0.91
MS.314         	22.307         	0.902
MS.315         	22.262         	0.91
MS.316         	22.217         	0.931
MS.317         	22.172         	0.888
MS.318         	22.127         	0.904
MS.319         	22.085         	0.814
MS.320         	22.04          	0.834
MS.321         	21.997         	0.806
MS.322         	21.952         	0.775
MS.323         	21.907         	0.8
MS.324         	21.865         	0.796
MS.325         	21.82          	0.83
MS.326         	21.778         	0.794
MS.327         	21.735         	0.781
MS.328         	21.69          	0.755
MS.329         	21.647         	0.788
MS.330         	21.605         	0.751
MS.331         	21.56          	0.739
MS.332         	21.517         	0.731
MS.333         	21.475         	0.725
MS.334         	21.432         	0.661
MS.335         	21.39          	0.719
MS.336         	21.345         	0.703
MS.337         	21.302         	0.647
MS.338         	21.26          	0.655
MS.339         	21.217         	0.649
MS.340         	21.175         	0.647
MS.341         	21.135         	0.592
MS.342         	21.092         	0.624
MS.343         	21.05          	0.572
MS.344         	21.007         	0.594
MS.345         	20.965         	0.538
MS.346         	20.922         	0.514
MS.347         	20.882         	0.536
MS.348         	20.84          	0.495
MS.349         	20.797         	0.538
MS.350         	20.757         	0.51
MS.351         	20.715         	0.471
MS.352         	20.675         	0.502
MS.353         	20.632         	0.451
MS.354         	20.592         	0.495
MS.355         	20.55          	0.439
MS.356         	20.51          	0.443
MS.357         	20.467         	0.377
MS.358         	20.427         	0.423
MS.359         	20.387         	0.419
MS.360         	20.345         	0.387
MS.361         	20.305         	0.393
MS.362         	20.265         	0.365
MS.363         	20.225         	0.397
MS.364         	20.182         	0.346
MS.365         	20.142         	0.302
MS.366         	20.102         	0.308
MS.367         	20.062         	0.3
MS.368         	20.022         	0.332
MS.369         	19.983         	0.31
MS.370         	19.942         	0.308
MS.371         	19.903         	0.312
MS.372         	19.862         	0.298
MS.373         	19.823         	0.28
MS.374         	19.785         	0.278
MS.375         	19.745         	0.262
MS.376         	19.705         	0.322
MS.377         	19.665         	0.266
MS.378         	19.627         	0.284
MS.379         	19.587         	0.211
MS.380         	19.547         	0.28
MS.381         	19.51          	0.222
MS.382         	19.47          	0.185
MS.383         	19.43          	0.195
MS.384         	19.392         	0.187
MS.385         	19.352         	0.187
MS.386         	19.315         	0.169
MS.387         	19.278         	0.161
MS.388         	19.237         	0.193
MS.389         	19.2           	0.199
MS.390         	19.16          	0.167
MS.391         	19.122         	0.153
MS.392         	19.085         	0.171
MS.393         	19.047         	0.145
MS.394         	19.007         	0.135
MS.395         	18.97          	0.127
MS.396         	18.932         	0.131
MS.397         	18.895         	0.135
MS.398         	18.858         	0.127
MS.399         	18.82          	0.131
MS.400         	18.782         	0.137
MS.401         	18.745         	0.133
MS.402         	18.708         	0.123
MS.403         	18.67          	0.123
MS.404         	18.632         	0.105
MS.405         	18.595         	0.105
MS.406         	18.557         	0.103
MS.407         	18.52          	0.103
MS.408         	18.483         	0.095
MS.409         	18.448         	0.099
MS.410         	18.41          	0.123
MS.411         	18.372         	0.109
MS.412         	18.335         	0.109
MS.413         	18.3           	0.095
MS.414         	18.262         	0.101
MS.415         	18.227         	0.079
MS.416         	18.19          	0.109
MS.417         	18.153         	0.123
MS.418         	18.118         	0.087
MS.419         	18.08          	0.093
MS.420         	18.045         	0.089
MS.421         	18.01          	0.097
MS.422         	17.972         	0.101
MS.423         	17.938         	0.139
MS.424         	17.903         	0.093
MS.425         	17.865         	0.097
MS.426         	17.83          	0.099
MS.427         	17.795         	0.101
MS.428         	17.757         	0.113
MS.429         	17.722         	0.115
MS.430         	17.688         	0.097
MS.431         	17.653         	0.095
MS.432         	17.618         	0.093
MS.433         	17.583         	0.087
MS.434         	17.547         	0.087
MS.435         	17.512         	0.091
MS.436         	17.477         	0.089
MS.437         	17.442         	0.077
MS.438         	17.407         	0.097
MS.439         	17.372         	0.073
MS.440         	17.337         	0.093
MS.441         	17.302         	0.093
MS.442         	17.267         	0.093
MS.443         	17.235         	0.089
MS.444         	17.2           	0.083
MS.445         	17.165         	0.081
MS.446         	17.13          	0.089
MS.447         	17.097         	0.079
MS.448         	17.062         	0.075
MS.449         	17.028         	0.079
MS.450         	16.995         	0.081
MS.451         	16.96          	0.089
MS.452         	16.927         	0.073
MS.453         	16.892         	0.064
MS.454         	16.86          	0.058
MS.455         	16.825         	0.087
MS.456         	16.792         	0.075
MS.457         	16.757         	0.075
MS.458         	16.725         	0.075
MS.459         	16.69          	0.05
MS.460         	16.657         	0.085
MS.461         	16.625         	0.064
MS.462         	16.59          	0.075
MS.463         	16.557         	0.05
MS.464         	16.525         	0.058
MS.465         	16.493         	0.081
MS.466         	16.46          	0.044
MS.467         	16.425         	0.05
MS.468         	16.392         	0.081
MS.469         	16.36          	0.073
MS.470         	16.327         	0.05
MS.471         	16.295         	0.054
MS.472         	16.262         	0.066
MS.473         	16.23          	0.046
MS.474         	16.198         	0.044
MS.475         	16.165         	0.052
MS.476         	16.132         	0.05
MS.477         	16.1           	0.052
MS.478         	16.067         	0.046
MS.479         	16.038         	0.054
MS.480         	16.005         	0.042
MS.481         	15.972         	0.038
MS.482         	15.94          	0.042
MS.483         	15.91          	0.038
MS.484         	15.877         	0.044
MS.485         	15.845         	0.044
MS.486         	15.812         	0.036
MS.487         	15.782         	0.034
MS.488         	15.75          	0.038
MS.489         	15.72          	0.044
MS.490         	15.688         	0.038
MS.491         	15.657         	0.034
MS.492         	15.625         	0.032
MS.493         	15.595         	0.04
MS.494         	15.562         	0.036
MS.495         	15.532         	0.034
MS.496         	15.5           	0.046
MS.497         	15.47          	0.04
MS.498         	15.438         	0.032
MS.499         	15.407         	0.032
MS.500         	15.377         	0.034
MS.501         	15.347         	0.034
MS.502         	15.315         	0.044
MS.503         	15.285         	0.036
MS.504         	15.255         	0.038
MS.505         	15.225         	0.036
MS.506         	15.193         	0.038
MS.507         	15.162         	0.038
MS.508         	15.132         	0.034
MS.509         	15.102         	0.036
MS.510         	15.072         	0.038
MS.511         	15.042         	0.036
MS.512         	15.012         	0.036
MS.513         	14.983         	0.04
MS.514         	14.952         	0.032
MS.515         	14.922         	0.036
MS.516         	14.892         	0.038
MS.517         	14.862         	0.034
MS.518         	14.832         	0.032
MS.519         	14.802         	0.036
MS.520         	14.775         	0.034
MS.521         	14.745         	0.032
MS.522         	14.715         	0.036
MS.523         	14.685         	0.024
MS.524         	14.657         	0.038
MS.525         	14.627         	0.026
MS.526         	14.597         	0.032
MS.527         	14.568         	0.03
MS.528         	14.54          	0.026
MS.529         	14.51          	0.024
MS.530         	14.483         	0.026
MS.531         	14.452         	0.024
MS.532         	14.422         	0.028
MS.533         	14.395         	0.024
MS.534         	14.365         	0.028
MS.535         	14.337         	0.028
MS.536         	14.31          	0.026
MS.537         	14.28          	0.028
MS.538         	14.252         	0.028
MS.539         	14.222         	0.028
MS.540         	14.195         	0.024
MS.541         	14.167         	0.026
MS.542         	14.137         	0.03
MS.543         	14.11          	0.032
MS.544         	14.082         	0.03
MS.545         	14.052         	0.038
MS.546         	14.025         	0.028
MS.547         	13.997         	0.028
MS.548         	13.97          	0.026
MS.549         	13.943         	0.034
MS.550         	13.912         	0.03
MS.551         	13.885         	0.028
MS.552         	13.858         	0.028
MS.553         	13.83          	0.03
MS.554         	13.802         	0.028
MS.555         	13.775         	0.028
MS.556         	13.747         	0.028
MS.557         	13.72          	0.03
MS.558         	13.693         	0.032
MS.559         	13.665         	0.03
MS.560         	13.637         	0.026
MS.561         	13.61          	0.03
MS.562         	13.585         	0.026
MS.563         	13.557         	0.028
MS.564         	13.53          	0.028
MS.565         	13.502         	0.03
MS.566         	13.475         	0.03
MS.567         	13.447         	0.03
MS.568         	13.422         	0.028
MS.569         	13.395         	0.03
MS.570         	13.367         	0.026
MS.571         	13.342         	0.028
MS.572         	13.315         	0.028
MS.573         	13.287         	0.032
MS.574         	13.262         	0.03
MS.575         	13.235         	0.026
MS.576         	13.207         	0.028
MS.577         	13.182         	0.03
MS.578         	13.155         	0.028
MS.579         	13.13          	0.026
MS.580         	13.102         	0.026
MS.581         	13.077         	0.026
MS.582         	13.05          	0.028
MS.583         	13.025         	0.028
MS.584         	13             	0.028
MS.585         	12.972         	0.03
MS.586         	12.947         	0.016
MS.587         	12.922         	0.022
MS.588         	12.895         	0.018
MS.589         	12.87          	0.024
MS.590         	12.845         	0.018
MS.591         	12.818         	0.018
MS.592         	12.792         	0.026
MS.593         	12.767         	0.014
MS.594         	12.742         	0.018
MS.595         	12.715         	0.016
MS.596         	12.69          	0.026
MS.597         	12.665         	0.016
MS.598         	12.64          	0.024
MS.599         	12.615         	0.018
MS.600         	12.59          	0.016
MS.601         	12.565         	0.022
MS.602         	12.54          	0.02
MS.603         	12.515         	0.018
MS.604         	12.49          	0.014
MS.605         	12.465         	0.014
MS.606         	12.44          	0.022
MS.607         	12.415         	0.016
MS.608         	12.39          	0.014
MS.609         	12.365         	0.018
MS.610         	12.34          	0.016
MS.611         	12.315         	0.02
MS.612         	12.29          	0.014
MS.613         	12.267         	0.014
MS.614         	12.242         	0.018
MS.615         	12.217         	0.016
MS.616         	12.193         	0.016
MS.617         	12.17          	0.014
MS.618         	12.145         	0.012
MS.619         	12.12          	0.016
MS.620         	12.095         	0.016
MS.621         	12.072         	0.012
MS.622         	12.047         	0.014
MS.623         	12.023         	0.012
MS.624         	12             	0.012
MS.625         	11.975         	0.016
MS.626         	11.952         	0.012
MS.627         	11.927         	0.014
MS.628         	11.905         	0.01
MS.629         	11.88          	0.008
MS.630         	11.858         	0.012
MS.631         	11.832         	0.012
MS.632         	11.81          	0.012
MS.633         	11.785         	0.01
MS.634         	11.762         	0.01
MS.635         	11.738         	0.008
MS.636         	11.715         	0.012
MS.637         	11.693         	0.008
MS.638         	11.667         	0.01
MS.639         	11.645         	0.008
MS.640         	11.622         	0.01
MS.641         	11.597         	0.008
MS.642         	11.575         	0.008
MS.643         	11.552         	0.008
MS.644         	11.53          	0.008
MS.645         	11.505         	0.004
MS.646         	11.483         	0.006
MS.647         	11.46          	0.004
MS.648         	11.438         	0.004
MS.649         	11.415         	0.004
MS.650         	11.392         	0.008
MS.651         	11.37          	0.004
MS.652         	11.345         	0.004
MS.653         	11.322         	0.004
MS.654         	11.3           	0.006
MS.655         	11.278         	0.006
MS.656         	11.255         	-0.008
MS.657         	11.233         	0.002
MS.658         	11.21          	0.002
MS.659         	11.188         	0.004
MS.660         	11.165         	0.006
MS.661         	11.142         	0.004
MS.662         	11.122         	0.004
MS.663         	11.1           	0.004
DERIVED EXCITABILITY VARIABLES
Program = QTracP 9/10/2021
Threshold method = 6 (optimised for CAP, using data for present condition only)
SR method = 1 (using actual data values)
6.                 	0.000               	Peak response\(mV)
9.                 	33                  	Temperature ( C)
17.                	66                  	Age (years)
18.                	2                   	Sex (M=1, F=2)

EXTRA VARIABLES

MScPeak(mV) = 5.76
MScS5(mA) = 19.75
MScS50(mA) = 26.79
MScS95(mA) = 37.18
MScNSteps = 2
MScSteps(%) = 4.8
MScStepMax(%) = 2.4
MScD50 = 58
MScSlope = 3.62
MScDuration(min) = 6.2
MSFTraces = 543
MSFPeakAmp(mV) = 5.73
MSFNUnits = 154
MSFMeanUnitAmp(uV) = 37.2
MSFHuntTime(m) = 3.28
MSFError(%) = 2.11
MSFNLarge = 36.34
MSFMedianAmp(%) = 0.468
MSFMedianAmp(mV) = 0.0268
MSFHalfAmpAmp(%) = 0.674
MSFHalfAmpAmp(mV) = 0.0386
MSFLargestAmp(%) = 4.82
MSFLargestAmp(mV) = 0.276
MSFMeanRS(%) = 1.99
MSFSizeLimit(uV) = 14.3
MSFLimitType = 1
MSFSmallestAmp(uV) = 14.7
MSFOpts = 10106121

EXTRA WAVEFORMS


!MScan Model
!154
	1	16	0.37	2
	2	16.74	0.35	2
	3	17.64	0.48	2
	4	18.59	0.4	2
	5	18.98	0.58	2
	6	19.26	0.38	2
	7	19.37	0.43	2
	8	19.46	0.34	2
	9	19.55	0.26	2
	10	19.75	0.86	2
	11	19.96	0.45	2
	12	20.11	0.47	2
	13	20.18	0.27	2
	14	20.29	0.6	2
	15	20.44	0.62	2
	16	20.53	0.43	2
	17	20.63	0.57	2
	18	20.78	0.6	2
	19	20.88	0.53	2
	20	20.99	0.52	2
	21	21.05	0.32	2
	22	21.12	0.44	2
	23	21.21	0.55	2
	24	21.32	0.5	2
	25	21.39	0.4	2
	26	21.46	0.33	2
	27	21.54	0.33	2
	28	21.63	0.34	2
	29	21.73	0.36	2
	30	21.84	0.46	2
	31	21.98	0.53	2
	32	22.04	0.26	2
	33	22.09	0.27	2
	34	22.16	0.46	2
	35	22.27	0.52	2
	36	22.34	0.45	2
	37	22.38	0.29	2
	38	22.48	0.49	2
	39	22.54	0.36	2
	40	22.59	0.4	2
	41	22.65	0.49	2
	42	22.71	0.56	2
	43	22.76	0.54	2
	44	22.82	0.57	2
	45	22.89	0.57	2
	46	22.96	0.59	2
	47	23.01	0.51	2
	48	23.05	0.4	2
	49	23.09	0.41	2
	50	23.13	0.44	2
	51	23.17	0.47	2
	52	23.21	0.46	2
	53	23.25	0.46	2
	54	23.29	0.47	2
	55	23.33	0.45	2
	56	23.37	0.44	2
	57	23.42	0.5	2
	58	23.47	0.71	2
	59	23.56	1.31	2
	60	23.66	1.23	2
	61	23.93	1.86	2
	62	24.13	1.57	2
	63	24.19	0.46	2
	64	24.25	0.33	2
	65	24.31	0.29	2
	66	24.38	0.77	2
	67	24.44	0.76	2
	68	24.5	0.76	2
	69	24.56	0.76	2
	70	24.62	0.57	2
	71	24.7	0.69	2
	72	24.78	0.52	2
	73	24.86	0.46	2
	74	24.94	0.42	2
	75	25.01	0.48	2
	76	25.08	0.45	2
	77	25.17	0.5	2
	78	25.28	0.38	2
	79	25.39	0.49	2
	80	25.5	0.63	2
	81	25.61	0.62	2
	82	25.7	0.46	2
	83	25.8	0.44	2
	84	25.89	0.5	2
	85	25.96	0.36	2
	86	26.02	0.38	2
	87	26.07	0.4	2
	88	26.13	0.45	2
	89	26.17	0.3	2
	90	26.21	0.3	2
	91	26.25	0.27	2
	92	26.33	0.46	2
	93	26.37	0.27	2
	94	26.41	0.28	2
	95	26.45	0.29	2
	96	26.5	0.36	2
	97	26.55	0.33	2
	98	26.6	0.31	2
	99	26.65	0.28	2
	100	26.74	0.48	2
	101	26.78	0.28	2
	102	26.83	0.3	2
	103	26.87	0.28	2
	104	26.92	0.3	2
	105	26.96	0.3	2
	106	27.02	0.4	2
	107	27.09	0.54	2
	108	27.15	0.53	2
	109	27.24	0.67	2
	110	27.36	0.94	2
	111	27.48	0.99	2
	112	27.64	1.26	2
	113	27.79	1.06	2
	114	27.9	0.75	2
	115	28.02	0.79	2
	116	28.12	0.76	2
	117	28.21	0.56	2
	118	28.3	0.57	2
	119	28.43	0.82	2
	120	28.55	0.84	2
	121	28.67	0.5	2
	122	28.77	0.43	2
	123	28.87	0.42	2
	124	29.09	0.96	2
	125	29.44	1.37	2
	126	29.57	0.52	2
	127	29.7	0.82	2
	128	29.83	1.1	2
	129	30.13	2.19	2
	130	30.41	2.47	1.6
	131	30.64	3.46	2
	132	30.88	0.5	2
	133	31.23	4.82	2
	134	32.05	2.21	2
	135	32.45	0.37	2
	136	32.58	0.39	2
	137	32.71	0.39	2
	138	32.84	0.32	2
	139	32.96	0.35	2
	140	33.07	0.3	2
	141	33.19	0.28	2
	142	33.32	0.33	2
	143	33.45	0.27	2
	144	33.59	0.3	2
	145	33.75	0.41	2
	146	33.97	0.56	2
	147	34.45	0.98	2
	148	35.05	1.42	2
	149	35.49	1.64	2
	150	35.64	1.62	2
	151	37.17	1.46	2
	152	38.13	2.46	2
	153	38.94	1.25	2
	154	38.94	0.35	2

