File:              	C:\Qtrac\Data\Daniel M Sørensen\MScan multicentre study\Data from centres\Aarhus\Processed data\DMSB91210C.QZD
Name:              	DK.AAR.NC.11.2
Protocol:          	MSCAN-R2
Date:              	10/12/19
Start time:        	15:50:57
Age:               	80
Sex:               	f
Temperature:       	34,6
S/R sites:         	APB
NC/disease:        	Control
Operator:          	DS
Comments:
M-SCAN DATA (10.7-1.5m)
Scanpts: 20, 36, 852, 874
Stim. (mA)     	Amp. (mV)
MS.1           	22             	6.151
MS.2           	22             	6.169
MS.3           	22             	6.137
MS.4           	22             	6.153
MS.5           	22             	6.105
MS.6           	22             	6.093
MS.7           	22             	6.085
MS.8           	22             	6.107
MS.9           	22             	6.167
MS.10          	22             	6.141
MS.11          	22             	6.105
MS.12          	22             	6.111
MS.13          	22             	6.121
MS.14          	22             	6.185
MS.15          	22             	6.097
MS.16          	22             	6.099
MS.17          	22             	6.179
MS.18          	22             	6.103
MS.19          	22             	6.024
MS.20          	22             	6.103
MS.21          	22             	6.075
MS.22          	22             	6.087
MS.23          	22             	6.123
MS.24          	21.913         	6.04
MS.25          	21.868         	6.105
MS.26          	21.825         	6.083
MS.27          	21.78          	6.137
MS.28          	21.737         	6.119
MS.29          	21.695         	6.103
MS.30          	21.65          	6.093
MS.31          	21.608         	6.115
MS.32          	21.565         	6.101
MS.33          	21.52          	6.113
MS.34          	21.477         	6.095
MS.35          	21.435         	6.117
MS.36          	21.392         	6.101
MS.37          	21.35          	6.089
MS.38          	21.307         	6.133
MS.39          	21.265         	6.123
MS.40          	21.222         	5.976
MS.41          	21.18          	6.103
MS.42          	21.137         	6.119
MS.43          	21.095         	6.055
MS.44          	21.052         	6.04
MS.45          	21.01          	6.087
MS.46          	20.97          	6.077
MS.47          	20.927         	6.085
MS.48          	20.885         	6.127
MS.49          	20.842         	6.069
MS.50          	20.802         	6.115
MS.51          	20.76          	6.099
MS.52          	20.717         	6.099
MS.53          	20.677         	6.113
MS.54          	20.635         	6.012
MS.55          	20.595         	6.161
MS.56          	20.552         	6.103
MS.57          	20.512         	6.075
MS.58          	20.472         	6.083
MS.59          	20.43          	6.075
MS.60          	20.39          	6.079
MS.61          	20.35          	6.063
MS.62          	20.307         	6.042
MS.63          	20.267         	6.057
MS.64          	20.227         	6.061
MS.65          	20.188         	6.085
MS.66          	20.147         	6.081
MS.67          	20.108         	6.063
MS.68          	20.065         	6.032
MS.69          	20.025         	6.049
MS.70          	19.985         	6.171
MS.71          	19.945         	6.095
MS.72          	19.907         	6.115
MS.73          	19.868         	6.083
MS.74          	19.827         	6.061
MS.75          	19.788         	6.125
MS.76          	19.747         	6.157
MS.77          	19.708         	6.105
MS.78          	19.67          	6.049
MS.79          	19.63          	6.099
MS.80          	19.59          	6.079
MS.81          	19.55          	6.063
MS.82          	19.512         	6.079
MS.83          	19.472         	6.028
MS.84          	19.435         	6.097
MS.85          	19.395         	6.077
MS.86          	19.358         	6.034
MS.87          	19.317         	6.081
MS.88          	19.28          	6.03
MS.89          	19.24          	6.036
MS.90          	19.202         	6.055
MS.91          	19.165         	6.093
MS.92          	19.125         	6.018
MS.93          	19.087         	6.053
MS.94          	19.05          	6.04
MS.95          	19.012         	6.028
MS.96          	18.972         	6.063
MS.97          	18.935         	6.051
MS.98          	18.897         	6.032
MS.99          	18.86          	6.01
MS.100         	18.823         	6.004
MS.101         	18.785         	6.006
MS.102         	18.747         	6.018
MS.103         	18.71          	5.984
MS.104         	18.672         	6.026
MS.105         	18.635         	6.022
MS.106         	18.597         	5.918
MS.107         	18.56          	6.101
MS.108         	18.522         	5.974
MS.109         	18.487         	6.002
MS.110         	18.45          	6.036
MS.111         	18.413         	6.053
MS.112         	18.375         	6.03
MS.113         	18.34          	5.988
MS.114         	18.302         	5.998
MS.115         	18.265         	6.01
MS.116         	18.23          	6.03
MS.117         	18.192         	6.024
MS.118         	18.157         	6.049
MS.119         	18.12          	6.032
MS.120         	18.085         	6.049
MS.121         	18.047         	6.006
MS.122         	18.012         	5.962
MS.123         	17.975         	6.002
MS.124         	17.94          	6.04
MS.125         	17.905         	5.988
MS.126         	17.868         	5.992
MS.127         	17.833         	6
MS.128         	17.797         	6.095
MS.129         	17.762         	5.98
MS.130         	17.725         	5.996
MS.131         	17.69          	6.042
MS.132         	17.655         	6.012
MS.133         	17.62          	6.024
MS.134         	17.585         	6.075
MS.135         	17.55          	5.922
MS.136         	17.515         	6.018
MS.137         	17.48          	6.101
MS.138         	17.445         	5.988
MS.139         	17.41          	6.032
MS.140         	17.375         	5.988
MS.141         	17.34          	5.95
MS.142         	17.305         	5.986
MS.143         	17.27          	5.984
MS.144         	17.237         	5.948
MS.145         	17.202         	5.992
MS.146         	17.167         	5.936
MS.147         	17.132         	5.887
MS.148         	17.1           	5.962
MS.149         	17.065         	5.942
MS.150         	17.03          	5.938
MS.151         	16.997         	5.891
MS.152         	16.962         	5.924
MS.153         	16.93          	5.91
MS.154         	16.895         	5.944
MS.155         	16.862         	5.944
MS.156         	16.827         	5.881
MS.157         	16.795         	5.922
MS.158         	16.76          	5.948
MS.159         	16.727         	5.918
MS.160         	16.695         	5.912
MS.161         	16.66          	5.958
MS.162         	16.628         	5.871
MS.163         	16.595         	5.924
MS.164         	16.56          	5.873
MS.165         	16.528         	5.869
MS.166         	16.495         	5.904
MS.167         	16.462         	5.873
MS.168         	16.43          	5.91
MS.169         	16.395         	5.893
MS.170         	16.362         	5.877
MS.171         	16.33          	5.871
MS.172         	16.297         	5.889
MS.173         	16.265         	5.918
MS.174         	16.233         	5.895
MS.175         	16.2           	5.873
MS.176         	16.167         	5.893
MS.177         	16.135         	5.938
MS.178         	16.102         	5.813
MS.179         	16.073         	5.891
MS.180         	16.04          	5.877
MS.181         	16.007         	5.924
MS.182         	15.975         	5.916
MS.183         	15.943         	5.922
MS.184         	15.912         	5.835
MS.185         	15.88          	5.883
MS.186         	15.847         	5.938
MS.187         	15.818         	5.92
MS.188         	15.785         	5.863
MS.189         	15.752         	5.839
MS.190         	15.722         	5.865
MS.191         	15.69          	5.881
MS.192         	15.66          	5.841
MS.193         	15.627         	5.843
MS.194         	15.597         	5.853
MS.195         	15.565         	5.813
MS.196         	15.535         	5.857
MS.197         	15.502         	5.847
MS.198         	15.472         	5.789
MS.199         	15.44          	5.916
MS.200         	15.41          	5.863
MS.201         	15.38          	5.855
MS.202         	15.35          	5.92
MS.203         	15.318         	5.887
MS.204         	15.287         	5.859
MS.205         	15.257         	5.901
MS.206         	15.227         	5.863
MS.207         	15.195         	5.849
MS.208         	15.165         	5.821
MS.209         	15.135         	5.883
MS.210         	15.105         	5.851
MS.211         	15.075         	5.777
MS.212         	15.045         	5.869
MS.213         	15.015         	5.849
MS.214         	14.985         	5.93
MS.215         	14.955         	5.908
MS.216         	14.925         	5.865
MS.217         	14.895         	5.851
MS.218         	14.865         	5.871
MS.219         	14.835         	5.738
MS.220         	14.805         	5.871
MS.221         	14.777         	5.845
MS.222         	14.747         	5.914
MS.223         	14.717         	5.827
MS.224         	14.688         	5.771
MS.225         	14.66          	5.734
MS.226         	14.63          	5.767
MS.227         	14.6           	5.827
MS.228         	14.57          	5.841
MS.229         	14.542         	5.883
MS.230         	14.512         	5.831
MS.231         	14.485         	5.767
MS.232         	14.455         	5.833
MS.233         	14.425         	5.811
MS.234         	14.398         	5.857
MS.235         	14.367         	5.889
MS.236         	14.34          	5.817
MS.237         	14.31          	5.863
MS.238         	14.282         	5.823
MS.239         	14.255         	5.787
MS.240         	14.225         	5.815
MS.241         	14.197         	5.769
MS.242         	14.167         	5.76
MS.243         	14.14          	5.781
MS.244         	14.112         	5.712
MS.245         	14.085         	5.938
MS.246         	14.055         	5.785
MS.247         	14.028         	5.799
MS.248         	14             	5.7
MS.249         	13.972         	5.807
MS.250         	13.945         	5.769
MS.251         	13.915         	5.845
MS.252         	13.887         	5.706
MS.253         	13.86          	5.777
MS.254         	13.832         	5.839
MS.255         	13.805         	5.72
MS.256         	13.778         	5.825
MS.257         	13.75          	5.791
MS.258         	13.722         	5.75
MS.259         	13.695         	5.785
MS.260         	13.667         	5.736
MS.261         	13.64          	5.692
MS.262         	13.612         	5.789
MS.263         	13.585         	5.771
MS.264         	13.56          	5.712
MS.265         	13.532         	5.74
MS.266         	13.505         	5.763
MS.267         	13.477         	5.662
MS.268         	13.45          	5.646
MS.269         	13.425         	5.688
MS.270         	13.398         	5.783
MS.271         	13.37          	5.648
MS.272         	13.342         	5.686
MS.273         	13.318         	5.632
MS.274         	13.29          	5.684
MS.275         	13.265         	5.676
MS.276         	13.237         	5.531
MS.277         	13.21          	5.479
MS.278         	13.185         	5.632
MS.279         	13.157         	5.511
MS.280         	13.132         	5.491
MS.281         	13.105         	5.557
MS.282         	13.08          	5.628
MS.283         	13.052         	5.487
MS.284         	13.028         	5.474
MS.285         	13             	5.42
MS.286         	12.975         	5.601
MS.287         	12.95          	5.523
MS.288         	12.922         	5.422
MS.289         	12.898         	5.442
MS.290         	12.872         	5.438
MS.291         	12.845         	5.45
MS.292         	12.82          	5.452
MS.293         	12.795         	5.416
MS.294         	12.77          	5.396
MS.295         	12.742         	5.376
MS.296         	12.717         	5.402
MS.297         	12.693         	5.432
MS.298         	12.667         	5.352
MS.299         	12.642         	5.372
MS.300         	12.617         	5.35
MS.301         	12.592         	5.382
MS.302         	12.568         	5.348
MS.303         	12.542         	5.333
MS.304         	12.517         	5.386
MS.305         	12.492         	5.364
MS.306         	12.467         	5.336
MS.307         	12.443         	5.438
MS.308         	12.417         	5.323
MS.309         	12.392         	5.396
MS.310         	12.367         	5.217
MS.311         	12.342         	5.321
MS.312         	12.318         	5.281
MS.313         	12.292         	5.313
MS.314         	12.267         	5.233
MS.315         	12.245         	5.271
MS.316         	12.22          	5.193
MS.317         	12.195         	5.259
MS.318         	12.17          	5.255
MS.319         	12.148         	5.275
MS.320         	12.122         	5.263
MS.321         	12.097         	5.253
MS.322         	12.075         	5.197
MS.323         	12.05          	5.287
MS.324         	12.025         	5.295
MS.325         	12.002         	5.225
MS.326         	11.977         	5.223
MS.327         	11.952         	5.247
MS.328         	11.93          	5.209
MS.329         	11.905         	5.283
MS.330         	11.882         	5.225
MS.331         	11.858         	5.162
MS.332         	11.835         	5.178
MS.333         	11.81          	5.235
MS.334         	11.787         	5.102
MS.335         	11.765         	5.132
MS.336         	11.74          	5.158
MS.337         	11.717         	5.15
MS.338         	11.693         	5.16
MS.339         	11.67          	5.158
MS.340         	11.648         	5.14
MS.341         	11.622         	5.229
MS.342         	11.6           	5.255
MS.343         	11.577         	5.249
MS.344         	11.555         	5.166
MS.345         	11.53          	5.247
MS.346         	11.507         	5.205
MS.347         	11.485         	5.025
MS.348         	11.462         	5.156
MS.349         	11.44          	5.172
MS.350         	11.415         	4.979
MS.351         	11.392         	5.086
MS.352         	11.37          	5.084
MS.353         	11.347         	5.182
MS.354         	11.325         	5.084
MS.355         	11.302         	5.07
MS.356         	11.28          	5.096
MS.357         	11.257         	5.104
MS.358         	11.235         	4.955
MS.359         	11.212         	5.088
MS.360         	11.19          	5.106
MS.361         	11.167         	5.168
MS.362         	11.145         	5.174
MS.363         	11.122         	5.043
MS.364         	11.1           	5.068
MS.365         	11.08          	4.977
MS.366         	11.057         	4.979
MS.367         	11.035         	5.007
MS.368         	11.012         	4.987
MS.369         	10.99          	4.911
MS.370         	10.967         	4.971
MS.371         	10.948         	5.017
MS.372         	10.925         	4.931
MS.373         	10.903         	5.019
MS.374         	10.88          	4.975
MS.375         	10.86          	4.776
MS.376         	10.837         	4.917
MS.377         	10.815         	4.846
MS.378         	10.795         	5.011
MS.379         	10.773         	4.643
MS.380         	10.752         	4.695
MS.381         	10.73          	4.645
MS.382         	10.707         	4.766
MS.383         	10.688         	4.463
MS.384         	10.665         	4.339
MS.385         	10.645         	4.58
MS.386         	10.622         	4.512
MS.387         	10.602         	4.453
MS.388         	10.58          	4.49
MS.389         	10.56          	4.32
MS.390         	10.537         	4.403
MS.391         	10.517         	4.379
MS.392         	10.497         	4.369
MS.393         	10.475         	4.363
MS.394         	10.455         	4.264
MS.395         	10.432         	4.339
MS.396         	10.412         	4.363
MS.397         	10.392         	4.244
MS.398         	10.372         	4.22
MS.399         	10.35          	4.151
MS.400         	10.33          	4.238
MS.401         	10.31          	4.189
MS.402         	10.287         	4.145
MS.403         	10.267         	3.946
MS.404         	10.247         	3.684
MS.405         	10.227         	4.057
MS.406         	10.207         	4.185
MS.407         	10.185         	3.998
MS.408         	10.165         	4.189
MS.409         	10.145         	3.918
MS.410         	10.125         	3.811
MS.411         	10.105         	3.875
MS.412         	10.085         	3.817
MS.413         	10.065         	3.67
MS.414         	10.045         	3.559
MS.415         	10.025         	3.785
MS.416         	10.005         	3.746
MS.417         	9.985          	3.567
MS.418         	9.965          	3.436
MS.419         	9.945          	3.555
MS.420         	9.925          	3.654
MS.421         	9.905          	3.73
MS.422         	9.885          	3.575
MS.423         	9.865          	3.617
MS.424         	9.845          	3.611
MS.425         	9.825          	3.515
MS.426         	9.807          	3.487
MS.427         	9.787          	3.42
MS.428         	9.767          	3.517
MS.429         	9.747          	3.321
MS.430         	9.727          	3.394
MS.431         	9.71           	3.446
MS.432         	9.69           	3.468
MS.433         	9.67           	3.587
MS.434         	9.65           	3.064
MS.435         	9.632          	3.092
MS.436         	9.613          	3.283
MS.437         	9.592          	3.229
MS.438         	9.575          	3.144
MS.439         	9.555          	3.245
MS.440         	9.535          	3.104
MS.441         	9.517          	3.152
MS.442         	9.497          	2.975
MS.443         	9.477          	3.114
MS.444         	9.46           	3.329
MS.445         	9.44           	3.13
MS.446         	9.422          	3.08
MS.447         	9.403          	2.824
MS.448         	9.385          	2.985
MS.449         	9.365          	2.802
MS.450         	9.347          	2.902
MS.451         	9.327          	2.8
MS.452         	9.31           	2.782
MS.453         	9.29           	2.82
MS.454         	9.273          	2.695
MS.455         	9.255          	2.743
MS.456         	9.235          	2.86
MS.457         	9.217          	2.786
MS.458         	9.198          	2.769
MS.459         	9.18           	2.816
MS.460         	9.162          	2.743
MS.461         	9.142          	2.778
MS.462         	9.125          	2.709
MS.463         	9.108          	2.677
MS.464         	9.09           	2.546
MS.465         	9.07           	2.693
MS.466         	9.052          	2.735
MS.467         	9.035          	2.538
MS.468         	9.017          	2.655
MS.469         	8.997          	2.628
MS.470         	8.98           	2.332
MS.471         	8.962          	2.538
MS.472         	8.945          	2.324
MS.473         	8.927          	2.479
MS.474         	8.91           	2.369
MS.475         	8.89           	2.544
MS.476         	8.872          	2.254
MS.477         	8.855          	2.431
MS.478         	8.837          	2.238
MS.479         	8.82           	2.228
MS.480         	8.802          	2.183
MS.481         	8.785          	2.353
MS.482         	8.767          	2.272
MS.483         	8.75           	2.224
MS.484         	8.733          	2.411
MS.485         	8.715          	2.324
MS.486         	8.698          	2.28
MS.487         	8.68           	2.163
MS.488         	8.662          	2.417
MS.489         	8.645          	2.278
MS.490         	8.627          	2.062
MS.491         	8.61           	2.054
MS.492         	8.595          	1.99
MS.493         	8.577          	2
MS.494         	8.56           	2.079
MS.495         	8.542          	2.21
MS.496         	8.525          	2.109
MS.497         	8.507          	1.98
MS.498         	8.492          	1.978
MS.499         	8.475          	2.163
MS.500         	8.457          	1.917
MS.501         	8.44           	1.978
MS.502         	8.422          	1.946
MS.503         	8.408          	1.974
MS.504         	8.39           	2.018
MS.505         	8.372          	2.081
MS.506         	8.358          	1.976
MS.507         	8.34           	2.014
MS.508         	8.323          	2.04
MS.509         	8.307          	1.911
MS.510         	8.29           	1.928
MS.511         	8.273          	1.883
MS.512         	8.257          	1.928
MS.513         	8.24           	1.623
MS.514         	8.225          	1.859
MS.515         	8.207          	1.915
MS.516         	8.19           	1.821
MS.517         	8.175          	1.881
MS.518         	8.158          	1.934
MS.519         	8.142          	1.907
MS.520         	8.125          	1.799
MS.521         	8.11           	1.867
MS.522         	8.092          	1.776
MS.523         	8.077          	1.774
MS.524         	8.06           	1.901
MS.525         	8.045          	1.732
MS.526         	8.03           	1.589
MS.527         	8.012          	1.837
MS.528         	7.997          	1.774
MS.529         	7.98           	1.412
MS.530         	7.965          	1.412
MS.531         	7.95           	1.702
MS.532         	7.932          	1.398
MS.533         	7.918          	1.412
MS.534         	7.902          	1.619
MS.535         	7.885          	1.337
MS.536         	7.87           	1.329
MS.537         	7.855          	1.13
MS.538         	7.837          	1.404
MS.539         	7.822          	1.18
MS.540         	7.807          	0.949
MS.541         	7.793          	1.221
MS.542         	7.775          	1.126
MS.543         	7.76           	1.15
MS.544         	7.745          	0.997
MS.545         	7.73           	1.007
MS.546         	7.715          	1.003
MS.547         	7.697          	0.983
MS.548         	7.682          	1.021
MS.549         	7.668          	0.987
MS.550         	7.652          	0.955
MS.551         	7.637          	0.929
MS.552         	7.622          	0.989
MS.553         	7.607          	0.931
MS.554         	7.592          	1.116
MS.555         	7.577          	0.914
MS.556         	7.562          	0.87
MS.557         	7.545          	0.931
MS.558         	7.53           	0.87
MS.559         	7.515          	0.765
MS.560         	7.5            	0.912
MS.561         	7.485          	0.92
MS.562         	7.47           	0.812
MS.563         	7.455          	0.836
MS.564         	7.44           	0.763
MS.565         	7.427          	0.713
MS.566         	7.412          	0.868
MS.567         	7.398          	0.796
MS.568         	7.382          	0.79
MS.569         	7.367          	0.659
MS.570         	7.352          	0.784
MS.571         	7.337          	0.717
MS.572         	7.322          	0.784
MS.573         	7.307          	0.574
MS.574         	7.295          	0.624
MS.575         	7.28           	0.61
MS.576         	7.265          	0.677
MS.577         	7.25           	0.669
MS.578         	7.235          	0.673
MS.579         	7.222          	0.653
MS.580         	7.207          	0.727
MS.581         	7.192          	0.681
MS.582         	7.177          	0.55
MS.583         	7.165          	0.58
MS.584         	7.15           	0.493
MS.585         	7.135          	0.584
MS.586         	7.12           	0.55
MS.587         	7.108          	0.594
MS.588         	7.092          	0.592
MS.589         	7.077          	0.592
MS.590         	7.065          	0.643
MS.591         	7.05           	0.491
MS.592         	7.035          	0.489
MS.593         	7.023          	0.495
MS.594         	7.007          	0.538
MS.595         	6.995          	0.516
MS.596         	6.98           	0.528
MS.597         	6.965          	0.528
MS.598         	6.952          	0.552
MS.599         	6.938          	0.393
MS.600         	6.925          	0.506
MS.601         	6.91           	0.405
MS.602         	6.898          	0.421
MS.603         	6.882          	0.391
MS.604         	6.87           	0.403
MS.605         	6.855          	0.336
MS.606         	6.842          	0.363
MS.607         	6.827          	0.423
MS.608         	6.815          	0.342
MS.609         	6.8            	0.491
MS.610         	6.787          	0.284
MS.611         	6.773          	0.361
MS.612         	6.76           	0.359
MS.613         	6.747          	0.34
MS.614         	6.733          	0.34
MS.615         	6.72           	0.338
MS.616         	6.705          	0.296
MS.617         	6.692          	0.304
MS.618         	6.68           	0.32
MS.619         	6.665          	0.383
MS.620         	6.652          	0.33
MS.621         	6.64           	0.346
MS.622         	6.625          	0.31
MS.623         	6.612          	0.379
MS.624         	6.6            	0.284
MS.625         	6.587          	0.306
MS.626         	6.572          	0.31
MS.627         	6.56           	0.278
MS.628         	6.547          	0.286
MS.629         	6.535          	0.254
MS.630         	6.52           	0.266
MS.631         	6.507          	0.31
MS.632         	6.495          	0.284
MS.633         	6.483          	0.214
MS.634         	6.47           	0.248
MS.635         	6.455          	0.324
MS.636         	6.442          	0.234
MS.637         	6.43           	0.33
MS.638         	6.418          	0.298
MS.639         	6.405          	0.27
MS.640         	6.392          	0.201
MS.641         	6.38           	0.207
MS.642         	6.367          	0.23
MS.643         	6.352          	0.29
MS.644         	6.34           	0.232
MS.645         	6.327          	0.316
MS.646         	6.315          	0.242
MS.647         	6.302          	0.218
MS.648         	6.29           	0.238
MS.649         	6.277          	0.296
MS.650         	6.265          	0.308
MS.651         	6.253          	0.244
MS.652         	6.24           	0.214
MS.653         	6.227          	0.183
MS.654         	6.215          	0.183
MS.655         	6.202          	0.27
MS.656         	6.19           	0.211
MS.657         	6.177          	0.165
MS.658         	6.165          	0.191
MS.659         	6.152          	0.209
MS.660         	6.142          	0.165
MS.661         	6.13           	0.199
MS.662         	6.117          	0.181
MS.663         	6.105          	0.199
MS.664         	6.092          	0.123
MS.665         	6.08           	0.187
MS.666         	6.067          	0.177
MS.667         	6.055          	0.189
MS.668         	6.045          	0.224
MS.669         	6.032          	0.246
MS.670         	6.02           	0.165
MS.671         	6.007          	0.163
MS.672         	5.995          	0.22
MS.673         	5.983          	0.171
MS.674         	5.972          	0.163
MS.675         	5.96           	0.161
MS.676         	5.947          	0.216
MS.677         	5.935          	0.155
MS.678         	5.925          	0.177
MS.679         	5.912          	0.236
MS.680         	5.9            	0.121
MS.681         	5.887          	0.139
MS.682         	5.878          	0.155
MS.683         	5.865          	0.203
MS.684         	5.852          	0.199
MS.685         	5.842          	0.181
MS.686         	5.83           	0.26
MS.687         	5.817          	0.115
MS.688         	5.807          	0.117
MS.689         	5.795          	0.173
MS.690         	5.782          	0.147
MS.691         	5.773          	0.133
MS.692         	5.76           	0.139
MS.693         	5.75           	0.127
MS.694         	5.737          	0.121
MS.695         	5.725          	0.157
MS.696         	5.715          	0.139
MS.697         	5.702          	0.135
MS.698         	5.692          	0.141
MS.699         	5.68           	0.133
MS.700         	5.67           	0.145
MS.701         	5.657          	0.129
MS.702         	5.648          	0.105
MS.703         	5.635          	0.123
MS.704         	5.625          	0.121
MS.705         	5.612          	0.103
MS.706         	5.602          	0.143
MS.707         	5.59           	0.133
MS.708         	5.58           	0.141
MS.709         	5.567          	0.123
MS.710         	5.557          	0.127
MS.711         	5.545          	0.151
MS.712         	5.535          	0.165
MS.713         	5.523          	0.127
MS.714         	5.512          	0.123
MS.715         	5.503          	0.131
MS.716         	5.49           	0.123
MS.717         	5.48           	0.127
MS.718         	5.467          	0.111
MS.719         	5.457          	0.131
MS.720         	5.447          	0.125
MS.721         	5.435          	0.125
MS.722         	5.425          	0.129
MS.723         	5.415          	0.101
MS.724         	5.402          	0.125
MS.725         	5.392          	0.129
MS.726         	5.382          	0.127
MS.727         	5.37           	0.103
MS.728         	5.36           	0.099
MS.729         	5.35           	0.095
MS.730         	5.34           	0.099
MS.731         	5.327          	0.123
MS.732         	5.318          	0.135
MS.733         	5.307          	0.115
MS.734         	5.297          	0.131
MS.735         	5.285          	0.125
MS.736         	5.275          	0.093
MS.737         	5.265          	0.125
MS.738         	5.255          	0.095
MS.739         	5.245          	0.093
MS.740         	5.233          	0.095
MS.741         	5.222          	0.095
MS.742         	5.213          	0.101
MS.743         	5.202          	0.099
MS.744         	5.193          	0.093
MS.745         	5.18           	0.121
MS.746         	5.17           	0.095
MS.747         	5.16           	0.099
MS.748         	5.15           	0.101
MS.749         	5.14           	0.095
MS.750         	5.13           	0.103
MS.751         	5.12           	0.115
MS.752         	5.11           	0.095
MS.753         	5.1            	0.091
MS.754         	5.09           	0.091
MS.755         	5.077          	0.091
MS.756         	5.068          	0.095
MS.757         	5.057          	0.095
MS.758         	5.047          	0.099
MS.759         	5.037          	0.093
MS.760         	5.027          	0.093
MS.761         	5.017          	0.093
MS.762         	5.007          	0.095
MS.763         	4.997          	0.095
MS.764         	4.987          	0.099
MS.765         	4.977          	0.097
MS.766         	4.967          	0.095
MS.767         	4.957          	0.093
MS.768         	4.947          	0.093
MS.769         	4.938          	0.095
MS.770         	4.927          	0.087
MS.771         	4.918          	0.093
MS.772         	4.91           	0.095
MS.773         	4.9            	0.093
MS.774         	4.89           	0.091
MS.775         	4.88           	0.093
MS.776         	4.87           	0.091
MS.777         	4.86           	0.093
MS.778         	4.85           	0.091
MS.779         	4.84           	0.085
MS.780         	4.83           	0.093
MS.781         	4.822          	0.089
MS.782         	4.812          	0.093
MS.783         	4.802          	0.095
MS.784         	4.793          	0.087
MS.785         	4.782          	0.093
MS.786         	4.773          	0.085
MS.787         	4.765          	0.087
MS.788         	4.755          	0.087
MS.789         	4.745          	0.093
MS.790         	4.735          	0.091
MS.791         	4.725          	0.091
MS.792         	4.717          	0.087
MS.793         	4.707          	0.087
MS.794         	4.697          	0.093
MS.795         	4.688          	0.089
MS.796         	4.68           	0.089
MS.797         	4.67           	0.089
MS.798         	4.66           	0.087
MS.799         	4.65           	0.089
MS.800         	4.642          	0.089
MS.801         	4.632          	0.087
MS.802         	4.622          	0.091
MS.803         	4.612          	0.085
MS.804         	4.605          	0.089
MS.805         	4.595          	0.085
MS.806         	4.585          	0.089
MS.807         	4.577          	0.085
MS.808         	4.568          	0.085
MS.809         	4.557          	0.083
MS.810         	4.55           	0.087
MS.811         	4.54           	0.087
MS.812         	4.532          	0.093
MS.813         	4.523          	0.085
MS.814         	4.512          	0.089
MS.815         	4.505          	0.085
MS.816         	4.495          	0.083
MS.817         	4.487          	0.083
MS.818         	4.477          	0.089
MS.819         	4.467          	0.085
MS.820         	4.46           	0.085
MS.821         	4.45           	0.081
MS.822         	4.443          	0.089
MS.823         	4.432          	0.089
MS.824         	4.425          	0.085
MS.825         	4.415          	0.087
MS.826         	4.407          	0.089
MS.827         	4.398          	0.087
MS.828         	4.387          	0.095
MS.829         	4.38           	0.081
MS.830         	4.37           	0.079
MS.831         	4.362          	0.081
MS.832         	4.355          	0.081
MS.833         	4.345          	0.083
MS.834         	4.338          	0.103
MS.835         	4.327          	0.087
MS.836         	4.32           	0.083
MS.837         	4.31           	0.083
MS.838         	4.302          	0.091
MS.839         	4.293          	0.089
MS.840         	4.285          	0.068
MS.841         	4.275          	0.089
MS.842         	4.267          	0.081
MS.843         	4.26           	0.087
MS.844         	4.25           	0.081
MS.845         	4.242          	0.079
MS.846         	4.233          	0.079
MS.847         	4.225          	0.087
MS.848         	4.217          	0.077
MS.849         	4.207          	0.083
MS.850         	4.2            	0.083
MS.851         	4.193          	0.085
MS.852         	4.182          	0.087
MS.853         	4.175          	0.081
MS.854         	4.168          	0.085
MS.855         	4.157          	0.083
MS.856         	4.15           	0.083
MS.857         	4.142          	0.085
MS.858         	4.132          	0.085
MS.859         	4.125          	0.075
MS.860         	4.117          	0.079
MS.861         	4.108          	0.081
MS.862         	4.1            	0.079
MS.863         	4.092          	0.079
MS.864         	4.085          	0.081
MS.865         	4.075          	0.083
MS.866         	4.068          	0.085
MS.867         	4.06           	0.079
MS.868         	4.052          	0.081
MS.869         	4.043          	0.079
MS.870         	4.035          	0.083
MS.871         	4.027          	0.081
MS.872         	4.02           	0.083
MS.873         	4.01           	0.077
MS.874         	4.003          	0.081
MS.875         	3.995          	0.081
MS.876         	3.987          	0.083
MS.877         	3.98           	0.079
MS.878         	3.97           	0.081
MS.879         	3.962          	0.083
MS.880         	3.955          	0.077
MS.881         	3.947          	0.081
MS.882         	3.94           	0.081
MS.883         	3.932          	0.083
MS.884         	3.922          	0.081
MS.885         	3.915          	0.07
MS.886         	3.908          	0.085
MS.887         	3.9            	0.056
MS.888         	3.892          	0.075
MS.889         	3.885          	0.077
MS.890         	3.877          	0.095
MS.891         	3.87           	0.075
MS.892         	3.862          	0.125
MS.893         	3.852          	0.073
MS.894         	3.845          	0.105
MS.895         	3.837          	0.111
MS.896         	3.83           	0.068
MS.897         	3.822          	0.111
MS.898         	3.815          	0.101
MS.899         	3.807          	0.066
MS.900         	3.8            	0.093
MS.901         	3.793          	0.062
MS.902         	3.785          	0.095
MS.903         	3.777          	0.081
MS.904         	3.77           	0.081
MS.905         	3.762          	0.075
MS.906         	3.755          	0.064
MS.907         	3.747          	0.091
MS.908         	3.74           	0.097
MS.909         	3.732          	0.097
MS.910         	3.725          	0.073
MS.911         	3.717          	0.075
MS.912         	3.71           	0.107
MS.913         	3.702          	0.091
MS.914         	3.695          	0.068
MS.915         	3.688          	0.075
MS.916         	3.68           	0.081
MS.917         	3.672          	0.077
MS.918         	3.665          	0.097
MS.919         	3.658          	0.099
MS.920         	3.65           	0.062
MS.921         	3.645          	0.068
MS.922         	3.637          	0.085
MS.923         	3.63           	0.117
MS.924         	3.622          	0.073
MS.925         	3.615          	0.075
MS.926         	3.607          	0.079
MS.927         	3.6            	0.077
MS.928         	3.592          	0.07
MS.929         	3.585          	0.107
MS.930         	3.58           	0.068
MS.931         	3.572          	0.073
MS.932         	3.565          	0.073
MS.933         	3.557          	0.068
MS.934         	3.55           	0.079
MS.935         	3.543          	0.077
MS.936         	3.535          	0.079
MS.937         	3.53           	0.087
MS.938         	3.523          	0.077
MS.939         	3.515          	0.073
MS.940         	3.507          	0.068
MS.941         	3.5            	0.083
MS.942         	3.495          	0.07
MS.943         	3.487          	0.075
MS.944         	3.48           	0.07
MS.945         	3.472          	0.075
MS.946         	3.465          	0.093
MS.947         	3.46           	0.075
MS.948         	3.452          	0.068
MS.949         	3.445          	0.07
MS.950         	3.438          	0.075
MS.951         	3.432          	0.075
MS.952         	3.425          	0.079
MS.953         	3.418          	0.066
MS.954         	3.41           	0.073
MS.955         	3.405          	0.075
MS.956         	3.398          	0.07
MS.957         	3.39           	0.075
MS.958         	3.385          	0.077
MS.959         	3.377          	0.07
DERIVED EXCITABILITY VARIABLES
Program = QTracP 9/10/2021
Threshold method = 6 (optimised for CAP, using data for present condition only)
SR method = 1 (using actual data values)
6.                 	0.000               	Peak response\(mV)
9.                 	34                  	Temperature ( C)
17.                	80                  	Age (years)
18.                	2                   	Sex (M=1, F=2)

EXTRA VARIABLES

MScPeak(mV) = 6.04
MScS5(mA) = 6.51
MScS50(mA) = 9.47
MScS95(mA) = 13.96
MScNSteps = 1
MScSteps(%) = 2.9
MScStepMax(%) = 2.9
MScD50 = 61
MScSlope = 3.48
MScDuration(min) = 9.2
MSFTraces = 855
MSFPeakAmp(mV) = 6.02
MSFNUnits = 88
MSFMeanUnitAmp(uV) = 68.4
MSFHuntTime(m) = 3.58
MSFError(%) = 3.23
MSFNLarge = 25.08
MSFMedianAmp(%) = 0.996
MSFMedianAmp(mV) = 0.06
MSFHalfAmpAmp(%) = 1.36
MSFHalfAmpAmp(mV) = 0.0816
MSFLargestAmp(%) = 3.17
MSFLargestAmp(mV) = 0.191
MSFMeanRS(%) = 2
MSFSizeLimit(uV) = 15
MSFLimitType = 1
MSFSmallestAmp(uV) = 18.6
MSFOpts = 10106121

EXTRA WAVEFORMS


!MScan Model
!88
	1	5.38	0.54	2
	2	5.52	0.42	2
	3	6.16	0.88	2
	4	6.21	0.54	2
	5	6.57	1.42	2
	6	6.72	0.79	2
	7	6.89	1.31	2
	8	6.92	0.41	2
	9	6.93	0.31	2
	10	7.08	1.44	2
	11	7.29	2.15	2
	12	7.34	0.4	2
	13	7.43	1.58	2
	14	7.47	0.42	2
	15	7.5	0.65	2
	16	7.67	2.08	2
	17	7.74	1	2
	18	7.76	0.59	2
	19	7.79	1.03	2
	20	7.82	1.24	2
	21	7.87	1.28	2
	22	7.91	1.84	2
	23	7.96	2.81	2
	24	8	0.99	2
	25	8.03	1.46	2
	26	8.14	2.12	2
	27	8.25	0.49	2
	28	8.3	0.88	2
	29	8.52	2	2
	30	8.58	0.74	2
	31	8.63	1.36	2
	32	8.85	2.59	2
	33	8.92	1.31	2
	34	9	2.31	2
	35	9.05	0.94	2
	36	9.12	1.6	2
	37	9.26	1.51	2
	38	9.31	0.39	2
	39	9.33	0.48	2
	40	9.35	0.93	2
	41	9.39	1.39	2
	42	9.57	2.83	2
	43	9.65	2.43	2
	44	9.72	1.42	2
	45	9.76	1.07	2
	46	9.79	0.42	2
	47	9.81	0.38	2
	48	9.95	2.01	2
	49	9.99	0.35	2
	50	10.02	0.68	2
	51	10.12	3	2
	52	10.24	3.17	2
	53	10.29	0.57	2
	54	10.33	0.77	2
	55	10.37	1.38	2
	56	10.41	1.1	2
	57	10.48	1	2
	58	10.57	1.28	2
	59	10.62	0.96	2
	60	10.66	0.91	2
	61	10.69	0.67	2
	62	10.72	1.01	2
	63	10.75	0.98	2
	64	10.78	1.61	2
	65	10.86	1.01	1.8
	66	10.98	2.02	2
	67	11.02	0.36	2
	68	11.05	0.33	2
	69	11.31	1.25	2
	70	11.52	1.26	2
	71	11.88	0.71	2
	72	12.25	1.16	2
	73	12.33	0.44	2
	74	12.49	0.9	2
	75	12.65	0.44	2
	76	12.77	0.56	2
	77	12.89	0.67	2
	78	13.05	0.98	2
	79	13.14	0.54	2
	80	13.19	0.61	2
	81	13.32	1.24	2
	82	13.65	1.69	2
	83	14.69	1.24	2
	84	16.34	0.99	2
	85	16.66	0.32	2
	86	17.19	0.72	2
	87	18.82	1.09	2
	88	19.45	0.81	2

