File:              	C:\Qtrac\Data\Daniel M Sørensen\MScan multicentre study\Data from centres\Aarhus\Processed data\DMSB91206C.QZD
Name:              	DK.AAR.NC.9.1
Protocol:          	MSCAN-R2
Date:              	6/12/19
Start time:        	10:39:51
Age:               	74
Sex:               	m
Temperature:       	32,7
S/R sites:         	TA
NC/disease:        	Control
Operator:          	DS
Comments:
M-SCAN DATA (5.6-0.0m)
Scanpts: 8, 18, 751, 774
Stim. (mA)     	Amp. (mV)
MS.1           	37.5           	4.498
MS.2           	37.5           	4.602
MS.3           	37.35          	4.576
MS.4           	37.2           	4.522
MS.5           	37.127         	4.504
MS.6           	37.052         	4.622
MS.7           	36.978         	4.51
MS.8           	36.905         	4.526
MS.9           	36.83          	4.536
MS.10          	36.757         	4.524
MS.11          	36.685         	4.486
MS.12          	36.61          	4.506
MS.13          	36.537         	4.459
MS.14          	36.465         	4.5
MS.15          	36.392         	4.451
MS.16          	36.32          	4.502
MS.17          	36.247         	4.516
MS.18          	36.175         	4.475
MS.19          	36.103         	4.532
MS.20          	36.03          	4.455
MS.21          	35.958         	4.473
MS.22          	35.885         	4.512
MS.23          	35.815         	4.488
MS.24          	35.743         	4.427
MS.25          	35.67          	4.49
MS.26          	35.6           	4.52
MS.27          	35.528         	4.506
MS.28          	35.458         	4.56
MS.29          	35.388         	4.451
MS.30          	35.315         	4.522
MS.31          	35.245         	4.512
MS.32          	35.175         	4.469
MS.33          	35.105         	4.441
MS.34          	35.035         	4.482
MS.35          	34.965         	4.433
MS.36          	34.895         	4.504
MS.37          	34.825         	4.488
MS.38          	34.755         	4.475
MS.39          	34.685         	4.449
MS.40          	34.618         	4.465
MS.41          	34.548         	4.52
MS.42          	34.478         	4.49
MS.43          	34.41          	4.433
MS.44          	34.34          	4.455
MS.45          	34.272         	4.532
MS.46          	34.205         	4.457
MS.47          	34.135         	4.451
MS.48          	34.068         	4.445
MS.49          	34             	4.443
MS.50          	33.93          	4.443
MS.51          	33.862         	4.463
MS.52          	33.795         	4.514
MS.53          	33.728         	4.453
MS.54          	33.66          	4.405
MS.55          	33.592         	4.425
MS.56          	33.528         	4.423
MS.57          	33.46          	4.401
MS.58          	33.392         	4.397
MS.59          	33.325         	4.427
MS.60          	33.26          	4.439
MS.61          	33.193         	4.365
MS.62          	33.127         	4.387
MS.63          	33.06          	4.349
MS.64          	32.995         	4.32
MS.65          	32.927         	4.421
MS.66          	32.862         	4.336
MS.67          	32.798         	4.395
MS.68          	32.732         	4.395
MS.69          	32.665         	4.355
MS.70          	32.6           	4.288
MS.71          	32.535         	4.351
MS.72          	32.47          	4.341
MS.73          	32.405         	4.322
MS.74          	32.34          	4.359
MS.75          	32.278         	4.349
MS.76          	32.212         	4.296
MS.77          	32.147         	4.294
MS.78          	32.083         	4.314
MS.79          	32.02          	4.318
MS.80          	31.955         	4.336
MS.81          	31.892         	4.341
MS.82          	31.827         	4.399
MS.83          	31.765         	4.33
MS.84          	31.7           	4.222
MS.85          	31.637         	4.278
MS.86          	31.575         	4.276
MS.87          	31.51          	4.238
MS.88          	31.448         	4.22
MS.89          	31.385         	4.236
MS.90          	31.323         	4.28
MS.91          	31.26          	4.216
MS.92          	31.198         	4.244
MS.93          	31.135         	4.274
MS.94          	31.073         	4.238
MS.95          	31.01          	4.282
MS.96          	30.95          	4.242
MS.97          	30.887         	4.193
MS.98          	30.825         	4.202
MS.99          	30.762         	4.29
MS.100         	30.702         	4.244
MS.101         	30.64          	4.185
MS.102         	30.58          	4.228
MS.103         	30.517         	4.268
MS.104         	30.457         	4.163
MS.105         	30.397         	4.204
MS.106         	30.335         	4.218
MS.107         	30.275         	4.169
MS.108         	30.215         	4.206
MS.109         	30.155         	4.24
MS.110         	30.095         	4.191
MS.111         	30.035         	4.206
MS.112         	29.975         	4.23
MS.113         	29.915         	4.165
MS.114         	29.855         	4.173
MS.115         	29.795         	4.21
MS.116         	29.735         	4.141
MS.117         	29.675         	4.185
MS.118         	29.617         	4.198
MS.119         	29.557         	4.171
MS.120         	29.497         	4.159
MS.121         	29.44          	4.093
MS.122         	29.38          	4.117
MS.123         	29.323         	4.107
MS.124         	29.262         	4.139
MS.125         	29.205         	4.139
MS.126         	29.147         	4.101
MS.127         	29.087         	4.079
MS.128         	29.03          	4.101
MS.129         	28.972         	4.109
MS.130         	28.915         	4.034
MS.131         	28.858         	4.117
MS.132         	28.8           	4.028
MS.133         	28.743         	4.036
MS.134         	28.685         	3.932
MS.135         	28.627         	4.042
MS.136         	28.57          	4.01
MS.137         	28.512         	4.083
MS.138         	28.455         	4.105
MS.139         	28.397         	4.067
MS.140         	28.342         	4.052
MS.141         	28.285         	4.006
MS.142         	28.227         	4.02
MS.143         	28.172         	4.061
MS.144         	28.115         	4.075
MS.145         	28.06          	4.048
MS.146         	28.002         	4.087
MS.147         	27.948         	4.038
MS.148         	27.892         	4.105
MS.149         	27.835         	4.008
MS.150         	27.78          	4.061
MS.151         	27.725         	4.042
MS.152         	27.67          	4.004
MS.153         	27.615         	3.946
MS.154         	27.56          	3.964
MS.155         	27.505         	4.012
MS.156         	27.45          	4.044
MS.157         	27.395         	3.93
MS.158         	27.34          	3.926
MS.159         	27.285         	3.932
MS.160         	27.23          	4.002
MS.161         	27.175         	3.911
MS.162         	27.122         	3.962
MS.163         	27.067         	3.946
MS.164         	27.012         	3.869
MS.165         	26.96          	3.895
MS.166         	26.905         	3.942
MS.167         	26.852         	3.805
MS.168         	26.797         	3.956
MS.169         	26.745         	3.901
MS.170         	26.692         	3.92
MS.171         	26.637         	3.893
MS.172         	26.585         	3.924
MS.173         	26.532         	3.837
MS.174         	26.477         	3.809
MS.175         	26.425         	3.857
MS.176         	26.372         	3.783
MS.177         	26.32          	3.877
MS.178         	26.267         	3.809
MS.179         	26.215         	3.865
MS.180         	26.162         	3.863
MS.181         	26.11          	3.787
MS.182         	26.057         	3.795
MS.183         	26.005         	3.758
MS.184         	25.955         	3.771
MS.185         	25.903         	3.72
MS.186         	25.85          	3.787
MS.187         	25.8           	3.766
MS.188         	25.747         	3.815
MS.189         	25.695         	3.764
MS.190         	25.645         	3.726
MS.191         	25.592         	3.726
MS.192         	25.542         	3.76
MS.193         	25.493         	3.728
MS.194         	25.44          	3.748
MS.195         	25.39          	3.734
MS.196         	25.34          	3.73
MS.197         	25.288         	3.698
MS.198         	25.237         	3.764
MS.199         	25.188         	3.748
MS.200         	25.137         	3.775
MS.201         	25.087         	3.777
MS.202         	25.038         	3.762
MS.203         	24.987         	3.752
MS.204         	24.938         	3.702
MS.205         	24.887         	3.742
MS.206         	24.837         	3.662
MS.207         	24.788         	3.716
MS.208         	24.737         	3.692
MS.209         	24.688         	3.724
MS.210         	24.64          	3.726
MS.211         	24.59          	3.734
MS.212         	24.54          	3.646
MS.213         	24.493         	3.69
MS.214         	24.442         	3.589
MS.215         	24.395         	3.694
MS.216         	24.345         	3.702
MS.217         	24.297         	3.678
MS.218         	24.247         	3.466
MS.219         	24.2           	3.541
MS.220         	24.153         	3.692
MS.221         	24.102         	3.74
MS.222         	24.055         	3.579
MS.223         	24.007         	3.726
MS.224         	23.96          	3.581
MS.225         	23.91          	3.744
MS.226         	23.862         	3.621
MS.227         	23.815         	3.543
MS.228         	23.767         	3.686
MS.229         	23.72          	3.577
MS.230         	23.672         	3.595
MS.231         	23.625         	3.515
MS.232         	23.577         	3.533
MS.233         	23.532         	3.585
MS.234         	23.485         	3.644
MS.235         	23.438         	3.722
MS.236         	23.39          	3.535
MS.237         	23.345         	3.404
MS.238         	23.297         	3.543
MS.239         	23.25          	3.428
MS.240         	23.205         	3.484
MS.241         	23.157         	3.573
MS.242         	23.112         	3.497
MS.243         	23.065         	3.531
MS.244         	23.02          	3.557
MS.245         	22.972         	3.666
MS.246         	22.927         	3.42
MS.247         	22.882         	3.654
MS.248         	22.835         	3.466
MS.249         	22.79          	3.525
MS.250         	22.745         	3.434
MS.251         	22.7           	3.422
MS.252         	22.655         	3.571
MS.253         	22.608         	3.408
MS.254         	22.562         	3.408
MS.255         	22.517         	3.422
MS.256         	22.472         	3.448
MS.257         	22.427         	3.432
MS.258         	22.385         	3.4
MS.259         	22.34          	3.43
MS.260         	22.295         	3.426
MS.261         	22.25          	3.414
MS.262         	22.205         	3.46
MS.263         	22.16          	3.404
MS.264         	22.118         	3.362
MS.265         	22.073         	3.335
MS.266         	22.028         	3.412
MS.267         	21.985         	3.38
MS.268         	21.94          	3.372
MS.269         	21.897         	3.495
MS.270         	21.852         	3.358
MS.271         	21.81          	3.291
MS.272         	21.765         	3.442
MS.273         	21.722         	3.362
MS.274         	21.68          	3.315
MS.275         	21.635         	3.315
MS.276         	21.592         	3.396
MS.277         	21.55          	3.404
MS.278         	21.505         	3.362
MS.279         	21.462         	3.352
MS.280         	21.42          	3.319
MS.281         	21.377         	3.458
MS.282         	21.335         	3.319
MS.283         	21.292         	3.424
MS.284         	21.25          	3.462
MS.285         	21.208         	3.362
MS.286         	21.165         	3.428
MS.287         	21.122         	3.422
MS.288         	21.08          	3.372
MS.289         	21.038         	3.422
MS.290         	20.995         	3.424
MS.291         	20.955         	3.358
MS.292         	20.913         	3.404
MS.293         	20.87          	3.436
MS.294         	20.83          	3.356
MS.295         	20.788         	3.341
MS.296         	20.745         	3.418
MS.297         	20.705         	3.462
MS.298         	20.663         	3.352
MS.299         	20.622         	3.39
MS.300         	20.58          	3.422
MS.301         	20.54          	3.392
MS.302         	20.497         	3.366
MS.303         	20.458         	3.321
MS.304         	20.417         	3.404
MS.305         	20.375         	3.422
MS.306         	20.335         	3.38
MS.307         	20.295         	3.414
MS.308         	20.252         	3.388
MS.309         	20.212         	3.414
MS.310         	20.172         	3.376
MS.311         	20.132         	3.404
MS.312         	20.092         	3.42
MS.313         	20.052         	3.36
MS.314         	20.012         	3.368
MS.315         	19.972         	3.392
MS.316         	19.932         	3.323
MS.317         	19.892         	3.368
MS.318         	19.852         	3.356
MS.319         	19.812         	3.388
MS.320         	19.772         	3.311
MS.321         	19.735         	3.348
MS.322         	19.695         	3.35
MS.323         	19.655         	3.344
MS.324         	19.615         	3.293
MS.325         	19.577         	3.38
MS.326         	19.538         	3.331
MS.327         	19.497         	3.321
MS.328         	19.46          	3.323
MS.329         	19.42          	3.37
MS.330         	19.382         	3.331
MS.331         	19.342         	3.327
MS.332         	19.305         	3.333
MS.333         	19.265         	3.295
MS.334         	19.227         	3.307
MS.335         	19.19          	3.335
MS.336         	19.15          	3.362
MS.337         	19.112         	3.285
MS.338         	19.075         	3.241
MS.339         	19.035         	3.243
MS.340         	18.997         	3.325
MS.341         	18.96          	3.251
MS.342         	18.922         	3.253
MS.343         	18.885         	3.126
MS.344         	18.847         	3.219
MS.345         	18.81          	3.297
MS.346         	18.772         	3.14
MS.347         	18.735         	3.203
MS.348         	18.698         	3.207
MS.349         	18.66          	3.243
MS.350         	18.622         	3.243
MS.351         	18.585         	3.104
MS.352         	18.547         	3.14
MS.353         	18.51          	3.035
MS.354         	18.472         	3.12
MS.355         	18.438         	2.751
MS.356         	18.4           	2.969
MS.357         	18.362         	2.997
MS.358         	18.327         	3.144
MS.359         	18.29          	3.07
MS.360         	18.253         	3.269
MS.361         	18.217         	2.884
MS.362         	18.18          	3.041
MS.363         	18.145         	2.86
MS.364         	18.108         	2.975
MS.365         	18.073         	2.822
MS.366         	18.035         	2.971
MS.367         	18             	2.912
MS.368         	17.962         	2.929
MS.369         	17.927         	2.874
MS.370         	17.892         	2.747
MS.371         	17.855         	2.826
MS.372         	17.82          	3.076
MS.373         	17.785         	2.796
MS.374         	17.75          	2.778
MS.375         	17.712         	2.751
MS.376         	17.677         	2.767
MS.377         	17.642         	2.641
MS.378         	17.608         	2.645
MS.379         	17.573         	2.723
MS.380         	17.538         	2.757
MS.381         	17.503         	2.548
MS.382         	17.467         	2.576
MS.383         	17.432         	2.665
MS.384         	17.397         	2.669
MS.385         	17.362         	2.707
MS.386         	17.327         	2.6
MS.387         	17.292         	2.616
MS.388         	17.26          	2.596
MS.389         	17.225         	2.502
MS.390         	17.19          	2.675
MS.391         	17.155         	2.514
MS.392         	17.122         	2.528
MS.393         	17.087         	2.695
MS.394         	17.052         	2.616
MS.395         	17.02          	2.49
MS.396         	16.985         	2.494
MS.397         	16.95          	2.616
MS.398         	16.917         	2.564
MS.399         	16.882         	2.502
MS.400         	16.85          	2.544
MS.401         	16.815         	2.641
MS.402         	16.782         	2.532
MS.403         	16.75          	2.52
MS.404         	16.715         	2.461
MS.405         	16.682         	2.457
MS.406         	16.65          	2.528
MS.407         	16.615         	2.391
MS.408         	16.583         	2.453
MS.409         	16.55          	2.473
MS.410         	16.515         	2.399
MS.411         	16.483         	2.473
MS.412         	16.45          	2.546
MS.413         	16.417         	2.405
MS.414         	16.385         	2.449
MS.415         	16.352         	2.447
MS.416         	16.32          	2.32
MS.417         	16.288         	2.494
MS.418         	16.255         	2.469
MS.419         	16.222         	2.407
MS.420         	16.19          	2.395
MS.421         	16.157         	2.346
MS.422         	16.125         	2.359
MS.423         	16.092         	2.477
MS.424         	16.06          	2.278
MS.425         	16.028         	2.397
MS.426         	15.995         	2.332
MS.427         	15.965         	2.302
MS.428         	15.932         	2.147
MS.429         	15.9           	2.272
MS.430         	15.867         	2.373
MS.431         	15.837         	2.185
MS.432         	15.805         	2.143
MS.433         	15.773         	2.218
MS.434         	15.742         	2.228
MS.435         	15.71          	2.159
MS.436         	15.68          	1.901
MS.437         	15.648         	1.96
MS.438         	15.617         	1.895
MS.439         	15.585         	1.952
MS.440         	15.555         	1.881
MS.441         	15.523         	1.942
MS.442         	15.492         	2.153
MS.443         	15.46          	1.913
MS.444         	15.43          	1.807
MS.445         	15.4           	1.833
MS.446         	15.37          	1.74
MS.447         	15.337         	1.847
MS.448         	15.307         	1.742
MS.449         	15.277         	1.71
MS.450         	15.247         	1.74
MS.451         	15.215         	1.674
MS.452         	15.185         	1.615
MS.453         	15.155         	1.557
MS.454         	15.125         	1.629
MS.455         	15.095         	1.613
MS.456         	15.065         	1.597
MS.457         	15.035         	1.74
MS.458         	15.005         	1.501
MS.459         	14.975         	1.579
MS.460         	14.945         	1.609
MS.461         	14.915         	1.499
MS.462         	14.885         	1.527
MS.463         	14.855         	1.478
MS.464         	14.825         	1.448
MS.465         	14.795         	1.462
MS.466         	14.765         	1.462
MS.467         	14.737         	1.434
MS.468         	14.707         	1.402
MS.469         	14.677         	1.482
MS.470         	14.648         	1.426
MS.471         	14.62          	1.388
MS.472         	14.59          	1.497
MS.473         	14.56          	1.422
MS.474         	14.532         	1.38
MS.475         	14.502         	1.499
MS.476         	14.475         	1.434
MS.477         	14.445         	1.349
MS.478         	14.415         	1.374
MS.479         	14.387         	1.331
MS.480         	14.358         	1.253
MS.481         	14.33          	1.311
MS.482         	14.3           	1.388
MS.483         	14.273         	1.168
MS.484         	14.245         	1.279
MS.485         	14.215         	1.206
MS.486         	14.188         	1.128
MS.487         	14.16          	1.176
MS.488         	14.13          	1.309
MS.489         	14.102         	1.172
MS.490         	14.075         	1.138
MS.491         	14.045         	1.138
MS.492         	14.017         	1.227
MS.493         	13.99          	1.07
MS.494         	13.962         	1.144
MS.495         	13.935         	1.09
MS.496         	13.905         	1.142
MS.497         	13.877         	1.122
MS.498         	13.85          	1.076
MS.499         	13.822         	1.106
MS.500         	13.795         	1.142
MS.501         	13.767         	1.047
MS.502         	13.74          	0.995
MS.503         	13.712         	1.051
MS.504         	13.685         	1.035
MS.505         	13.657         	0.981
MS.506         	13.63          	0.985
MS.507         	13.602         	1.007
MS.508         	13.577         	0.987
MS.509         	13.55          	0.939
MS.510         	13.523         	0.949
MS.511         	13.495         	0.975
MS.512         	13.467         	0.953
MS.513         	13.443         	0.987
MS.514         	13.415         	0.967
MS.515         	13.387         	0.924
MS.516         	13.36          	0.874
MS.517         	13.335         	0.906
MS.518         	13.307         	0.852
MS.519         	13.28          	0.856
MS.520         	13.255         	0.888
MS.521         	13.227         	0.862
MS.522         	13.202         	0.852
MS.523         	13.175         	0.868
MS.524         	13.15          	0.816
MS.525         	13.122         	0.828
MS.526         	13.097         	0.765
MS.527         	13.07          	0.737
MS.528         	13.045         	0.824
MS.529         	13.017         	0.794
MS.530         	12.992         	0.773
MS.531         	12.965         	0.854
MS.532         	12.94          	0.727
MS.533         	12.915         	0.729
MS.534         	12.887         	0.765
MS.535         	12.862         	0.733
MS.536         	12.837         	0.685
MS.537         	12.812         	0.614
MS.538         	12.785         	0.705
MS.539         	12.76          	0.685
MS.540         	12.735         	0.618
MS.541         	12.71          	0.683
MS.542         	12.685         	0.653
MS.543         	12.657         	0.651
MS.544         	12.632         	0.677
MS.545         	12.608         	0.665
MS.546         	12.582         	0.683
MS.547         	12.557         	0.602
MS.548         	12.532         	0.622
MS.549         	12.507         	0.655
MS.550         	12.483         	0.643
MS.551         	12.457         	0.604
MS.552         	12.432         	0.612
MS.553         	12.407         	0.598
MS.554         	12.382         	0.574
MS.555         	12.358         	0.522
MS.556         	12.332         	0.546
MS.557         	12.31          	0.526
MS.558         	12.285         	0.453
MS.559         	12.26          	0.435
MS.560         	12.235         	0.632
MS.561         	12.21          	0.453
MS.562         	12.188         	0.508
MS.563         	12.162         	0.524
MS.564         	12.137         	0.399
MS.565         	12.113         	0.413
MS.566         	12.09          	0.443
MS.567         	12.065         	0.51
MS.568         	12.04          	0.485
MS.569         	12.017         	0.417
MS.570         	11.992         	0.445
MS.571         	11.97          	0.401
MS.572         	11.945         	0.391
MS.573         	11.922         	0.379
MS.574         	11.898         	0.385
MS.575         	11.875         	0.365
MS.576         	11.85          	0.409
MS.577         	11.827         	0.338
MS.578         	11.802         	0.338
MS.579         	11.78          	0.385
MS.580         	11.755         	0.314
MS.581         	11.733         	0.31
MS.582         	11.71          	0.332
MS.583         	11.685         	0.288
MS.584         	11.662         	0.296
MS.585         	11.637         	0.302
MS.586         	11.615         	0.322
MS.587         	11.592         	0.264
MS.588         	11.57          	0.306
MS.589         	11.545         	0.26
MS.590         	11.523         	0.284
MS.591         	11.5           	0.322
MS.592         	11.477         	0.286
MS.593         	11.455         	0.26
MS.594         	11.43          	0.218
MS.595         	11.407         	0.276
MS.596         	11.385         	0.278
MS.597         	11.363         	0.141
MS.598         	11.34          	0.163
MS.599         	11.318         	0.25
MS.600         	11.295         	0.171
MS.601         	11.273         	0.189
MS.602         	11.25          	0.211
MS.603         	11.227         	0.27
MS.604         	11.205         	0.139
MS.605         	11.182         	0.133
MS.606         	11.16          	0.214
MS.607         	11.137         	0.147
MS.608         	11.115         	0.207
MS.609         	11.092         	0.155
MS.610         	11.07          	0.149
MS.611         	11.05          	0.179
MS.612         	11.028         	0.131
MS.613         	11.005         	0.127
MS.614         	10.983         	0.091
MS.615         	10.96          	0.119
MS.616         	10.94          	0.081
MS.617         	10.917         	0.137
MS.618         	10.895         	0.129
MS.619         	10.872         	0.099
MS.620         	10.852         	0.105
MS.621         	10.83          	0.131
MS.622         	10.807         	0.141
MS.623         	10.787         	0.131
MS.624         	10.765         	0.125
MS.625         	10.745         	0.064
MS.626         	10.722         	0.062
MS.627         	10.7           	0.066
MS.628         	10.68          	0.145
MS.629         	10.657         	0.06
MS.630         	10.637         	0.062
MS.631         	10.615         	0.066
MS.632         	10.595         	0.052
MS.633         	10.573         	0.064
MS.634         	10.552         	0.052
MS.635         	10.53          	0.093
MS.636         	10.51          	0.075
MS.637         	10.49          	0.107
MS.638         	10.467         	0.052
MS.639         	10.448         	0.056
MS.640         	10.427         	0.054
MS.641         	10.405         	0.062
MS.642         	10.385         	0.083
MS.643         	10.365         	0.095
MS.644         	10.342         	0.091
MS.645         	10.323         	0.083
MS.646         	10.302         	0.087
MS.647         	10.282         	0.044
MS.648         	10.26          	0.052
MS.649         	10.24          	0.056
MS.650         	10.22          	0.079
MS.651         	10.2           	0.077
MS.652         	10.18          	0.068
MS.653         	10.16          	0.058
MS.654         	10.137         	0.081
MS.655         	10.117         	0.07
MS.656         	10.097         	0.062
MS.657         	10.077         	0.064
MS.658         	10.057         	0.034
MS.659         	10.037         	0.068
MS.660         	10.017         	0.064
MS.661         	9.997          	0.034
MS.662         	9.977          	0.04
MS.663         	9.957          	0.056
MS.664         	9.938          	0.046
MS.665         	9.917          	0.044
MS.666         	9.898          	0.06
MS.667         	9.877          	0.06
MS.668         	9.858          	0.066
MS.669         	9.84           	0.066
MS.670         	9.82           	0.052
MS.671         	9.8            	0.052
MS.672         	9.78           	0.056
MS.673         	9.76           	0.048
MS.674         	9.74           	0.032
MS.675         	9.722          	0.034
MS.676         	9.702          	0.04
MS.677         	9.682          	0.036
MS.678         	9.662          	0.034
MS.679         	9.645          	0.044
MS.680         	9.625          	0.026
MS.681         	9.605          	0.04
MS.682         	9.587          	0.064
MS.683         	9.568          	0.036
MS.684         	9.547          	0.068
MS.685         	9.53           	0.034
MS.686         	9.51           	0.038
MS.687         	9.49           	0.044
MS.688         	9.472          	0.032
MS.689         	9.452          	0.024
MS.690         	9.435          	0.02
MS.691         	9.415          	0.024
MS.692         	9.398          	0.022
MS.693         	9.377          	0.018
MS.694         	9.36           	0.01
MS.695         	9.34           	0.034
MS.696         	9.323          	0.026
MS.697         	9.302          	0.022
MS.698         	9.285          	0.028
MS.699         	9.265          	0.02
MS.700         	9.247          	0.026
MS.701         	9.23           	0.024
MS.702         	9.21           	0.002
MS.703         	9.193          	-0.004
MS.704         	9.172          	0.03
MS.705         	9.155          	0.038
MS.706         	9.137          	0.01
MS.707         	9.12           	0.000
MS.708         	9.1            	0.014
MS.709         	9.082          	0.000
MS.710         	9.065          	0.02
MS.711         	9.045          	0.03
MS.712         	9.028          	0.135
MS.713         	9.01           	-0.028
MS.714         	8.992          	0.022
MS.715         	8.975          	0.018
MS.716         	8.955          	0.014
MS.717         	8.938          	0.018
MS.718         	8.92           	0.018
MS.719         	8.903          	0.028
MS.720         	8.885          	0.008
MS.721         	8.867          	0.000
MS.722         	8.85           	-0.006
MS.723         	8.832          	0.000
MS.724         	8.815          	-0.008
MS.725         	8.797          	-0.004
MS.726         	8.78           	0.026
MS.727         	8.76           	-0.004
MS.728         	8.742          	0.002
MS.729         	8.727          	-0.014
MS.730         	8.71           	0.042
MS.731         	8.693          	-0.002
MS.732         	8.675          	0.095
MS.733         	8.658          	-0.004
MS.734         	8.64           	0.01
MS.735         	8.622          	0.000
MS.736         	8.605          	-0.002
MS.737         	8.587          	-0.014
MS.738         	8.57           	-0.002
MS.739         	8.552          	0.006
MS.740         	8.537          	-0.004
MS.741         	8.52           	-0.01
MS.742         	8.502          	-0.008
MS.743         	8.485          	-0.01
MS.744         	8.467          	-0.002
MS.745         	8.452          	-0.006
MS.746         	8.435          	-0.004
MS.747         	8.417          	0.006
MS.748         	8.4            	0.002
MS.749         	8.385          	-0.008
MS.750         	8.367          	-0.002
MS.751         	8.35           	0.000
MS.752         	8.335          	-0.006
MS.753         	8.318          	-0.012
MS.754         	8.3            	0.004
MS.755         	8.285          	-0.004
MS.756         	8.267          	0.000
MS.757         	8.25           	-0.014
MS.758         	8.235          	-0.006
MS.759         	8.217          	-0.01
MS.760         	8.202          	-0.004
MS.761         	8.185          	0.012
MS.762         	8.17           	-0.008
MS.763         	8.153          	-0.01
MS.764         	8.137          	-0.008
MS.765         	8.12           	0.002
MS.766         	8.105          	-0.01
MS.767         	8.087          	-0.014
MS.768         	8.073          	-0.004
MS.769         	8.055          	-0.01
MS.770         	8.04           	-0.01
MS.771         	8.023          	-0.004
MS.772         	8.007          	-0.018
MS.773         	7.99           	0.002
MS.774         	7.975          	0.000
MS.775         	7.96           	-0.01
MS.776         	7.942          	-0.006
MS.777         	7.927          	-0.002
MS.778         	7.912          	-0.006
MS.779         	7.895          	-0.01
MS.780         	7.88           	0.000
MS.781         	7.865          	0.012
MS.782         	7.847          	0.000
MS.783         	7.832          	0.000
MS.784         	7.817          	0.01
MS.785         	7.802          	-0.004
MS.786         	7.785          	-0.012
MS.787         	7.77           	0.006
MS.788         	7.755          	0.016
MS.789         	7.74           	-0.004
MS.790         	7.725          	-0.008
MS.791         	7.707          	-0.01
MS.792         	7.692          	0.000
MS.793         	7.677          	-0.006
MS.794         	7.662          	-0.014
MS.795         	7.648          	0.000
MS.796         	7.632          	0.054
MS.797         	7.617          	-0.008
MS.798         	7.602          	-0.008
MS.799         	7.585          	-0.004
MS.800         	7.57           	-0.002
MS.801         	7.555          	0.081
MS.802         	7.54           	-0.03
MS.803         	7.525          	-0.002
MS.804         	7.51           	0.032
MS.805         	7.495          	-0.016
MS.806         	7.48           	-0.012
MS.807         	7.465          	-0.002
MS.808         	7.45           	-0.006
MS.809         	7.435          	0.018
MS.810         	7.42           	0.012
MS.811         	7.407          	-0.008
MS.812         	7.392          	-0.008
MS.813         	7.378          	0.026
MS.814         	7.362          	-0.012
MS.815         	7.347          	0.058
MS.816         	7.332          	-0.002
MS.817         	7.317          	-0.024
MS.818         	7.302          	-0.01
MS.819         	7.29           	-0.012
MS.820         	7.275          	0.103
MS.821         	7.26           	-0.004
MS.822         	7.245          	0.008
MS.823         	7.23           	0.032
MS.824         	7.217          	0.01
MS.825         	7.202          	0.006
MS.826         	7.188          	-0.008
MS.827         	7.172          	0.000
MS.828         	7.16           	0.089
MS.829         	7.145          	-0.01
MS.830         	7.13           	-0.004
MS.831         	7.115          	0.000
MS.832         	7.102          	-0.01
MS.833         	7.087          	-0.01
MS.834         	7.072          	0.000
MS.835         	7.06           	-0.024
MS.836         	7.045          	-0.002
MS.837         	7.03           	-0.01
MS.838         	7.017          	-0.008
MS.839         	7.003          	-0.012
MS.840         	6.99           	-0.006
MS.841         	6.975          	0.002
MS.842         	6.96           	0.002
MS.843         	6.947          	0.01
MS.844         	6.932          	0.04
MS.845         	6.92           	-0.01
MS.846         	6.905          	-0.002
MS.847         	6.892          	-0.01
MS.848         	6.878          	0.012
MS.849         	6.865          	0.004
MS.850         	6.85           	-0.006
MS.851         	6.837          	-0.002
MS.852         	6.822          	0.01
MS.853         	6.81           	0.002
MS.854         	6.795          	-0.002
MS.855         	6.782          	-0.006
MS.856         	6.77           	0.000
MS.857         	6.755          	0.006
MS.858         	6.742          	-0.008
MS.859         	6.727          	-0.002
MS.860         	6.715          	0.032
MS.861         	6.702          	0.016
MS.862         	6.688          	0.002
MS.863         	6.675          	-0.012
MS.864         	6.662          	-0.002
MS.865         	6.648          	0.002
MS.866         	6.635          	-0.006
MS.867         	6.622          	-0.016
MS.868         	6.608          	-0.006
MS.869         	6.595          	-0.006
MS.870         	6.582          	0.01
MS.871         	6.57           	0.002
MS.872         	6.555          	-0.008
MS.873         	6.543          	0.004
MS.874         	6.53           	-0.002
MS.875         	6.517          	-0.004
MS.876         	6.503          	-0.01
MS.877         	6.49           	0.000
MS.878         	6.477          	0.000
MS.879         	6.465          	0.024
MS.880         	6.452          	-0.012
MS.881         	6.44           	-0.008
MS.882         	6.425          	-0.006
MS.883         	6.412          	-0.012
MS.884         	6.4            	-0.004
MS.885         	6.387          	-0.012
MS.886         	6.375          	0.002
MS.887         	6.362          	0.075
MS.888         	6.35           	0.004
MS.889         	6.338          	-0.004
MS.890         	6.325          	0.089
DERIVED EXCITABILITY VARIABLES
Program = QTracP 9/10/2021
Threshold method = 6 (optimised for CAP, using data for present condition only)
SR method = 1 (using actual data values)
6.                 	0.000               	Peak response\(mV)
9.                 	32                  	Temperature ( C)
17.                	74                  	Age (years)
18.                	1                   	Sex (M=1, F=2)

EXTRA VARIABLES

MScPeak(mV) = 4.5
MScS5(mA) = 7.73
MScS50(mA) = 7.83
MScS95(mA) = 8.02
MScNSteps = 50
MScSteps(%) = 375
MScStepMax(%) = 20.5
MScD50 = 86
MScSlope = 22.12
MScDuration(min) = 5.6
MSFTraces = 767
MSFPeakAmp(mV) = 4.5
MSFNUnits = 108
MSFMeanUnitAmp(uV) = 41.7
MSFHuntTime(m) = 2.94
MSFError(%) = 1.48
MSFNLarge = 28.29
MSFMedianAmp(%) = 0.783
MSFMedianAmp(mV) = 0.0353
MSFHalfAmpAmp(%) = 1.15
MSFHalfAmpAmp(mV) = 0.0517
MSFLargestAmp(%) = 3.2
MSFLargestAmp(mV) = 0.144
MSFMeanRS(%) = 1.99
MSFSizeLimit(uV) = 11.3
MSFLimitType = 1
MSFSmallestAmp(uV) = 11.4
MSFOpts = 10106121

EXTRA WAVEFORMS


!MScan Model
!108
	1	9.12	0.66	2
	2	9.66	0.62	2
	3	10.62	0.59	2
	4	10.87	1.13	2
	5	11.06	0.54	2
	6	11.34	1.53	2
	7	11.42	0.64	2
	8	11.55	0.82	2
	9	11.65	0.47	2
	10	11.7	0.3	2
	11	11.76	0.39	2
	12	11.8	0.31	2
	13	11.84	0.4	2
	14	11.88	0.43	2
	15	11.94	0.44	2
	16	12.19	1.7	2
	17	12.3	1.03	2
	18	12.37	0.44	2
	19	12.39	0.28	2
	20	12.4	0.28	2
	21	12.44	0.63	2
	22	12.49	0.54	2
	23	12.66	0.82	2
	24	12.76	0.42	2
	25	12.8	0.25	2
	26	12.84	0.35	2
	27	12.88	0.43	2
	28	12.91	0.49	2
	29	13.04	0.98	2
	30	13.1	0.38	2
	31	13.16	0.45	2
	32	13.2	0.3	2
	33	13.23	0.39	2
	34	13.27	0.35	2
	35	13.3	0.38	2
	36	13.39	0.51	2
	37	13.43	0.39	2
	38	13.52	0.89	2
	39	13.6	0.49	2
	40	13.67	0.42	2
	41	13.7	0.35	2
	42	13.79	0.98	2
	43	13.91	0.89	2
	44	14.07	1.25	2
	45	14.21	1.37	2
	46	14.3	1.11	2
	47	14.36	0.98	2
	48	14.52	2.05	2
	49	14.7	0.59	2
	50	14.76	0.37	2
	51	14.82	0.54	2
	52	14.91	0.91	2
	53	15.03	1.33	2
	54	15.14	1.34	2
	55	15.19	0.64	2
	56	15.25	0.64	2
	57	15.27	0.39	2
	58	15.38	2.07	2
	59	15.49	2.06	2
	60	15.6	1.3	2
	61	15.6	0.87	2
	62	15.65	0.94	2
	63	15.71	0.55	2
	64	15.76	1.02	2
	65	15.88	3.2	2
	66	15.97	1.52	2
	67	16.05	1.63	2
	68	16.56	1.47	2
	69	16.67	0.46	2
	70	16.82	1.15	2
	71	17.38	1.98	2
	72	17.52	0.94	2
	73	17.63	1.01	2
	74	17.74	1.61	2
	75	18.02	2.73	2
	76	18.18	1.99	2
	77	18.34	2.39	2
	78	18.57	3.09	2
	79	19.05	0.64	2
	80	19.16	0.66	2
	81	19.35	0.64	2
	82	19.91	0.8	2
	83	22.4	1.3	2
	84	22.77	1.65	2
	85	23.55	2.34	2
	86	23.57	1.67	1.6
	87	24.75	0.68	2
	88	24.89	0.47	2
	89	25.35	0.37	2
	90	25.91	0.96	2
	91	26.28	0.85	2
	92	26.46	0.86	2
	93	26.98	1.23	2
	94	27.34	0.95	2
	95	27.47	0.38	2
	96	27.6	0.58	2
	97	28.76	1.28	2
	98	29.07	0.77	2
	99	29.24	0.62	2
	100	29.44	0.47	2
	101	29.79	0.99	2
	102	31.18	1.29	2
	103	31.5	0.36	2
	104	31.65	0.41	2
	105	32.08	1.05	2
	106	32.87	0.96	2
	107	33.45	0.97	2
	108	34.73	1.31	2

