File:              	C:\Qtrac\Data\Daniel M Sørensen\MScan multicentre study\Data from centres\Ankara\Processed data\IAC10125C.QZD
Name:              	TR.ANK.NC.9.2
Protocol:          	MSCAN-R2
Date:              	25/1/21
Start time:        	14:38:29
Age:               	27
Sex:               	m
Temperature:
S/R sites:         	TA
NC/disease:        	NC
Operator:          	eb
Comments:
M-SCAN DATA (7.8-0.9m)
Scanpts: 19, 28, 715, 735
Stim. (mA)     	Amp. (mV)
MS.1           	24             	5.56
MS.2           	24             	5.56
MS.3           	24             	5.558
MS.4           	24             	5.554
MS.5           	24             	5.537
MS.6           	24             	5.538
MS.7           	24             	5.535
MS.8           	24             	5.532
MS.9           	24             	5.544
MS.10          	24             	5.54
MS.11          	24             	5.549
MS.12          	24             	5.546
MS.13          	24             	5.555
MS.14          	24             	5.544
MS.15          	24             	5.54
MS.16          	24             	5.552
MS.17          	24             	5.557
MS.18          	24             	5.564
MS.19          	24             	5.546
MS.20          	24             	5.547
MS.21          	24             	5.558
MS.22          	24             	5.529
MS.23          	24             	5.548
MS.24          	23.952         	5.542
MS.25          	23.905         	5.54
MS.26          	23.858         	5.544
MS.27          	23.81          	5.543
MS.28          	23.76          	5.543
MS.29          	23.712         	5.555
MS.30          	23.667         	5.553
MS.31          	23.62          	5.542
MS.32          	23.573         	5.542
MS.33          	23.525         	5.549
MS.34          	23.477         	5.551
MS.35          	23.43          	5.559
MS.36          	23.385         	5.557
MS.37          	23.337         	5.563
MS.38          	23.29          	5.542
MS.39          	23.245         	5.558
MS.40          	23.198         	5.543
MS.41          	23.153         	5.559
MS.42          	23.105         	5.54
MS.43          	23.06          	5.56
MS.44          	23.012         	5.526
MS.45          	22.967         	5.559
MS.46          	22.92          	5.542
MS.47          	22.875         	5.543
MS.48          	22.83          	5.527
MS.49          	22.785         	5.526
MS.50          	22.737         	5.514
MS.51          	22.692         	5.516
MS.52          	22.647         	5.507
MS.53          	22.602         	5.513
MS.54          	22.557         	5.5
MS.55          	22.512         	5.536
MS.56          	22.467         	5.536
MS.57          	22.422         	5.525
MS.58          	22.377         	5.514
MS.59          	22.332         	5.519
MS.60          	22.288         	5.519
MS.61          	22.243         	5.513
MS.62          	22.2           	5.511
MS.63          	22.155         	5.513
MS.64          	22.11          	5.527
MS.65          	22.067         	5.522
MS.66          	22.022         	5.494
MS.67          	21.977         	5.498
MS.68          	21.935         	5.511
MS.69          	21.89          	5.51
MS.70          	21.847         	5.525
MS.71          	21.802         	5.522
MS.72          	21.76          	5.525
MS.73          	21.715         	5.524
MS.74          	21.672         	5.54
MS.75          	21.63          	5.515
MS.76          	21.585         	5.521
MS.77          	21.542         	5.533
MS.78          	21.5           	5.504
MS.79          	21.458         	5.499
MS.80          	21.415         	5.49
MS.81          	21.372         	5.511
MS.82          	21.327         	5.518
MS.83          	21.285         	5.518
MS.84          	21.243         	5.492
MS.85          	21.2           	5.469
MS.86          	21.16          	5.499
MS.87          	21.118         	5.496
MS.88          	21.075         	5.496
MS.89          	21.032         	5.493
MS.90          	20.99          	5.493
MS.91          	20.948         	5.513
MS.92          	20.907         	5.47
MS.93          	20.865         	5.498
MS.94          	20.823         	5.487
MS.95          	20.782         	5.4
MS.96          	20.74          	5.496
MS.97          	20.698         	5.457
MS.98          	20.657         	5.389
MS.99          	20.615         	5.497
MS.100         	20.575         	5.474
MS.101         	20.532         	5.499
MS.102         	20.493         	5.383
MS.103         	20.452         	5.48
MS.104         	20.41          	5.363
MS.105         	20.37          	5.361
MS.106         	20.33          	5.404
MS.107         	20.288         	5.487
MS.108         	20.247         	5.374
MS.109         	20.208         	5.402
MS.110         	20.167         	5.38
MS.111         	20.127         	5.366
MS.112         	20.087         	5.353
MS.113         	20.047         	5.341
MS.114         	20.007         	5.365
MS.115         	19.967         	5.332
MS.116         	19.927         	5.32
MS.117         	19.887         	5.358
MS.118         	19.847         	5.359
MS.119         	19.807         	5.338
MS.120         	19.767         	5.251
MS.121         	19.727         	5.339
MS.122         	19.69          	5.282
MS.123         	19.65          	5.283
MS.124         	19.61          	5.32
MS.125         	19.57          	5.35
MS.126         	19.532         	5.358
MS.127         	19.493         	5.317
MS.128         	19.455         	5.254
MS.129         	19.415         	5.315
MS.130         	19.377         	5.24
MS.131         	19.337         	5.217
MS.132         	19.3           	5.236
MS.133         	19.26          	5.203
MS.134         	19.222         	5.247
MS.135         	19.182         	5.236
MS.136         	19.145         	5.238
MS.137         	19.108         	5.256
MS.138         	19.07          	5.206
MS.139         	19.03          	5.204
MS.140         	18.993         	5.209
MS.141         	18.955         	5.189
MS.142         	18.917         	5.215
MS.143         	18.88          	5.189
MS.144         	18.842         	5.203
MS.145         	18.802         	5.228
MS.146         	18.765         	5.215
MS.147         	18.727         	5.154
MS.148         	18.69          	5.273
MS.149         	18.655         	5.22
MS.150         	18.618         	5.159
MS.151         	18.58          	5.208
MS.152         	18.542         	5.208
MS.153         	18.505         	5.201
MS.154         	18.467         	5.232
MS.155         	18.432         	5.233
MS.156         	18.395         	5.208
MS.157         	18.358         	5.228
MS.158         	18.32          	5.187
MS.159         	18.285         	5.244
MS.160         	18.247         	5.195
MS.161         	18.212         	5.199
MS.162         	18.175         	5.25
MS.163         	18.14          	5.095
MS.164         	18.102         	5.221
MS.165         	18.067         	5.186
MS.166         	18.03          	5.148
MS.167         	17.995         	5.161
MS.168         	17.958         	5.233
MS.169         	17.922         	5.085
MS.170         	17.887         	5.162
MS.171         	17.85          	5.135
MS.172         	17.815         	5.142
MS.173         	17.78          	5.048
MS.174         	17.745         	5.098
MS.175         	17.708         	5.11
MS.176         	17.672         	5.144
MS.177         	17.637         	5.095
MS.178         	17.602         	5.162
MS.179         	17.567         	5.096
MS.180         	17.532         	5.054
MS.181         	17.497         	5.043
MS.182         	17.462         	5.062
MS.183         	17.427         	5.087
MS.184         	17.392         	5.107
MS.185         	17.358         	5.024
MS.186         	17.323         	5.115
MS.187         	17.288         	5.026
MS.188         	17.255         	5.028
MS.189         	17.22          	5.056
MS.190         	17.185         	5.021
MS.191         	17.15          	5.012
MS.192         	17.118         	5.017
MS.193         	17.083         	5.023
MS.194         	17.047         	5.077
MS.195         	17.015         	4.993
MS.196         	16.98          	5.002
MS.197         	16.948         	5.081
MS.198         	16.913         	5.077
MS.199         	16.878         	4.962
MS.200         	16.845         	4.94
MS.201         	16.812         	4.897
MS.202         	16.778         	4.965
MS.203         	16.745         	4.669
MS.204         	16.71          	4.886
MS.205         	16.677         	4.812
MS.206         	16.645         	4.803
MS.207         	16.61          	4.858
MS.208         	16.577         	4.912
MS.209         	16.545         	4.783
MS.210         	16.512         	4.786
MS.211         	16.477         	4.731
MS.212         	16.445         	4.735
MS.213         	16.413         	4.678
MS.214         	16.38          	4.769
MS.215         	16.347         	4.731
MS.216         	16.315         	4.64
MS.217         	16.282         	4.678
MS.218         	16.25          	4.724
MS.219         	16.217         	4.623
MS.220         	16.185         	4.695
MS.221         	16.153         	4.617
MS.222         	16.12          	4.631
MS.223         	16.087         	4.614
MS.224         	16.055         	4.58
MS.225         	16.022         	4.542
MS.226         	15.992         	4.518
MS.227         	15.96          	4.534
MS.228         	15.927         	4.573
MS.229         	15.895         	4.503
MS.230         	15.865         	4.468
MS.231         	15.832         	4.46
MS.232         	15.8           	4.496
MS.233         	15.77          	4.425
MS.234         	15.737         	4.459
MS.235         	15.705         	4.454
MS.236         	15.675         	4.42
MS.237         	15.642         	4.448
MS.238         	15.612         	4.397
MS.239         	15.58          	4.355
MS.240         	15.55          	4.325
MS.241         	15.52          	4.421
MS.242         	15.487         	4.464
MS.243         	15.457         	4.375
MS.244         	15.425         	4.374
MS.245         	15.395         	4.359
MS.246         	15.365         	4.321
MS.247         	15.332         	4.365
MS.248         	15.302         	4.331
MS.249         	15.273         	4.271
MS.250         	15.242         	4.264
MS.251         	15.212         	4.259
MS.252         	15.18          	4.281
MS.253         	15.15          	4.215
MS.254         	15.12          	4.167
MS.255         	15.09          	4.196
MS.256         	15.06          	4.103
MS.257         	15.03          	4.136
MS.258         	15             	4.087
MS.259         	14.97          	4.027
MS.260         	14.94          	4.061
MS.261         	14.91          	4.038
MS.262         	14.88          	4.023
MS.263         	14.85          	4.061
MS.264         	14.82          	4.038
MS.265         	14.792         	3.987
MS.266         	14.762         	3.999
MS.267         	14.733         	3.986
MS.268         	14.702         	3.942
MS.269         	14.672         	3.876
MS.270         	14.645         	3.828
MS.271         	14.615         	3.766
MS.272         	14.585         	3.804
MS.273         	14.557         	3.796
MS.274         	14.527         	3.822
MS.275         	14.497         	3.73
MS.276         	14.47          	3.795
MS.277         	14.44          	3.722
MS.278         	14.412         	3.796
MS.279         	14.382         	3.68
MS.280         	14.355         	3.69
MS.281         	14.325         	3.687
MS.282         	14.297         	3.61
MS.283         	14.267         	3.737
MS.284         	14.24          	3.599
MS.285         	14.212         	3.651
MS.286         	14.182         	3.596
MS.287         	14.155         	3.491
MS.288         	14.127         	3.496
MS.289         	14.097         	3.542
MS.290         	14.07          	3.444
MS.291         	14.042         	3.445
MS.292         	14.015         	3.392
MS.293         	13.985         	3.435
MS.294         	13.957         	3.341
MS.295         	13.93          	3.411
MS.296         	13.903         	3.39
MS.297         	13.875         	3.281
MS.298         	13.847         	3.265
MS.299         	13.82          	3.212
MS.300         	13.792         	3.253
MS.301         	13.765         	3.312
MS.302         	13.737         	3.268
MS.303         	13.71          	3.198
MS.304         	13.682         	3.179
MS.305         	13.655         	3.123
MS.306         	13.627         	3.131
MS.307         	13.6           	3.23
MS.308         	13.572         	3.098
MS.309         	13.545         	2.999
MS.310         	13.517         	3.124
MS.311         	13.492         	3.108
MS.312         	13.465         	2.996
MS.313         	13.438         	3.049
MS.314         	13.41          	2.899
MS.315         	13.385         	2.937
MS.316         	13.358         	3.054
MS.317         	13.33          	2.988
MS.318         	13.305         	2.986
MS.319         	13.278         	2.844
MS.320         	13.25          	2.769
MS.321         	13.225         	2.882
MS.322         	13.197         	2.928
MS.323         	13.172         	2.88
MS.324         	13.145         	2.728
MS.325         	13.12          	2.788
MS.326         	13.092         	2.661
MS.327         	13.068         	2.83
MS.328         	13.04          	2.706
MS.329         	13.015         	2.687
MS.330         	12.987         	2.66
MS.331         	12.962         	2.653
MS.332         	12.938         	2.675
MS.333         	12.91          	2.598
MS.334         	12.885         	2.65
MS.335         	12.86          	2.59
MS.336         	12.832         	2.697
MS.337         	12.807         	2.566
MS.338         	12.782         	2.54
MS.339         	12.757         	2.572
MS.340         	12.73          	2.529
MS.341         	12.705         	2.446
MS.342         	12.68          	2.416
MS.343         	12.655         	2.456
MS.344         	12.63          	2.433
MS.345         	12.605         	2.343
MS.346         	12.58          	2.346
MS.347         	12.555         	2.38
MS.348         	12.53          	2.358
MS.349         	12.505         	2.289
MS.350         	12.48          	2.328
MS.351         	12.455         	2.308
MS.352         	12.43          	2.28
MS.353         	12.405         	2.312
MS.354         	12.38          	2.289
MS.355         	12.355         	2.213
MS.356         	12.33          	2.144
MS.357         	12.305         	2.184
MS.358         	12.28          	2.13
MS.359         	12.257         	2.117
MS.360         	12.233         	2.067
MS.361         	12.207         	2.063
MS.362         	12.182         	2.037
MS.363         	12.16          	2.064
MS.364         	12.135         	2.018
MS.365         	12.11          	1.974
MS.366         	12.085         	1.92
MS.367         	12.062         	1.904
MS.368         	12.037         	1.917
MS.369         	12.015         	1.881
MS.370         	11.99          	1.849
MS.371         	11.965         	1.898
MS.372         	11.943         	1.886
MS.373         	11.917         	1.829
MS.374         	11.895         	1.842
MS.375         	11.87          	1.763
MS.376         	11.847         	1.67
MS.377         	11.822         	1.711
MS.378         	11.8           	1.72
MS.379         	11.775         	1.676
MS.380         	11.752         	1.702
MS.381         	11.73          	1.627
MS.382         	11.705         	1.718
MS.383         	11.682         	1.616
MS.384         	11.657         	1.55
MS.385         	11.635         	1.603
MS.386         	11.613         	1.526
MS.387         	11.59          	1.512
MS.388         	11.565         	1.49
MS.389         	11.542         	1.439
MS.390         	11.52          	1.42
MS.391         	11.497         	1.459
MS.392         	11.472         	1.46
MS.393         	11.45          	1.482
MS.394         	11.427         	1.44
MS.395         	11.405         	1.377
MS.396         	11.382         	1.417
MS.397         	11.36          	1.32
MS.398         	11.337         	1.339
MS.399         	11.315         	1.323
MS.400         	11.292         	1.343
MS.401         	11.27          	1.334
MS.402         	11.247         	1.283
MS.403         	11.225         	1.245
MS.404         	11.202         	1.212
MS.405         	11.18          	1.246
MS.406         	11.157         	1.232
MS.407         	11.135         	1.23
MS.408         	11.113         	1.174
MS.409         	11.09          	1.133
MS.410         	11.068         	1.156
MS.411         	11.045         	1.121
MS.412         	11.025         	1.177
MS.413         	11.002         	1.198
MS.414         	10.98          	1.116
MS.415         	10.957         	1.173
MS.416         	10.935         	1.135
MS.417         	10.915         	1.117
MS.418         	10.892         	1.09
MS.419         	10.87          	1.055
MS.420         	10.85          	1.102
MS.421         	10.827         	1.036
MS.422         	10.805         	1.006
MS.423         	10.785         	1.013
MS.424         	10.762         	1.111
MS.425         	10.74          	1.021
MS.426         	10.72          	0.956
MS.427         	10.698         	1.036
MS.428         	10.677         	0.973
MS.429         	10.655         	0.927
MS.430         	10.635         	0.951
MS.431         	10.613         	0.922
MS.432         	10.592         	0.884
MS.433         	10.57          	0.914
MS.434         	10.55          	0.923
MS.435         	10.528         	0.875
MS.436         	10.507         	0.851
MS.437         	10.485         	0.89
MS.438         	10.465         	0.834
MS.439         	10.445         	0.809
MS.440         	10.422         	0.846
MS.441         	10.403         	0.85
MS.442         	10.382         	0.798
MS.443         	10.36          	0.819
MS.444         	10.34          	0.822
MS.445         	10.32          	0.83
MS.446         	10.3           	0.833
MS.447         	10.278         	0.831
MS.448         	10.257         	0.814
MS.449         	10.238         	0.791
MS.450         	10.217         	0.813
MS.451         	10.198         	0.793
MS.452         	10.175         	0.764
MS.453         	10.155         	0.778
MS.454         	10.135         	0.804
MS.455         	10.115         	0.712
MS.456         	10.095         	0.719
MS.457         	10.075         	0.729
MS.458         	10.055         	0.737
MS.459         	10.035         	0.726
MS.460         	10.015         	0.686
MS.461         	9.995          	0.693
MS.462         	9.975          	0.701
MS.463         	9.955          	0.681
MS.464         	9.935          	0.676
MS.465         	9.915          	0.656
MS.466         	9.895          	0.624
MS.467         	9.875          	0.651
MS.468         	9.855          	0.629
MS.469         	9.835          	0.627
MS.470         	9.818          	0.615
MS.471         	9.797          	0.621
MS.472         	9.778          	0.604
MS.473         	9.757          	0.612
MS.474         	9.738          	0.663
MS.475         	9.717          	0.609
MS.476         	9.7            	0.597
MS.477         	9.68           	0.599
MS.478         	9.66           	0.585
MS.479         	9.642          	0.594
MS.480         	9.622          	0.574
MS.481         	9.602          	0.557
MS.482         	9.582          	0.56
MS.483         	9.565          	0.533
MS.484         	9.545          	0.544
MS.485         	9.528          	0.486
MS.486         	9.507          	0.507
MS.487         	9.488          	0.53
MS.488         	9.47           	0.485
MS.489         	9.45           	0.472
MS.490         	9.432          	0.463
MS.491         	9.412          	0.505
MS.492         	9.395          	0.453
MS.493         	9.375          	0.465
MS.494         	9.358          	0.417
MS.495         	9.337          	0.442
MS.496         	9.32           	0.386
MS.497         	9.3            	0.347
MS.498         	9.283          	0.371
MS.499         	9.262          	0.388
MS.500         	9.245          	0.396
MS.501         	9.227          	0.382
MS.502         	9.207          	0.381
MS.503         	9.19           	0.356
MS.504         	9.17           	0.358
MS.505         	9.153          	0.305
MS.506         	9.135          	0.303
MS.507         	9.115          	0.323
MS.508         	9.097          	0.321
MS.509         	9.08           	0.283
MS.510         	9.062          	0.3
MS.511         	9.042          	0.292
MS.512         	9.025          	0.265
MS.513         	9.007          	0.282
MS.514         	8.99           	0.303
MS.515         	8.972          	0.269
MS.516         	8.952          	0.323
MS.517         	8.935          	0.238
MS.518         	8.917          	0.242
MS.519         	8.9            	0.242
MS.520         	8.882          	0.24
MS.521         	8.865          	0.261
MS.522         	8.847          	0.226
MS.523         	8.83           	0.226
MS.524         	8.812          	0.201
MS.525         	8.795          	0.247
MS.526         	8.778          	0.225
MS.527         	8.76           	0.208
MS.528         	8.742          	0.205
MS.529         	8.725          	0.197
MS.530         	8.707          	0.211
MS.531         	8.69           	0.193
MS.532         	8.672          	0.204
MS.533         	8.655          	0.193
MS.534         	8.637          	0.183
MS.535         	8.62           	0.187
MS.536         	8.602          	0.197
MS.537         	8.585          	0.187
MS.538         	8.568          	0.16
MS.539         	8.55           	0.181
MS.540         	8.535          	0.182
MS.541         	8.517          	0.168
MS.542         	8.5            	0.194
MS.543         	8.483          	0.178
MS.544         	8.465          	0.176
MS.545         	8.45           	0.182
MS.546         	8.432          	0.178
MS.547         	8.415          	0.157
MS.548         	8.398          	0.177
MS.549         	8.382          	0.182
MS.550         	8.365          	0.173
MS.551         	8.347          	0.168
MS.552         	8.332          	0.148
MS.553         	8.315          	0.161
MS.554         	8.297          	0.144
MS.555         	8.283          	0.142
MS.556         	8.265          	0.155
MS.557         	8.247          	0.15
MS.558         	8.233          	0.145
MS.559         	8.215          	0.135
MS.560         	8.2            	0.143
MS.561         	8.182          	0.153
MS.562         	8.167          	0.128
MS.563         	8.15           	0.135
MS.564         	8.135          	0.145
MS.565         	8.117          	0.155
MS.566         	8.102          	0.137
MS.567         	8.085          	0.128
MS.568         	8.07           	0.139
MS.569         	8.052          	0.128
MS.570         	8.037          	0.126
MS.571         	8.02           	0.139
MS.572         	8.005          	0.118
MS.573         	7.99           	0.133
MS.574         	7.972          	0.122
MS.575         	7.957          	0.107
MS.576         	7.94           	0.111
MS.577         	7.925          	0.122
MS.578         	7.91           	0.094
MS.579         	7.892          	0.106
MS.580         	7.878          	0.118
MS.581         	7.862          	0.105
MS.582         	7.847          	0.114
MS.583         	7.83           	0.104
MS.584         	7.815          	0.104
MS.585         	7.8            	0.096
MS.586         	7.785          	0.109
MS.587         	7.767          	0.1
MS.588         	7.753          	0.114
MS.589         	7.737          	0.111
MS.590         	7.722          	0.098
MS.591         	7.707          	0.096
MS.592         	7.69           	0.09
MS.593         	7.675          	0.094
MS.594         	7.66           	0.098
MS.595         	7.645          	0.095
MS.596         	7.63           	0.082
MS.597         	7.615          	0.09
MS.598         	7.6            	0.093
MS.599         	7.585          	0.088
MS.600         	7.57           	0.089
MS.601         	7.555          	0.088
MS.602         	7.537          	0.081
MS.603         	7.523          	0.088
MS.604         	7.507          	0.076
MS.605         	7.492          	0.085
MS.606         	7.477          	0.088
MS.607         	7.462          	0.076
MS.608         	7.45           	0.084
MS.609         	7.435          	0.074
MS.610         	7.42           	0.078
MS.611         	7.405          	0.077
MS.612         	7.39           	0.072
MS.613         	7.375          	0.068
MS.614         	7.36           	0.072
MS.615         	7.345          	0.074
MS.616         	7.33           	0.071
MS.617         	7.315          	0.068
MS.618         	7.302          	0.067
MS.619         	7.287          	0.065
MS.620         	7.273          	0.066
MS.621         	7.257          	0.065
MS.622         	7.242          	0.063
MS.623         	7.227          	0.063
MS.624         	7.215          	0.066
MS.625         	7.2            	0.059
MS.626         	7.185          	0.06
MS.627         	7.17           	0.061
MS.628         	7.157          	0.056
MS.629         	7.142          	0.056
MS.630         	7.128          	0.066
MS.631         	7.115          	0.055
MS.632         	7.1            	0.056
MS.633         	7.085          	0.056
MS.634         	7.072          	0.055
MS.635         	7.057          	0.052
MS.636         	7.043          	0.046
MS.637         	7.03           	0.05
MS.638         	7.015          	0.051
MS.639         	7              	0.042
MS.640         	6.987          	0.046
MS.641         	6.972          	0.04
MS.642         	6.96           	0.049
MS.643         	6.945          	0.045
MS.644         	6.932          	0.042
MS.645         	6.918          	0.042
MS.646         	6.902          	0.04
MS.647         	6.89           	0.04
MS.648         	6.875          	0.043
MS.649         	6.862          	0.039
MS.650         	6.847          	0.028
MS.651         	6.835          	0.043
MS.652         	6.822          	0.04
MS.653         	6.807          	0.033
MS.654         	6.795          	0.039
MS.655         	6.78           	0.029
MS.656         	6.767          	0.032
MS.657         	6.753          	0.024
MS.658         	6.74           	0.033
MS.659         	6.727          	0.04
MS.660         	6.712          	0.032
MS.661         	6.7            	0.029
MS.662         	6.688          	0.031
MS.663         	6.672          	0.027
MS.664         	6.66           	0.02
MS.665         	6.648          	0.024
MS.666         	6.632          	0.026
MS.667         	6.62           	0.027
MS.668         	6.608          	0.02
MS.669         	6.592          	0.034
MS.670         	6.58           	0.023
MS.671         	6.567          	0.027
MS.672         	6.555          	0.017
MS.673         	6.54           	0.027
MS.674         	6.527          	0.023
MS.675         	6.515          	0.022
MS.676         	6.503          	0.024
MS.677         	6.487          	0.024
MS.678         	6.475          	0.012
MS.679         	6.462          	0.015
MS.680         	6.45           	0.027
MS.681         	6.438          	0.02
MS.682         	6.425          	0.024
MS.683         	6.412          	0.013
MS.684         	6.398          	0.012
MS.685         	6.385          	0.015
MS.686         	6.372          	0.012
MS.687         	6.36           	0.015
MS.688         	6.347          	0.011
MS.689         	6.335          	0.016
MS.690         	6.322          	0.012
MS.691         	6.31           	0.015
MS.692         	6.297          	0.011
MS.693         	6.285          	0.011
MS.694         	6.273          	0.013
MS.695         	6.26           	0.011
MS.696         	6.247          	0.015
MS.697         	6.235          	0.012
MS.698         	6.222          	0.013
MS.699         	6.21           	0.016
MS.700         	6.197          	0.018
MS.701         	6.185          	0.013
MS.702         	6.172          	0.021
MS.703         	6.16           	0.012
MS.704         	6.148          	0.017
MS.705         	6.135          	0.01
MS.706         	6.122          	0.011
MS.707         	6.11           	0.013
MS.708         	6.097          	0.017
MS.709         	6.088          	0.013
MS.710         	6.075          	0.013
MS.711         	6.062          	0.013
MS.712         	6.05           	0.015
MS.713         	6.037          	0.017
MS.714         	6.025          	0.016
MS.715         	6.015          	0.016
MS.716         	6.003          	0.013
MS.717         	5.99           	0.011
MS.718         	5.977          	0.015
MS.719         	5.965          	0.015
MS.720         	5.955          	0.006
MS.721         	5.942          	0.01
MS.722         	5.93           	0.007
MS.723         	5.918          	0.015
MS.724         	5.907          	0.018
MS.725         	5.895          	0.013
MS.726         	5.882          	0.015
MS.727         	5.87           	0.017
MS.728         	5.86           	0.017
MS.729         	5.847          	0.01
MS.730         	5.835          	0.016
MS.731         	5.825          	0.012
MS.732         	5.812          	0.017
MS.733         	5.8            	0.013
MS.734         	5.79           	0.012
MS.735         	5.777          	0.013
DERIVED EXCITABILITY VARIABLES
Program = QTracP 3/4/2020
Threshold method = 6 (optimised for CAP, using data for present condition only)
SR method = 1 (using actual data values)
6.                 	0.000               	Peak response\(mV)
17.                	27                  	Age (years)
18.                	1                   	Sex (M=1, F=2)

EXTRA VARIABLES

MScPeak(mV) = 5.53
MScS5(mA) = 8.99
MScS50(mA) = 13.11
MScS95(mA) = 19.32
MScNSteps = 0
MScSteps(%) = 0.0
MScStepMax(%) = 0.0
MScD50 = 75
MScSlope = 3.56
MSFPeakAmp(mV) = 5.53
MSFNUnits = 177
MSFMeanUnitAmp(uV) = 31.2
MSFHuntTime(m) = 4.49
MSFError(%) = 0.916
MSFNLarge = 55.5
MSFMedianAmp(%) = 0.471
MSFMedianAmp(mV) = 0.0261
MSFHalfAmpAmp(%) = 0.552
MSFHalfAmpAmp(mV) = 0.0305
MSFLargestAmp(%) = 2.4
MSFLargestAmp(mV) = 0.133
MSFMeanRS(%) = 2
MSFOpts = 10106121
MScDuration(min) = 6.9
MSFTraces = 717
MSFSizeLimit(uV) = 13.8
MSFLimitType = 1
MSFSmallestAmp(uV) = 14.2

EXTRA WAVEFORMS


!MScan Model
!177
	1	6.77	0.59	2
	2	7.46	0.61	2
	3	7.74	0.48	2
	4	7.8	0.46	2
	5	8.23	0.44	2
	6	8.56	0.55	2
	7	8.76	0.55	2
	8	8.85	0.42	2
	9	8.94	0.47	2
	10	9.02	0.41	2
	11	9.07	0.39	2
	12	9.13	0.34	2
	13	9.18	0.36	2
	14	9.22	0.34	2
	15	9.26	0.37	2
	16	9.3	0.36	2
	17	9.34	0.37	2
	18	9.38	0.32	2
	19	9.41	0.27	2
	20	9.44	0.32	2
	21	9.47	0.35	2
	22	9.51	0.36	2
	23	9.54	0.31	2
	24	9.62	0.5	2
	25	9.69	0.49	2
	26	9.75	0.41	2
	27	9.82	0.49	2
	28	9.89	0.37	2
	29	9.94	0.38	2
	30	10	0.4	2
	31	10.03	0.26	2
	32	10.07	0.27	2
	33	10.1	0.38	2
	34	10.21	0.6	2
	35	10.35	0.8	2
	36	10.44	0.54	2
	37	10.49	0.35	2
	38	10.55	0.56	2
	39	10.6	0.41	2
	40	10.65	0.49	2
	41	10.7	0.51	2
	42	10.75	0.52	2
	43	10.82	0.78	2
	44	10.92	0.96	2
	45	11.01	0.71	2
	46	11.06	0.62	2
	47	11.11	0.43	2
	48	11.15	0.44	2
	49	11.2	0.49	2
	50	11.23	0.4	2
	51	11.27	0.37	2
	52	11.31	0.47	2
	53	11.35	0.47	2
	54	11.38	0.48	2
	55	11.42	0.46	2
	56	11.45	0.46	2
	57	11.49	0.55	2
	58	11.52	0.53	2
	59	11.56	0.52	2
	60	11.6	0.5	2
	61	11.64	0.53	2
	62	11.67	0.49	2
	63	11.7	0.38	2
	64	11.73	0.41	2
	65	11.76	0.48	2
	66	11.79	0.52	2
	67	11.82	0.54	2
	68	11.85	0.5	2
	69	11.88	0.46	2
	70	11.9	0.39	2
	71	11.92	0.29	2
	72	11.94	0.29	2
	73	11.96	0.31	2
	74	11.98	0.31	2
	75	12	0.28	2
	76	12.01	0.26	2
	77	12.03	0.26	2
	78	12.05	0.28	2
	79	12.06	0.3	2
	80	12.08	0.3	2
	81	12.1	0.28	2
	82	12.11	0.27	2
	83	12.13	0.26	2
	84	12.16	0.44	2
	85	12.18	0.37	2
	86	12.21	0.42	2
	87	12.24	0.53	2
	88	12.26	0.37	2
	89	12.29	0.37	2
	90	12.31	0.36	2
	91	12.33	0.31	2
	92	12.35	0.31	2
	93	12.37	0.32	2
	94	12.39	0.38	2
	95	12.42	0.44	2
	96	12.45	0.44	2
	97	12.48	0.42	2
	98	12.52	0.63	2
	99	12.57	0.74	2
	100	12.61	0.67	2
	101	12.65	0.55	2
	102	12.69	0.39	2
	103	12.72	0.43	2
	104	12.79	0.89	2
	105	12.86	0.86	2
	106	12.95	1.43	2
	107	13.05	1.14	2
	108	13.14	1.17	2
	109	13.24	1.3	2
	110	13.34	1.42	2
	111	13.44	1.26	2
	112	13.52	1.05	2
	113	13.59	0.81	2
	114	13.65	0.77	2
	115	13.71	0.78	2
	116	13.76	0.76	2
	117	13.81	0.58	2
	118	13.84	0.42	2
	119	13.87	0.41	2
	120	13.9	0.44	2
	121	13.94	0.46	2
	122	13.97	0.47	2
	123	14	0.44	2
	124	14.04	0.43	2
	125	14.07	0.5	2
	126	14.11	0.62	2
	127	14.15	0.62	2
	128	14.2	0.56	2
	129	14.24	0.56	2
	130	14.3	0.88	2
	131	14.38	0.75	2
	132	14.44	0.94	2
	133	14.51	0.45	2
	134	14.51	0.3	2
	135	14.57	0.78	2
	136	14.62	0.5	2
	137	14.66	0.55	2
	138	14.7	0.49	2
	139	14.75	0.43	2
	140	14.79	0.48	2
	141	14.83	0.5	2
	142	14.87	0.5	2
	143	14.9	0.52	2
	144	14.94	0.45	2
	145	14.97	0.37	2
	146	15	0.36	2
	147	15.03	0.37	2
	148	15.06	0.37	2
	149	15.1	0.37	2
	150	15.13	0.42	2
	151	15.19	0.51	2
	152	15.24	0.49	2
	153	15.33	1.02	2
	154	15.43	0.74	2
	155	15.58	0.99	2
	156	15.73	0.91	2
	157	15.83	0.59	2
	158	15.88	0.41	2
	159	15.93	0.4	2
	160	15.98	0.41	2
	161	16.03	0.42	2
	162	16.09	0.47	2
	163	16.16	0.42	2
	164	16.24	0.61	2
	165	16.33	0.82	2
	166	16.5	1.25	2
	167	16.7	2.4	2
	168	17.04	0.8	2
	169	17.04	0.56	2
	170	17.04	0.93	2
	171	17.65	1.29	2
	172	18.21	1.63	2
	173	19.27	1.14	2
	174	19.78	1.3	2
	175	20.3	0.86	2
	176	20.47	1.85	2
	177	22.8	0.7	2

