File:              	C:\Qtrac\Data\Daniel M Sørensen\MScan multicentre study\Data from centres\Toronto\Processed data\MSCC01113C.QZD
Name:              	CA.TOR.NC.4.1
Protocol:          	MSCAN-R2
Date:              	13/11/20
Start time:        	11:26:02
Age:               	30
Sex:               	M
Temperature:       	32.5
S/R sites:         	TA
NC/disease:        	NC
Operator:          	LP
Comments:
M-SCAN DATA (9.1-4.1m)
Scanpts: 14, 27, 529, 550
Stim. (mA)     	Amp. (mV)
MS.1           	24.5           	7.335
MS.2           	25             	7.356
MS.3           	25.5           	7.382
MS.4           	25.5           	7.247
MS.5           	25.5           	7.231
MS.6           	25.5           	7.264
MS.7           	25.5           	7.272
MS.8           	25.5           	7.283
MS.9           	25.5           	7.262
MS.10          	25.5           	7.257
MS.11          	25.5           	7.278
MS.12          	25.5           	7.285
MS.13          	25.5           	7.247
MS.14          	25.5           	7.258
MS.15          	25.5           	7.269
MS.16          	25.5           	7.279
MS.17          	25.5           	7.255
MS.18          	25.5           	7.271
MS.19          	25.5           	7.267
MS.20          	25.5           	7.274
MS.21          	25.5           	7.275
MS.22          	25.5           	7.256
MS.23          	25.5           	7.297
MS.24          	25.397         	7.233
MS.25          	25.347         	7.302
MS.26          	25.297         	7.307
MS.27          	25.245         	7.263
MS.28          	25.195         	7.306
MS.29          	25.145         	7.257
MS.30          	25.095         	7.275
MS.31          	25.045         	7.285
MS.32          	24.995         	7.319
MS.33          	24.945         	7.296
MS.34          	24.895         	7.305
MS.35          	24.845         	7.319
MS.36          	24.795         	7.313
MS.37          	24.747         	7.277
MS.38          	24.698         	7.318
MS.39          	24.647         	6.854
MS.40          	24.597         	7.267
MS.41          	24.55          	7.288
MS.42          	24.5           	7.073
MS.43          	24.45          	6.494
MS.44          	24.403         	6.741
MS.45          	24.352         	7.308
MS.46          	24.305         	6.661
MS.47          	24.257         	7.296
MS.48          	24.207         	7.262
MS.49          	24.16          	6.13
MS.50          	24.11          	7.25
MS.51          	24.062         	5.826
MS.52          	24.015         	6.982
MS.53          	23.967         	6.265
MS.54          	23.92          	7.29
MS.55          	23.87          	7.305
MS.56          	23.823         	7.279
MS.57          	23.775         	7.325
MS.58          	23.727         	7.301
MS.59          	23.68          	7.365
MS.60          	23.632         	7.329
MS.61          	23.587         	5.508
MS.62          	23.54          	7.314
MS.63          	23.493         	7.358
MS.64          	23.445         	5.745
MS.65          	23.397         	7.321
MS.66          	23.352         	7.325
MS.67          	23.305         	7.281
MS.68          	23.257         	6.477
MS.69          	23.212         	6.772
MS.70          	23.165         	7.345
MS.71          	23.12          	7.375
MS.72          	23.073         	7.344
MS.73          	23.028         	7.36
MS.74          	22.98          	7.314
MS.75          	22.935         	7.336
MS.76          	22.89          	7.314
MS.77          	22.842         	6.724
MS.78          	22.797         	6.51
MS.79          	22.752         	7.146
MS.80          	22.707         	7.327
MS.81          	22.663         	6.578
MS.82          	22.618         	7.069
MS.83          	22.57          	7.34
MS.84          	22.525         	6.189
MS.85          	22.48          	7.249
MS.86          	22.435         	7.301
MS.87          	22.392         	7.09
MS.88          	22.347         	7.354
MS.89          	22.302         	7.371
MS.90          	22.257         	7.314
MS.91          	22.212         	7.394
MS.92          	22.167         	6.84
MS.93          	22.125         	7.358
MS.94          	22.08          	7.358
MS.95          	22.035         	5.648
MS.96          	21.993         	7.355
MS.97          	21.948         	7.252
MS.98          	21.905         	6.422
MS.99          	21.86          	7.312
MS.100         	21.817         	7.327
MS.101         	21.772         	7.034
MS.102         	21.73          	7.319
MS.103         	21.685         	7.355
MS.104         	21.642         	7.323
MS.105         	21.6           	7.319
MS.106         	21.557         	6.516
MS.107         	21.512         	7.336
MS.108         	21.47          	7.274
MS.109         	21.427         	7.355
MS.110         	21.385         	7.346
MS.111         	21.342         	7.324
MS.112         	21.3           	7.246
MS.113         	21.257         	7.297
MS.114         	21.215         	7.194
MS.115         	21.172         	7.247
MS.116         	21.13          	7.225
MS.117         	21.087         	7.271
MS.118         	21.045         	7.177
MS.119         	21.002         	7.207
MS.120         	20.96          	7.26
MS.121         	20.92          	7.256
MS.122         	20.877         	6.914
MS.123         	20.835         	7.261
MS.124         	20.795         	7.236
MS.125         	20.752         	6.086
MS.126         	20.71          	7.238
MS.127         	20.67          	7.217
MS.128         	20.627         	7.24
MS.129         	20.587         	7.107
MS.130         	20.545         	7.192
MS.131         	20.505         	7.246
MS.132         	20.465         	7.181
MS.133         	20.422         	7.166
MS.134         	20.382         	7.173
MS.135         	20.342         	7.174
MS.136         	20.3           	7.155
MS.137         	20.26          	7.179
MS.138         	20.22          	7.167
MS.139         	20.18          	7.172
MS.140         	20.14          	7.115
MS.141         	20.1           	5.946
MS.142         	20.06          	7.161
MS.143         	20.02          	7.128
MS.144         	19.98          	6.638
MS.145         	19.94          	7.094
MS.146         	19.9           	7.168
MS.147         	19.86          	6.493
MS.148         	19.82          	6.219
MS.149         	19.78          	7.084
MS.150         	19.74          	7.107
MS.151         	19.7           	7.089
MS.152         	19.663         	7.119
MS.153         	19.622         	5.944
MS.154         	19.583         	7.052
MS.155         	19.545         	6.987
MS.156         	19.505         	6.954
MS.157         	19.465         	7.013
MS.158         	19.427         	7.003
MS.159         	19.387         	6.968
MS.160         	19.35          	7.03
MS.161         	19.31          	6.951
MS.162         	19.272         	6.965
MS.163         	19.235         	6.942
MS.164         	19.195         	6.875
MS.165         	19.157         	6.877
MS.166         	19.12          	6.501
MS.167         	19.08          	6.56
MS.168         	19.042         	5.404
MS.169         	19.005         	6.871
MS.170         	18.967         	6.808
MS.171         	18.927         	4.141
MS.172         	18.89          	6.75
MS.173         	18.852         	6.781
MS.174         	18.815         	6.863
MS.175         	18.778         	6.819
MS.176         	18.74          	6.813
MS.177         	18.702         	6.727
MS.178         	18.665         	6.764
MS.179         	18.628         	6.73
MS.180         	18.59          	6.727
MS.181         	18.555         	6.586
MS.182         	18.517         	4.73
MS.183         	18.48          	6.753
MS.184         	18.442         	6.78
MS.185         	18.405         	6.829
MS.186         	18.37          	6.763
MS.187         	18.333         	6.647
MS.188         	18.295         	6.704
MS.189         	18.26          	6.172
MS.190         	18.222         	6.781
MS.191         	18.188         	6.716
MS.192         	18.15          	6.592
MS.193         	18.115         	6.611
MS.194         	18.077         	6.671
MS.195         	18.042         	6.71
MS.196         	18.005         	6.547
MS.197         	17.97          	6.442
MS.198         	17.932         	6.65
MS.199         	17.897         	6.556
MS.200         	17.862         	6.571
MS.201         	17.827         	6.404
MS.202         	17.79          	6.5
MS.203         	17.755         	6.456
MS.204         	17.72          	6.433
MS.205         	17.685         	6.434
MS.206         	17.65          	6.432
MS.207         	17.612         	6.454
MS.208         	17.577         	6.489
MS.209         	17.542         	6.327
MS.210         	17.507         	6.399
MS.211         	17.472         	6.407
MS.212         	17.438         	6.333
MS.213         	17.403         	6.316
MS.214         	17.37          	6.221
MS.215         	17.335         	6.304
MS.216         	17.3           	6.215
MS.217         	17.265         	6.171
MS.218         	17.23          	6.207
MS.219         	17.195         	6.111
MS.220         	17.163         	6.116
MS.221         	17.128         	6.045
MS.222         	17.092         	6.113
MS.223         	17.06          	6.033
MS.224         	17.025         	5.833
MS.225         	16.99          	5.988
MS.226         	16.958         	6.003
MS.227         	16.922         	5.957
MS.228         	16.89          	5.9
MS.229         	16.855         	5.923
MS.230         	16.823         	5.759
MS.231         	16.788         	5.79
MS.232         	16.755         	5.847
MS.233         	16.72          	5.598
MS.234         	16.688         	5.719
MS.235         	16.655         	5.662
MS.236         	16.62          	5.56
MS.237         	16.587         	5.729
MS.238         	16.555         	5.551
MS.239         	16.522         	5.581
MS.240         	16.487         	5.458
MS.241         	16.455         	5.464
MS.242         	16.422         	5.57
MS.243         	16.39          	5.416
MS.244         	16.358         	5.593
MS.245         	16.325         	5.547
MS.246         	16.292         	5.503
MS.247         	16.26          	5.289
MS.248         	16.227         	5.342
MS.249         	16.195         	5.349
MS.250         	16.163         	5.477
MS.251         	16.13          	5.294
MS.252         	16.097         	5.238
MS.253         	16.065         	5.3
MS.254         	16.032         	5.159
MS.255         	16.003         	5.239
MS.256         	15.97          	5.164
MS.257         	15.938         	5.188
MS.258         	15.905         	5.087
MS.259         	15.875         	5.088
MS.260         	15.842         	5.12
MS.261         	15.81          	4.955
MS.262         	15.78          	5.021
MS.263         	15.747         	4.982
MS.264         	15.715         	4.99
MS.265         	15.685         	4.731
MS.266         	15.652         	4.816
MS.267         	15.622         	4.684
MS.268         	15.59          	4.72
MS.269         	15.56          	4.711
MS.270         	15.527         	4.767
MS.271         	15.497         	4.764
MS.272         	15.467         	4.718
MS.273         	15.435         	4.609
MS.274         	15.405         	4.69
MS.275         	15.375         	4.75
MS.276         	15.342         	4.666
MS.277         	15.312         	4.501
MS.278         	15.282         	4.755
MS.279         	15.252         	4.506
MS.280         	15.22          	4.502
MS.281         	15.19          	4.396
MS.282         	15.16          	4.386
MS.283         	15.13          	4.449
MS.284         	15.1           	4.493
MS.285         	15.07          	4.462
MS.286         	15.04          	4.48
MS.287         	15.01          	4.26
MS.288         	14.98          	4.254
MS.289         	14.95          	4.257
MS.290         	14.92          	4.426
MS.291         	14.89          	4.321
MS.292         	14.86          	4.198
MS.293         	14.83          	4.205
MS.294         	14.8           	4.297
MS.295         	14.77          	4.093
MS.296         	14.742         	4.039
MS.297         	14.712         	4.106
MS.298         	14.682         	3.883
MS.299         	14.652         	3.862
MS.300         	14.625         	3.922
MS.301         	14.595         	3.805
MS.302         	14.565         	3.657
MS.303         	14.537         	3.784
MS.304         	14.507         	3.901
MS.305         	14.477         	3.744
MS.306         	14.45          	3.826
MS.307         	14.42          	3.749
MS.308         	14.392         	3.605
MS.309         	14.362         	3.56
MS.310         	14.335         	3.373
MS.311         	14.305         	3.358
MS.312         	14.278         	3.423
MS.313         	14.25          	3.373
MS.314         	14.22          	3.254
MS.315         	14.193         	3.289
MS.316         	14.162         	3.062
MS.317         	14.135         	2.919
MS.318         	14.108         	3.099
MS.319         	14.08          	3.085
MS.320         	14.05          	2.966
MS.321         	14.023         	2.95
MS.322         	13.995         	2.748
MS.323         	13.967         	2.904
MS.324         	13.94          	2.871
MS.325         	13.91          	2.8
MS.326         	13.882         	2.859
MS.327         	13.855         	2.772
MS.328         	13.827         	2.599
MS.329         	13.8           	2.665
MS.330         	13.773         	2.517
MS.331         	13.745         	2.479
MS.332         	13.717         	2.528
MS.333         	13.69          	2.456
MS.334         	13.662         	2.429
MS.335         	13.635         	2.434
MS.336         	13.608         	2.329
MS.337         	13.58          	2.406
MS.338         	13.555         	2.443
MS.339         	13.528         	2.427
MS.340         	13.5           	2.302
MS.341         	13.472         	2.301
MS.342         	13.445         	2.412
MS.343         	13.42          	2.197
MS.344         	13.392         	2.24
MS.345         	13.365         	2.144
MS.346         	13.34          	2.147
MS.347         	13.312         	2.266
MS.348         	13.285         	2.031
MS.349         	13.26          	2.102
MS.350         	13.233         	2.115
MS.351         	13.205         	2.103
MS.352         	13.18          	2.073
MS.353         	13.153         	1.965
MS.354         	13.127         	2.034
MS.355         	13.1           	2.035
MS.356         	13.075         	1.825
MS.357         	13.047         	1.975
MS.358         	13.023         	1.83
MS.359         	12.997         	1.764
MS.360         	12.97          	1.787
MS.361         	12.945         	1.798
MS.362         	12.917         	1.693
MS.363         	12.892         	1.741
MS.364         	12.867         	1.639
MS.365         	12.842         	1.664
MS.366         	12.815         	1.886
MS.367         	12.79          	1.835
MS.368         	12.765         	1.592
MS.369         	12.74          	1.815
MS.370         	12.712         	1.626
MS.371         	12.688         	1.711
MS.372         	12.662         	1.517
MS.373         	12.637         	1.526
MS.374         	12.613         	1.625
MS.375         	12.587         	1.554
MS.376         	12.562         	1.505
MS.377         	12.537         	1.388
MS.378         	12.512         	1.426
MS.379         	12.488         	1.479
MS.380         	12.462         	1.403
MS.381         	12.438         	1.482
MS.382         	12.412         	1.412
MS.383         	12.387         	1.365
MS.384         	12.363         	1.394
MS.385         	12.337         	1.344
MS.386         	12.312         	1.255
MS.387         	12.287         	1.342
MS.388         	12.265         	1.228
MS.389         	12.24          	1.198
MS.390         	12.215         	1.191
MS.391         	12.19          	1.166
MS.392         	12.167         	1.232
MS.393         	12.142         	1.162
MS.394         	12.117         	1.208
MS.395         	12.092         	1.194
MS.396         	12.07          	1.184
MS.397         	12.045         	1.13
MS.398         	12.02          	1.079
MS.399         	11.997         	1.169
MS.400         	11.972         	1.039
MS.401         	11.95          	1.156
MS.402         	11.925         	1.071
MS.403         	11.903         	1.106
MS.404         	11.877         	0.994
MS.405         	11.855         	1.041
MS.406         	11.83          	1.088
MS.407         	11.807         	1.014
MS.408         	11.782         	0.889
MS.409         	11.76          	1.017
MS.410         	11.735         	0.988
MS.411         	11.712         	0.923
MS.412         	11.69          	0.962
MS.413         	11.665         	0.879
MS.414         	11.642         	0.933
MS.415         	11.62          	0.887
MS.416         	11.595         	0.894
MS.417         	11.572         	0.848
MS.418         	11.55          	0.895
MS.419         	11.528         	0.819
MS.420         	11.505         	0.757
MS.421         	11.48          	0.774
MS.422         	11.457         	0.791
MS.423         	11.435         	0.767
MS.424         	11.412         	0.748
MS.425         	11.39          	0.699
MS.426         	11.367         	0.714
MS.427         	11.345         	0.707
MS.428         	11.32          	0.698
MS.429         	11.297         	0.659
MS.430         	11.275         	0.618
MS.431         	11.252         	0.614
MS.432         	11.23          	0.621
MS.433         	11.207         	0.603
MS.434         	11.185         	0.49
MS.435         	11.165         	0.472
MS.436         	11.142         	0.625
MS.437         	11.12          	0.598
MS.438         	11.097         	0.549
MS.439         	11.075         	0.574
MS.440         	11.052         	0.464
MS.441         	11.03          	0.509
MS.442         	11.007         	0.481
MS.443         	10.988         	0.49
MS.444         	10.965         	0.503
MS.445         	10.943         	0.43
MS.446         	10.92          	0.398
MS.447         	10.9           	0.394
MS.448         	10.877         	0.363
MS.449         	10.855         	0.427
MS.450         	10.835         	0.364
MS.451         	10.812         	0.355
MS.452         	10.79          	0.378
MS.453         	10.77          	0.347
MS.454         	10.747         	0.338
MS.455         	10.725         	0.28
MS.456         	10.705         	0.277
MS.457         	10.682         	0.237
MS.458         	10.662         	0.266
MS.459         	10.64          	0.27
MS.460         	10.62          	0.282
MS.461         	10.597         	0.225
MS.462         	10.577         	0.273
MS.463         	10.555         	0.244
MS.464         	10.535         	0.205
MS.465         	10.512         	0.231
MS.466         	10.492         	0.216
MS.467         	10.472         	0.244
MS.468         	10.45          	0.253
MS.469         	10.43          	0.249
MS.470         	10.41          	0.205
MS.471         	10.387         	0.232
MS.472         	10.367         	0.188
MS.473         	10.347         	0.175
MS.474         	10.325         	0.181
MS.475         	10.305         	0.168
MS.476         	10.285         	0.179
MS.477         	10.265         	0.103
MS.478         	10.245         	0.167
MS.479         	10.222         	0.181
MS.480         	10.202         	0.125
MS.481         	10.182         	0.127
MS.482         	10.162         	0.181
MS.483         	10.142         	0.133
MS.484         	10.122         	0.151
MS.485         	10.102         	0.128
MS.486         	10.08          	0.107
MS.487         	10.06          	0.127
MS.488         	10.04          	0.131
MS.489         	10.02          	0.115
MS.490         	10             	0.117
MS.491         	9.98           	0.103
MS.492         	9.96           	0.123
MS.493         	9.94           	0.107
MS.494         	9.92           	0.071
MS.495         	9.903          	0.103
MS.496         	9.882          	0.048
MS.497         	9.863          	0.099
MS.498         	9.842          	0.121
MS.499         	9.823          	0.043
MS.500         	9.802          	0.099
MS.501         	9.782          	0.084
MS.502         	9.762          	0.048
MS.503         	9.745          	0.027
MS.504         	9.725          	0.103
MS.505         	9.705          	0.034
MS.506         	9.685          	0.037
MS.507         	9.667          	0.035
MS.508         	9.648          	0.056
MS.509         	9.627          	0.031
MS.510         	9.608          	0.013
MS.511         	9.59           	0.021
MS.512         	9.57           	0.021
MS.513         	9.552          	0.018
MS.514         	9.532          	0.017
MS.515         	9.512          	0.015
MS.516         	9.495          	0.023
MS.517         	9.475          	0.083
MS.518         	9.455          	0.023
MS.519         	9.438          	0.022
MS.520         	9.417          	0.012
MS.521         	9.4            	0.018
MS.522         	9.38           	0.018
MS.523         	9.363          	0.018
MS.524         	9.342          	0.02
MS.525         	9.325          	0.024
MS.526         	9.305          	0.015
MS.527         	9.287          	0.015
MS.528         	9.27           	0.013
MS.529         	9.25           	0.017
MS.530         	9.233          	0.017
MS.531         	9.212          	0.027
MS.532         	9.195          	0.021
MS.533         	9.177          	0.011
MS.534         	9.158          	0.02
MS.535         	9.14           	0.018
MS.536         	9.122          	0.011
MS.537         	9.102          	0.012
MS.538         	9.085          	0.018
MS.539         	9.068          	0.026
MS.540         	9.05           	0.024
MS.541         	9.03           	0.022
MS.542         	9.012          	0.02
MS.543         	8.995          	0.017
MS.544         	8.977          	0.018
MS.545         	8.96           	0.018
MS.546         	8.94           	0.021
MS.547         	8.922          	0.029
MS.548         	8.905          	0.018
MS.549         	8.887          	0.018
MS.550         	8.87           	0.018
DERIVED EXCITABILITY VARIABLES
Program = QTracP 3/4/2020
Threshold method = 6 (optimised for CAP, using data for present condition only)
SR method = 1 (using actual data values)
6.                 	0.000               	Peak response\(mV)
9.                 	32.5                	Temperature ( C)
17.                	30                  	Age (years)
18.                	1                   	Sex (M=1, F=2)

EXTRA VARIABLES

MScPeak(mV) = 7.26
MScS5(mA) = 10.83
MScS50(mA) = 14.4
MScS95(mA) = 22.39
MScNSteps = 1
MScSteps(%) = 2.1
MScStepMax(%) = 2.1
MScD50 = 66
MScSlope = 2.97
MSFPeakAmp(mV) = 7.25
MSFNUnits = 177
MSFMeanUnitAmp(uV) = 41
MSFHuntTime(m) = 4.28
MSFError(%) = 8.49
MSFNLarge = 55.36
MSFMedianAmp(%) = 0.478
MSFMedianAmp(mV) = 0.0347
MSFHalfAmpAmp(%) = 0.541
MSFHalfAmpAmp(mV) = 0.0393
MSFLargestAmp(%) = 3.09
MSFLargestAmp(mV) = 0.224
MSFMeanRS(%) = 2.03
MSFOpts = 10106121
MScDuration(min) = 5
MSFTraces = 537
MSFSizeLimit(uV) = 18.1
MSFLimitType = 1
MSFSmallestAmp(uV) = 18.5

EXTRA WAVEFORMS


!MScan Model
!177
	1	9.59	0.27	2
	2	9.74	0.28	2
	3	9.85	0.31	2
	4	10.01	0.45	2
	5	10.13	0.47	2
	6	10.28	0.41	2
	7	10.38	0.31	2
	8	10.48	0.35	2
	9	10.54	0.31	2
	10	10.64	0.5	2
	11	10.73	0.53	2
	12	10.78	0.52	2
	13	10.85	0.4	2
	14	10.89	0.3	2
	15	10.93	0.34	2
	16	10.97	0.35	2
	17	11.01	0.32	2
	18	11.05	0.33	2
	19	11.09	0.35	2
	20	11.13	0.33	2
	21	11.17	0.35	2
	22	11.21	0.35	2
	23	11.26	0.49	2
	24	11.29	0.27	2
	25	11.32	0.29	2
	26	11.39	0.54	2
	27	11.42	0.33	2
	28	11.46	0.53	2
	29	11.52	0.54	2
	30	11.56	0.39	2
	31	11.59	0.25	2
	32	11.62	0.29	2
	33	11.65	0.27	2
	34	11.69	0.32	2
	35	11.73	0.36	2
	36	11.77	0.34	2
	37	11.8	0.33	2
	38	11.86	0.43	2
	39	11.91	0.4	2
	40	11.98	0.54	2
	41	12.04	0.51	2
	42	12.08	0.32	2
	43	12.12	0.36	2
	44	12.15	0.37	2
	45	12.19	0.28	2
	46	12.22	0.29	2
	47	12.26	0.32	2
	48	12.29	0.34	2
	49	12.33	0.33	2
	50	12.36	0.35	2
	51	12.4	0.43	2
	52	12.45	0.58	2
	53	12.5	0.68	2
	54	12.57	0.85	2
	55	12.67	0.92	2
	56	12.77	1	2
	57	12.86	1.12	2
	58	12.94	1.03	2
	59	13.02	0.95	2
	60	13.07	0.5	2
	61	13.11	0.34	2
	62	13.14	0.41	2
	63	13.18	0.51	2
	64	13.22	0.55	2
	65	13.25	0.52	2
	66	13.29	0.49	2
	67	13.33	0.6	2
	68	13.39	0.73	2
	69	13.43	0.54	2
	70	13.47	0.41	2
	71	13.5	0.47	2
	72	13.54	0.54	2
	73	13.57	0.52	2
	74	13.6	0.39	2
	75	13.63	0.35	2
	76	13.66	0.52	2
	77	13.69	0.47	2
	78	13.72	0.48	2
	79	13.75	0.46	2
	80	13.78	0.5	2
	81	13.82	0.53	2
	82	13.85	0.55	2
	83	13.87	0.4	2
	84	13.89	0.36	2
	85	13.91	0.39	2
	86	13.93	0.42	2
	87	13.96	0.45	2
	88	13.98	0.44	2
	89	14	0.42	2
	90	14.02	0.45	2
	91	14.04	0.48	2
	92	14.06	0.5	2
	93	14.08	0.52	2
	94	14.1	0.55	2
	95	14.12	0.5	2
	96	14.15	0.48	2
	97	14.17	0.48	2
	98	14.19	0.49	2
	99	14.22	0.48	2
	100	14.24	0.48	2
	101	14.26	0.55	2
	102	14.29	0.59	2
	103	14.31	0.56	2
	104	14.34	0.54	2
	105	14.37	0.52	2
	106	14.39	0.51	2
	107	14.42	0.56	2
	108	14.45	0.74	2
	109	14.48	0.75	2
	110	14.51	0.72	2
	111	14.54	0.7	2
	112	14.58	0.85	2
	113	14.62	0.82	2
	114	14.66	0.71	2
	115	14.71	0.72	2
	116	14.75	0.76	2
	117	14.8	0.67	2
	118	14.85	0.68	2
	119	14.91	0.92	2
	120	14.96	0.86	2
	121	14.99	0.75	2
	122	15.02	0.85	2
	123	15.11	1.16	2
	124	15.19	0.99	2
	125	15.29	0.68	2
	126	15.36	0.81	2
	127	15.43	0.86	2
	128	15.5	0.83	2
	129	15.56	0.72	2
	130	15.65	0.42	2
	131	15.68	0.32	2
	132	15.72	0.35	2
	133	15.75	0.39	2
	134	15.78	0.43	2
	135	15.81	0.46	2
	136	15.85	0.44	2
	137	15.89	0.45	2
	138	15.93	0.46	2
	139	15.97	0.65	2
	140	16.02	0.76	2
	141	16.07	0.6	2
	142	16.12	0.52	2
	143	16.18	0.64	2
	144	16.24	0.62	2
	145	16.31	0.68	2
	146	16.38	0.75	2
	147	16.45	0.73	2
	148	16.52	0.64	2
	149	16.58	0.68	2
	150	16.63	0.51	2
	151	16.67	0.48	2
	152	16.72	0.5	2
	153	16.77	0.53	2
	154	16.8	0.44	2
	155	16.84	0.37	2
	156	16.87	0.37	2
	157	16.9	0.38	2
	158	16.94	0.38	2
	159	16.97	0.38	2
	160	17	0.38	2
	161	17.03	0.38	2
	162	17.06	0.37	2
	163	17.1	0.37	2
	164	17.13	0.36	2
	165	17.16	0.45	2
	166	17.2	0.42	2
	167	17.24	0.39	2
	168	17.28	0.38	2
	169	17.32	0.41	2
	170	17.36	0.36	2
	171	17.4	0.33	2
	172	17.45	0.32	2
	173	17.51	2.2	2
	174	18.3	2.86	2.4
	175	19.08	2.4	2.4
	176	19.08	3.09	2
	177	19.84	2.06	2.4

