File:              	C:\Qtrac\Data\Daniel M Sørensen\MScan multicentre study\Data from centres\Oulu\Processed data\OUHC01211C.QZD
Name:              	FL.OUL.NC.6.2
Protocol:          	MSCAN-R2
Date:              	11/12/20
Start time:        	09:12:08
Age:               	34
Sex:               	M
Temperature:       	33,1
S/R sites:         	TA
NC/disease:        	NC
Operator:          	MK
Comments:
M-SCAN DATA (2.8-0.0m)
Scanpts: 3, 7, 619, 649
Stim. (mA)     	Amp. (mV)
MS.1           	26             	5.746
MS.2           	26             	5.817
MS.3           	25.948         	5.758
MS.4           	25.895         	5.758
MS.5           	25.845         	5.708
MS.6           	25.792         	5.688
MS.7           	25.743         	5.74
MS.8           	25.69          	5.702
MS.9           	25.637         	5.626
MS.10          	25.587         	5.64
MS.11          	25.535         	5.67
MS.12          	25.485         	5.591
MS.13          	25.435         	5.611
MS.14          	25.382         	5.607
MS.15          	25.332         	5.638
MS.16          	25.282         	5.549
MS.17          	25.233         	5.652
MS.18          	25.18          	5.551
MS.19          	25.13          	5.525
MS.20          	25.08          	5.464
MS.21          	25.03          	5.549
MS.22          	24.98          	5.47
MS.23          	24.93          	5.404
MS.24          	24.88          	5.402
MS.25          	24.83          	5.432
MS.26          	24.782         	5.458
MS.27          	24.733         	5.386
MS.28          	24.682         	5.491
MS.29          	24.632         	5.448
MS.30          	24.585         	5.424
MS.31          	24.535         	5.44
MS.32          	24.485         	5.388
MS.33          	24.438         	5.444
MS.34          	24.387         	5.321
MS.35          	24.34          	5.325
MS.36          	24.29          	5.309
MS.37          	24.243         	5.267
MS.38          	24.195         	5.376
MS.39          	24.145         	5.241
MS.40          	24.097         	5.283
MS.41          	24.05          	5.283
MS.42          	24             	5.275
MS.43          	23.952         	5.265
MS.44          	23.905         	5.277
MS.45          	23.858         	5.271
MS.46          	23.81          	5.311
MS.47          	23.762         	5.295
MS.48          	23.715         	5.255
MS.49          	23.667         	5.227
MS.50          	23.62          	5.207
MS.51          	23.573         	5.287
MS.52          	23.525         	5.245
MS.53          	23.48          	5.231
MS.54          	23.432         	5.305
MS.55          	23.385         	5.247
MS.56          	23.337         	5.285
MS.57          	23.292         	5.207
MS.58          	23.245         	5.201
MS.59          	23.198         	5.229
MS.60          	23.153         	5.126
MS.61          	23.105         	5.152
MS.62          	23.06          	5.126
MS.63          	23.015         	5.172
MS.64          	22.967         	5.172
MS.65          	22.922         	5.104
MS.66          	22.875         	5.156
MS.67          	22.83          	4.923
MS.68          	22.785         	4.985
MS.69          	22.74          	5.058
MS.70          	22.695         	4.933
MS.71          	22.647         	5.056
MS.72          	22.602         	5.031
MS.73          	22.557         	5.086
MS.74          	22.512         	4.953
MS.75          	22.467         	5.068
MS.76          	22.422         	4.969
MS.77          	22.377         	5.031
MS.78          	22.332         	4.951
MS.79          	22.29          	4.935
MS.80          	22.245         	4.959
MS.81          	22.2           	4.927
MS.82          	22.155         	4.864
MS.83          	22.112         	4.874
MS.84          	22.067         	4.915
MS.85          	22.022         	4.846
MS.86          	21.98          	4.826
MS.87          	21.935         	4.818
MS.88          	21.892         	4.802
MS.89          	21.847         	4.927
MS.90          	21.805         	4.896
MS.91          	21.76          	4.828
MS.92          	21.717         	4.828
MS.93          	21.672         	4.836
MS.94          	21.63          	4.78
MS.95          	21.587         	4.774
MS.96          	21.545         	4.812
MS.97          	21.5           	4.735
MS.98          	21.458         	4.733
MS.99          	21.415         	4.665
MS.100         	21.372         	4.659
MS.101         	21.33          	4.673
MS.102         	21.288         	4.759
MS.103         	21.245         	4.659
MS.104         	21.202         	4.685
MS.105         	21.16          	4.653
MS.106         	21.118         	4.627
MS.107         	21.075         	4.653
MS.108         	21.032         	4.719
MS.109         	20.99          	4.58
MS.110         	20.95          	4.526
MS.111         	20.907         	4.572
MS.112         	20.865         	4.586
MS.113         	20.825         	4.606
MS.114         	20.782         	4.633
MS.115         	20.74          	4.548
MS.116         	20.7           	4.568
MS.117         	20.657         	4.57
MS.118         	20.618         	4.439
MS.119         	20.575         	4.471
MS.120         	20.535         	4.453
MS.121         	20.493         	4.451
MS.122         	20.452         	4.409
MS.123         	20.413         	4.455
MS.124         	20.37          	4.409
MS.125         	20.33          	4.431
MS.126         	20.29          	4.351
MS.127         	20.25          	4.391
MS.128         	20.208         	4.336
MS.129         	20.167         	4.195
MS.130         	20.127         	4.345
MS.131         	20.087         	4.318
MS.132         	20.047         	4.308
MS.133         	20.007         	4.282
MS.134         	19.967         	4.248
MS.135         	19.927         	4.306
MS.136         	19.887         	4.27
MS.137         	19.847         	4.189
MS.138         	19.807         	4.179
MS.139         	19.767         	4.206
MS.140         	19.73          	4.177
MS.141         	19.69          	4.159
MS.142         	19.65          	4.123
MS.143         	19.61          	4.167
MS.144         	19.573         	4.087
MS.145         	19.532         	4.038
MS.146         	19.495         	4.159
MS.147         	19.455         	4.071
MS.148         	19.415         	4.04
MS.149         	19.377         	4.046
MS.150         	19.337         	3.942
MS.151         	19.3           	3.96
MS.152         	19.262         	3.877
MS.153         	19.222         	3.895
MS.154         	19.185         	3.843
MS.155         	19.145         	3.853
MS.156         	19.108         	3.857
MS.157         	19.07          	3.783
MS.158         	19.032         	3.911
MS.159         	18.993         	3.791
MS.160         	18.955         	3.736
MS.161         	18.917         	3.742
MS.162         	18.88          	3.619
MS.163         	18.842         	3.676
MS.164         	18.805         	3.664
MS.165         	18.767         	3.694
MS.166         	18.73          	3.706
MS.167         	18.692         	3.694
MS.168         	18.655         	3.742
MS.169         	18.618         	3.593
MS.170         	18.58          	3.607
MS.171         	18.542         	3.603
MS.172         	18.505         	3.656
MS.173         	18.47          	3.63
MS.174         	18.432         	3.632
MS.175         	18.395         	3.45
MS.176         	18.358         	3.523
MS.177         	18.323         	3.515
MS.178         	18.285         	3.325
MS.179         	18.25          	3.307
MS.180         	18.212         	3.462
MS.181         	18.175         	3.442
MS.182         	18.14          	3.436
MS.183         	18.102         	3.392
MS.184         	18.067         	3.273
MS.185         	18.03          	3.444
MS.186         	17.995         	3.321
MS.187         	17.96          	3.317
MS.188         	17.922         	3.321
MS.189         	17.887         	3.255
MS.190         	17.852         	3.263
MS.191         	17.815         	3.166
MS.192         	17.78          	3.315
MS.193         	17.745         	3.221
MS.194         	17.71          	3.156
MS.195         	17.675         	3.1
MS.196         	17.637         	3.132
MS.197         	17.602         	3.164
MS.198         	17.567         	3.09
MS.199         	17.532         	3.102
MS.200         	17.497         	3.009
MS.201         	17.462         	2.957
MS.202         	17.427         	2.86
MS.203         	17.392         	2.872
MS.204         	17.36          	2.9
MS.205         	17.325         	2.808
MS.206         	17.29          	2.695
MS.207         	17.255         	2.747
MS.208         	17.22          	2.751
MS.209         	17.185         	2.703
MS.210         	17.153         	2.745
MS.211         	17.118         	2.773
MS.212         	17.083         	2.743
MS.213         	17.05          	2.711
MS.214         	17.015         	2.733
MS.215         	16.98          	2.639
MS.216         	16.948         	2.626
MS.217         	16.913         	2.651
MS.218         	16.88          	2.574
MS.219         	16.845         	2.637
MS.220         	16.812         	2.546
MS.221         	16.778         	2.473
MS.222         	16.745         	2.552
MS.223         	16.712         	2.604
MS.224         	16.677         	2.381
MS.225         	16.645         	2.266
MS.226         	16.612         	2.433
MS.227         	16.577         	2.494
MS.228         	16.545         	2.093
MS.229         	16.512         	2.171
MS.230         	16.48          	2.351
MS.231         	16.445         	2.242
MS.232         	16.413         	2.034
MS.233         	16.38          	2.246
MS.234         	16.347         	2.173
MS.235         	16.315         	1.994
MS.236         	16.282         	1.942
MS.237         	16.25          	2.022
MS.238         	16.217         	1.932
MS.239         	16.185         	1.907
MS.240         	16.153         	1.938
MS.241         	16.12          	1.791
MS.242         	16.087         	2.018
MS.243         	16.055         	1.899
MS.244         	16.025         	1.801
MS.245         	15.992         	1.952
MS.246         	15.96          	1.94
MS.247         	15.927         	1.924
MS.248         	15.898         	1.797
MS.249         	15.865         	1.776
MS.250         	15.832         	1.585
MS.251         	15.802         	1.75
MS.252         	15.77          	1.843
MS.253         	15.737         	1.599
MS.254         	15.707         	1.766
MS.255         	15.675         	1.779
MS.256         	15.645         	1.885
MS.257         	15.612         	1.827
MS.258         	15.582         	1.68
MS.259         	15.55          	1.75
MS.260         	15.52          	1.561
MS.261         	15.487         	1.468
MS.262         	15.457         	1.505
MS.263         	15.427         	1.633
MS.264         	15.395         	1.549
MS.265         	15.365         	1.349
MS.266         	15.335         	1.444
MS.267         	15.302         	1.299
MS.268         	15.273         	1.42
MS.269         	15.242         	1.323
MS.270         	15.212         	1.319
MS.271         	15.182         	1.386
MS.272         	15.152         	1.283
MS.273         	15.12          	1.376
MS.274         	15.09          	1.265
MS.275         	15.06          	1.347
MS.276         	15.03          	1.273
MS.277         	15             	1.259
MS.278         	14.97          	1.301
MS.279         	14.94          	1.213
MS.280         	14.91          	1.223
MS.281         	14.88          	1.37
MS.282         	14.852         	1.273
MS.283         	14.822         	1.215
MS.284         	14.792         	1.221
MS.285         	14.762         	1.192
MS.286         	14.733         	1.211
MS.287         	14.702         	1.142
MS.288         	14.675         	1.208
MS.289         	14.645         	1.15
MS.290         	14.615         	1.229
MS.291         	14.587         	1.154
MS.292         	14.557         	1.259
MS.293         	14.527         	1.215
MS.294         	14.5           	1.204
MS.295         	14.47          	1.213
MS.296         	14.443         	1.132
MS.297         	14.412         	1.249
MS.298         	14.382         	1.043
MS.299         	14.355         	1.188
MS.300         	14.327         	1.156
MS.301         	14.297         	1.088
MS.302         	14.27          	1.14
MS.303         	14.24          	1.07
MS.304         	14.212         	1.043
MS.305         	14.185         	1.14
MS.306         	14.155         	1.182
MS.307         	14.127         	1.092
MS.308         	14.1           	1.057
MS.309         	14.07          	1.045
MS.310         	14.042         	1.114
MS.311         	14.015         	0.987
MS.312         	13.987         	0.937
MS.313         	13.957         	0.981
MS.314         	13.93          	0.981
MS.315         	13.903         	0.965
MS.316         	13.875         	1.021
MS.317         	13.847         	0.945
MS.318         	13.82          	1.049
MS.319         	13.792         	0.979
MS.320         	13.765         	1.019
MS.321         	13.737         	0.908
MS.322         	13.71          	0.945
MS.323         	13.682         	0.941
MS.324         	13.655         	0.979
MS.325         	13.627         	0.914
MS.326         	13.6           	0.961
MS.327         	13.572         	0.886
MS.328         	13.545         	0.914
MS.329         	13.52          	0.92
MS.330         	13.492         	0.814
MS.331         	13.465         	0.806
MS.332         	13.438         	0.912
MS.333         	13.412         	0.844
MS.334         	13.385         	0.779
MS.335         	13.358         	0.804
MS.336         	13.33          	0.786
MS.337         	13.305         	0.769
MS.338         	13.278         	0.82
MS.339         	13.252         	0.737
MS.340         	13.225         	0.737
MS.341         	13.197         	0.818
MS.342         	13.172         	0.737
MS.343         	13.145         	0.812
MS.344         	13.12          	0.733
MS.345         	13.092         	0.683
MS.346         	13.068         	0.763
MS.347         	13.04          	0.699
MS.348         	13.015         	0.711
MS.349         	12.99          	0.681
MS.350         	12.962         	0.761
MS.351         	12.938         	0.677
MS.352         	12.91          	0.683
MS.353         	12.885         	0.689
MS.354         	12.86          	0.641
MS.355         	12.835         	0.653
MS.356         	12.807         	0.602
MS.357         	12.782         	0.697
MS.358         	12.757         	0.636
MS.359         	12.733         	0.554
MS.360         	12.707         	0.574
MS.361         	12.68          	0.566
MS.362         	12.655         	0.61
MS.363         	12.63          	0.592
MS.364         	12.605         	0.632
MS.365         	12.58          	0.556
MS.366         	12.555         	0.516
MS.367         	12.53          	0.526
MS.368         	12.505         	0.58
MS.369         	12.48          	0.522
MS.370         	12.455         	0.556
MS.371         	12.43          	0.52
MS.372         	12.405         	0.574
MS.373         	12.38          	0.542
MS.374         	12.355         	0.552
MS.375         	12.33          	0.538
MS.376         	12.305         	0.538
MS.377         	12.282         	0.518
MS.378         	12.257         	0.451
MS.379         	12.233         	0.447
MS.380         	12.207         	0.465
MS.381         	12.182         	0.52
MS.382         	12.16          	0.429
MS.383         	12.135         	0.439
MS.384         	12.11          	0.425
MS.385         	12.087         	0.441
MS.386         	12.062         	0.522
MS.387         	12.037         	0.461
MS.388         	12.015         	0.485
MS.389         	11.99          	0.445
MS.390         	11.967         	0.409
MS.391         	11.943         	0.425
MS.392         	11.917         	0.415
MS.393         	11.895         	0.391
MS.394         	11.87          	0.431
MS.395         	11.847         	0.421
MS.396         	11.822         	0.403
MS.397         	11.8           	0.359
MS.398         	11.778         	0.383
MS.399         	11.752         	0.365
MS.400         	11.73          	0.379
MS.401         	11.705         	0.375
MS.402         	11.682         	0.389
MS.403         	11.66          	0.377
MS.404         	11.635         	0.397
MS.405         	11.613         	0.383
MS.406         	11.59          	0.409
MS.407         	11.568         	0.385
MS.408         	11.542         	0.344
MS.409         	11.52          	0.357
MS.410         	11.497         	0.352
MS.411         	11.475         	0.338
MS.412         	11.45          	0.365
MS.413         	11.427         	0.357
MS.414         	11.405         	0.324
MS.415         	11.382         	0.352
MS.416         	11.36          	0.342
MS.417         	11.337         	0.34
MS.418         	11.315         	0.336
MS.419         	11.292         	0.322
MS.420         	11.27          	0.294
MS.421         	11.247         	0.322
MS.422         	11.225         	0.298
MS.423         	11.202         	0.318
MS.424         	11.18          	0.322
MS.425         	11.157         	0.31
MS.426         	11.135         	0.302
MS.427         	11.113         	0.3
MS.428         	11.09          	0.288
MS.429         	11.068         	0.274
MS.430         	11.047         	0.318
MS.431         	11.025         	0.308
MS.432         	11.002         	0.214
MS.433         	10.98          	0.264
MS.434         	10.957         	0.266
MS.435         	10.938         	0.28
MS.436         	10.915         	0.268
MS.437         	10.892         	0.284
MS.438         	10.87          	0.216
MS.439         	10.85          	0.23
MS.440         	10.827         	0.201
MS.441         	10.805         	0.28
MS.442         	10.785         	0.252
MS.443         	10.762         	0.211
MS.444         	10.742         	0.276
MS.445         	10.72          	0.216
MS.446         	10.698         	0.209
MS.447         	10.677         	0.276
MS.448         	10.655         	0.218
MS.449         	10.635         	0.27
MS.450         	10.613         	0.211
MS.451         	10.592         	0.218
MS.452         	10.57          	0.207
MS.453         	10.55          	0.197
MS.454         	10.528         	0.203
MS.455         	10.507         	0.274
MS.456         	10.488         	0.211
MS.457         	10.465         	0.205
MS.458         	10.445         	0.199
MS.459         	10.425         	0.209
MS.460         	10.403         	0.201
MS.461         	10.382         	0.199
MS.462         	10.363         	0.209
MS.463         	10.34          	0.203
MS.464         	10.32          	0.189
MS.465         	10.3           	0.189
MS.466         	10.28          	0.191
MS.467         	10.257         	0.165
MS.468         	10.238         	0.175
MS.469         	10.217         	0.163
MS.470         	10.198         	0.169
MS.471         	10.177         	0.169
MS.472         	10.157         	0.163
MS.473         	10.135         	0.167
MS.474         	10.115         	0.171
MS.475         	10.095         	0.165
MS.476         	10.075         	0.149
MS.477         	10.055         	0.153
MS.478         	10.035         	0.155
MS.479         	10.015         	0.149
MS.480         	9.995          	0.151
MS.481         	9.975          	0.115
MS.482         	9.955          	0.155
MS.483         	9.935          	0.139
MS.484         	9.915          	0.135
MS.485         	9.895          	0.155
MS.486         	9.875          	0.149
MS.487         	9.855          	0.149
MS.488         	9.837          	0.119
MS.489         	9.818          	0.141
MS.490         	9.797          	0.127
MS.491         	9.778          	0.147
MS.492         	9.757          	0.131
MS.493         	9.738          	0.123
MS.494         	9.72           	0.101
MS.495         	9.7            	0.111
MS.496         	9.68           	0.127
MS.497         	9.66           	0.103
MS.498         	9.642          	0.111
MS.499         	9.622          	0.105
MS.500         	9.602          	0.097
MS.501         	9.585          	0.107
MS.502         	9.565          	0.115
MS.503         	9.545          	0.107
MS.504         	9.528          	0.101
MS.505         	9.507          	0.101
MS.506         	9.488          	0.109
MS.507         	9.47           	0.097
MS.508         	9.45           	0.091
MS.509         	9.432          	0.087
MS.510         	9.412          	0.083
MS.511         	9.395          	0.068
MS.512         	9.375          	0.119
MS.513         	9.358          	0.075
MS.514         	9.337          	0.075
MS.515         	9.32           	0.075
MS.516         	9.3            	0.083
MS.517         	9.283          	0.062
MS.518         	9.262          	0.054
MS.519         	9.245          	0.05
MS.520         	9.227          	0.058
MS.521         	9.207          	0.042
MS.522         	9.19           	0.044
MS.523         	9.172          	0.048
MS.524         	9.153          	0.036
MS.525         	9.135          	0.044
MS.526         	9.117          	0.04
MS.527         	9.097          	0.02
MS.528         	9.08           	0.022
MS.529         	9.062          	0.036
MS.530         	9.045          	0.044
MS.531         	9.025          	0.006
MS.532         	9.007          	0.022
MS.533         	8.99           	0.014
MS.534         	8.972          	0.006
MS.535         	8.955          	0.004
MS.536         	8.935          	0.01
MS.537         	8.917          	0.000
MS.538         	8.9            	0.004
MS.539         	8.882          	0.002
MS.540         	8.865          	0.006
MS.541         	8.847          	-0.014
MS.542         	8.83           	0.008
MS.543         	8.812          	-0.026
MS.544         	8.795          	0.002
MS.545         	8.778          	-0.008
MS.546         	8.76           	-0.014
MS.547         	8.742          	-0.018
MS.548         	8.725          	-0.012
MS.549         	8.707          	-0.018
MS.550         	8.69           	-0.008
MS.551         	8.672          	-0.022
MS.552         	8.655          	-0.014
MS.553         	8.637          	-0.016
MS.554         	8.62           	-0.04
MS.555         	8.602          	-0.01
MS.556         	8.585          	-0.026
MS.557         	8.568          	-0.022
MS.558         	8.552          	-0.034
MS.559         	8.535          	-0.044
MS.560         	8.517          	-0.016
MS.561         	8.5            	-0.056
MS.562         	8.483          	-0.026
MS.563         	8.467          	-0.06
MS.564         	8.45           	-0.028
MS.565         	8.432          	-0.038
MS.566         	8.415          	-0.046
MS.567         	8.4            	-0.058
MS.568         	8.382          	-0.048
MS.569         	8.365          	-0.048
MS.570         	8.347          	-0.06
MS.571         	8.332          	-0.054
MS.572         	8.315          	-0.052
MS.573         	8.297          	-0.048
MS.574         	8.283          	-0.054
MS.575         	8.265          	-0.056
MS.576         	8.25           	-0.068
MS.577         	8.233          	-0.062
MS.578         	8.215          	-0.056
MS.579         	8.2            	-0.064
MS.580         	8.182          	-0.064
MS.581         	8.167          	-0.06
MS.582         	8.15           	-0.062
MS.583         	8.135          	-0.058
MS.584         	8.117          	-0.064
MS.585         	8.102          	-0.066
MS.586         	8.085          	-0.066
MS.587         	8.07           	-0.064
MS.588         	8.052          	-0.066
MS.589         	8.037          	-0.056
MS.590         	8.023          	-0.066
MS.591         	8.005          	-0.068
MS.592         	7.99           	-0.066
MS.593         	7.972          	-0.066
MS.594         	7.957          	-0.07
MS.595         	7.942          	-0.064
MS.596         	7.925          	-0.07
MS.597         	7.91           	-0.062
MS.598         	7.895          	-0.068
MS.599         	7.878          	-0.064
MS.600         	7.862          	-0.07
MS.601         	7.847          	-0.064
MS.602         	7.83           	-0.068
MS.603         	7.815          	-0.066
MS.604         	7.8            	-0.064
MS.605         	7.785          	-0.066
MS.606         	7.767          	-0.064
MS.607         	7.753          	-0.062
MS.608         	7.737          	-0.068
MS.609         	7.722          	-0.064
MS.610         	7.707          	-0.066
MS.611         	7.692          	-0.062
MS.612         	7.675          	-0.064
MS.613         	7.66           	-0.066
MS.614         	7.645          	-0.066
MS.615         	7.63           	-0.064
MS.616         	7.615          	-0.064
MS.617         	7.6            	-0.07
MS.618         	7.585          	-0.062
MS.619         	7.57           	-0.062
MS.620         	7.555          	-0.07
MS.621         	7.54           	-0.062
MS.622         	7.525          	-0.062
MS.623         	7.51           	-0.068
MS.624         	7.495          	-0.064
MS.625         	7.48           	-0.064
MS.626         	7.465          	-0.068
MS.627         	7.45           	-0.068
MS.628         	7.435          	-0.064
MS.629         	7.42           	-0.068
MS.630         	7.405          	-0.064
MS.631         	7.39           	-0.064
MS.632         	7.375          	-0.062
MS.633         	7.36           	-0.064
MS.634         	7.345          	-0.066
MS.635         	7.33           	-0.064
MS.636         	7.315          	-0.066
MS.637         	7.302          	-0.064
MS.638         	7.287          	-0.058
MS.639         	7.273          	-0.064
MS.640         	7.257          	-0.062
MS.641         	7.242          	-0.064
MS.642         	7.23           	-0.06
MS.643         	7.215          	-0.062
MS.644         	7.2            	-0.064
MS.645         	7.185          	-0.06
MS.646         	7.172          	-0.064
MS.647         	7.157          	-0.068
MS.648         	7.142          	-0.07
MS.649         	7.128          	-0.068
MS.650         	7.115          	-0.064
MS.651         	7.1            	-0.068
MS.652         	7.085          	-0.06
MS.653         	7.072          	-0.066
MS.654         	7.057          	-0.062
MS.655         	7.043          	-0.06
MS.656         	7.03           	-0.064
MS.657         	7.015          	-0.064
MS.658         	7.003          	-0.062
MS.659         	6.987          	-0.062
MS.660         	6.972          	-0.064
MS.661         	6.96           	-0.06
MS.662         	6.945          	-0.064
MS.663         	6.932          	-0.06
MS.664         	6.918          	-0.06
MS.665         	6.905          	-0.068
MS.666         	6.89           	-0.058
MS.667         	6.878          	-0.066
MS.668         	6.862          	-0.06
MS.669         	6.85           	-0.066
MS.670         	6.835          	-0.06
MS.671         	6.822          	-0.056
MS.672         	6.807          	-0.06
MS.673         	6.795          	-0.06
MS.674         	6.78           	-0.062
MS.675         	6.767          	-0.06
MS.676         	6.753          	-0.06
MS.677         	6.74           	-0.06
MS.678         	6.727          	-0.058
MS.679         	6.712          	-0.062
MS.680         	6.7            	-0.056
MS.681         	6.688          	-0.056
MS.682         	6.672          	-0.058
MS.683         	6.66           	-0.062
MS.684         	6.648          	-0.062
MS.685         	6.632          	-0.058
MS.686         	6.62           	-0.056
MS.687         	6.608          	-0.062
MS.688         	6.592          	-0.054
MS.689         	6.58           	-0.058
MS.690         	6.567          	-0.058
MS.691         	6.555          	-0.058
MS.692         	6.54           	-0.056
MS.693         	6.527          	-0.062
MS.694         	6.515          	-0.064
MS.695         	6.503          	-0.056
MS.696         	6.49           	-0.058
MS.697         	6.475          	-0.06
MS.698         	6.462          	-0.06
MS.699         	6.45           	-0.06
MS.700         	6.438          	-0.062
MS.701         	6.425          	-0.06
MS.702         	6.412          	-0.06
MS.703         	6.398          	-0.058
MS.704         	6.385          	-0.058
MS.705         	6.372          	-0.058
MS.706         	6.36           	-0.06
MS.707         	6.347          	-0.058
MS.708         	6.335          	-0.06
MS.709         	6.322          	-0.058
MS.710         	6.31           	-0.056
MS.711         	6.297          	-0.058
MS.712         	6.285          	-0.056
MS.713         	6.273          	-0.054
MS.714         	6.26           	-0.062
MS.715         	6.247          	-0.052
MS.716         	6.235          	-0.056
MS.717         	6.222          	-0.06
MS.718         	6.21           	-0.06
MS.719         	6.197          	-0.056
MS.720         	6.185          	-0.058
MS.721         	6.172          	-0.058
MS.722         	6.16           	-0.052
MS.723         	6.148          	-0.064
MS.724         	6.135          	-0.054
DERIVED EXCITABILITY VARIABLES
Program = QTracP 9/10/2021
Threshold method = 6 (optimised for CAP, using data for present condition only)
SR method = 1 (using actual data values)
6.                 	0.000               	Peak response\(mV)
9.                 	33                  	Temperature ( C)
17.                	34                  	Age (years)
18.                	1                   	Sex (M=1, F=2)

EXTRA VARIABLES

MScPeak(mV) = 5.79
MScS5(mA) = 8.82
MScS50(mA) = 8.52
MScS95(mA) = 7.73
MScNSteps = 0
MScSteps(%) = 0.0
MScStepMax(%) = 0.0
MScD50 = 74
MScSlope = -39.98
MScDuration(min) = 2.8
MSFTraces = 647
MSFPeakAmp(mV) = 5.79
MSFNUnits = 142
MSFMeanUnitAmp(uV) = 40.8
MSFHuntTime(m) = 4.04
MSFError(%) = 1.98
MSFNLarge = 39.49
MSFMedianAmp(%) = 0.537
MSFMedianAmp(mV) = 0.0311
MSFHalfAmpAmp(%) = 0.764
MSFHalfAmpAmp(mV) = 0.0443
MSFLargestAmp(%) = 2.69
MSFLargestAmp(mV) = 0.156
MSFMeanRS(%) = 2
MSFSizeLimit(uV) = 14.5
MSFLimitType = 1
MSFSmallestAmp(uV) = 14.8
MSFOpts = 10106121

EXTRA WAVEFORMS


!MScan Model
!142
	1	8.42	0.35	2
	2	8.67	0.45	2
	3	8.85	0.29	2
	4	8.98	0.26	2
	5	9.16	0.49	2
	6	9.26	0.38	2
	7	9.42	0.47	2
	8	9.72	0.52	2
	9	9.95	0.44	2
	10	10.19	0.45	2
	11	10.48	0.71	2
	12	10.93	0.83	2
	13	11.06	0.47	2
	14	11.23	0.52	2
	15	11.36	0.43	2
	16	11.51	0.37	2
	17	11.76	0.51	2
	18	11.87	0.31	2
	19	12.15	1.03	2
	20	12.24	0.36	2
	21	12.33	0.51	2
	22	12.52	0.83	2
	23	12.65	0.45	2
	24	12.78	0.76	2
	25	12.86	0.5	2
	26	12.97	0.7	2
	27	13.11	0.6	2
	28	13.26	0.9	2
	29	13.4	0.69	2
	30	13.46	0.46	2
	31	13.52	0.49	2
	32	13.58	0.54	2
	33	13.66	0.58	2
	34	13.98	1.23	2
	35	14.07	0.53	2
	36	14.35	1.74	2
	37	14.8	1.53	2
	38	14.97	0.87	2
	39	15.06	0.26	2
	40	15.16	0.71	2
	41	15.25	0.95	2
	42	15.3	0.62	2
	43	15.39	0.95	2
	44	15.47	2.69	2
	45	15.74	1.94	2
	46	15.97	1.68	2
	47	16.11	1.34	2
	48	16.21	1.33	2
	49	16.32	1.1	2
	50	16.41	1.48	2
	51	16.51	2.26	2
	52	16.6	1.48	2
	53	16.68	1.39	2
	54	16.72	0.75	2
	55	16.77	0.57	2
	56	16.81	0.57	2
	57	16.85	0.63	2
	58	16.89	0.61	2
	59	16.93	0.53	2
	60	16.98	0.38	2
	61	17.02	0.35	2
	62	17.11	0.73	2
	63	17.19	0.58	2
	64	17.25	0.36	2.1
	65	17.3	0.51	2
	66	17.36	1	2
	67	17.4	0.49	2
	68	17.43	0.49	2
	69	17.46	0.45	2
	70	17.48	0.47	2
	71	17.51	0.59	2
	72	17.56	0.73	2
	73	17.61	0.82	2
	74	17.66	0.75	2
	75	17.71	0.49	2
	76	17.77	0.66	2
	77	17.83	0.54	2
	78	17.98	1.39	2
	79	18.2	1.79	2
	80	18.3	0.88	2
	81	18.37	0.38	2
	82	18.45	1.07	2
	83	18.62	1.67	2
	84	18.76	0.5	2
	85	18.84	0.72	2
	86	18.96	0.62	2
	87	19.01	0.47	2
	88	19.05	0.38	2
	89	19.09	0.46	2
	90	19.13	0.45	2
	91	19.17	0.38	2
	92	19.2	0.28	2
	93	19.24	0.53	2
	94	19.31	0.47	2
	95	19.33	0.27	2
	96	19.35	0.27	2
	97	19.38	0.27	2
	98	19.42	0.54	2
	99	19.47	0.52	2
	100	19.51	0.4	2
	101	19.56	0.35	2
	102	19.62	0.47	2
	103	19.7	0.51	2
	104	19.76	0.46	2
	105	19.91	1.04	2
	106	20.05	0.69	2
	107	20.17	0.96	2
	108	20.29	0.49	2
	109	20.38	0.61	2
	110	20.44	0.34	2
	111	20.49	0.66	2
	112	20.54	0.42	2
	113	20.63	0.64	2
	114	20.76	0.6	2
	115	21.01	1.24	2
	116	21.23	0.77	2
	117	21.31	0.44	2
	118	21.4	0.5	2
	119	21.47	0.37	2
	120	21.6	0.62	2
	121	21.81	0.84	2
	122	22.08	1.26	2
	123	22.22	0.55	2
	124	22.3	0.4	2
	125	22.8	2.06	2
	126	22.93	0.32	2
	127	23.05	0.93	2
	128	23.16	0.84	2
	129	24.03	0.31	2
	130	24.33	0.58	2
	131	24.52	1.03	2
	132	24.71	1.43	2
	133	24.88	1.06	2
	134	25.01	0.37	2
	135	25.07	0.33	2
	136	25.13	0.42	2
	137	25.14	0.43	2
	138	25.22	0.64	2
	139	25.32	0.38	2
	140	25.41	0.4	2
	141	25.48	0.34	2
	142	25.56	0.42	2

