File:              	C:\Qtrac\Data\Daniel M Sørensen\MScan multicentre study\Data from centres\Odense\Processed data\PHC00902C.QZD
Name:              	DK.ODE.NC.3.1
Protocol:          	MSCAN-R2
Date:              	2/9/20
Start time:        	15:26:48
Age:               	29
Sex:               	M
Temperature:       	31.9
S/R sites:         	TA
NC/disease:        	NC
Operator:          	TK
Comments:
M-SCAN DATA (6.2-1.5m)
Scanpts: 32, 37, 469, 473
Stim. (mA)     	Amp. (mV)
MS.1           	23.5           	4.21
MS.2           	23.5           	4.222
MS.3           	23.5           	4.226
MS.4           	23.5           	4.187
MS.5           	23.5           	4.187
MS.6           	23.5           	4.222
MS.7           	23.5           	4.222
MS.8           	23.5           	4.244
MS.9           	23.5           	4.228
MS.10          	23.5           	4.216
MS.11          	23.5           	4.224
MS.12          	23.5           	4.228
MS.13          	23.5           	4.21
MS.14          	23.5           	4.206
MS.15          	23.5           	4.216
MS.16          	23.5           	4.206
MS.17          	23.5           	4.234
MS.18          	23.5           	4.216
MS.19          	23.5           	4.218
MS.20          	23.5           	4.185
MS.21          	23.5           	4.244
MS.22          	23.5           	4.22
MS.23          	23.405         	4.228
MS.24          	23.36          	4.24
MS.25          	23.312         	4.214
MS.26          	23.265         	4.206
MS.27          	23.22          	4.214
MS.28          	23.172         	4.228
MS.29          	23.127         	4.244
MS.30          	23.08          	4.24
MS.31          	23.035         	4.234
MS.32          	22.987         	4.232
MS.33          	22.942         	4.248
MS.34          	22.897         	4.198
MS.35          	22.85          	4.218
MS.36          	22.805         	4.187
MS.37          	22.76          	4.236
MS.38          	22.715         	4.206
MS.39          	22.67          	4.25
MS.40          	22.622         	4.242
MS.41          	22.577         	4.202
MS.42          	22.532         	4.198
MS.43          	22.487         	4.26
MS.44          	22.442         	4.195
MS.45          	22.397         	4.195
MS.46          	22.355         	4.212
MS.47          	22.31          	4.204
MS.48          	22.265         	4.252
MS.49          	22.22          	4.185
MS.50          	22.175         	4.232
MS.51          	22.132         	4.204
MS.52          	22.087         	4.216
MS.53          	22.042         	4.183
MS.54          	22             	4.226
MS.55          	21.955         	4.228
MS.56          	21.91          	4.248
MS.57          	21.868         	4.198
MS.58          	21.823         	4.195
MS.59          	21.78          	4.212
MS.60          	21.737         	4.191
MS.61          	21.692         	4.191
MS.62          	21.65          	4.21
MS.63          	21.608         	4.238
MS.64          	21.562         	4.149
MS.65          	21.52          	4.171
MS.66          	21.477         	4.133
MS.67          	21.435         	4.212
MS.68          	21.392         	4.099
MS.69          	21.35          	4.244
MS.70          	21.305         	4.111
MS.71          	21.262         	4.036
MS.72          	21.22          	4.042
MS.73          	21.177         	4.089
MS.74          	21.137         	4.042
MS.75          	21.095         	4.046
MS.76          	21.052         	4.123
MS.77          	21.01          	4.026
MS.78          	20.967         	4.024
MS.79          	20.925         	4.089
MS.80          	20.885         	4.032
MS.81          	20.842         	3.988
MS.82          	20.8           	4.107
MS.83          	20.76          	4.195
MS.84          	20.717         	4.018
MS.85          	20.677         	4.057
MS.86          	20.635         	3.994
MS.87          	20.595         	3.976
MS.88          	20.552         	3.95
MS.89          	20.512         	3.984
MS.90          	20.47          	3.893
MS.91          	20.43          	3.877
MS.92          	20.39          	3.944
MS.93          	20.347         	3.911
MS.94          	20.307         	3.813
MS.95          	20.267         	3.958
MS.96          	20.227         	3.785
MS.97          	20.185         	3.803
MS.98          	20.145         	3.857
MS.99          	20.105         	3.809
MS.100         	20.065         	3.807
MS.101         	20.025         	3.718
MS.102         	19.985         	3.581
MS.103         	19.945         	3.75
MS.104         	19.905         	3.744
MS.105         	19.865         	3.66
MS.106         	19.825         	3.74
MS.107         	19.788         	3.736
MS.108         	19.747         	3.678
MS.109         	19.708         	3.654
MS.110         	19.667         	3.71
MS.111         	19.63          	3.7
MS.112         	19.59          	3.716
MS.113         	19.55          	3.656
MS.114         	19.512         	3.619
MS.115         	19.472         	3.605
MS.116         	19.432         	3.607
MS.117         	19.395         	3.666
MS.118         	19.355         	3.619
MS.119         	19.317         	3.678
MS.120         	19.278         	3.599
MS.121         	19.24          	3.66
MS.122         	19.202         	3.557
MS.123         	19.163         	3.63
MS.124         	19.125         	3.632
MS.125         	19.087         	3.515
MS.126         	19.047         	3.509
MS.127         	19.01          	3.476
MS.128         	18.972         	3.43
MS.129         	18.935         	3.591
MS.130         	18.897         	3.567
MS.131         	18.86          	3.346
MS.132         	18.823         	3.517
MS.133         	18.785         	3.493
MS.134         	18.747         	3.517
MS.135         	18.71          	3.428
MS.136         	18.672         	3.271
MS.137         	18.635         	3.37
MS.138         	18.597         	3.358
MS.139         	18.56          	3.255
MS.140         	18.522         	3.337
MS.141         	18.485         	3.319
MS.142         	18.448         	3.313
MS.143         	18.413         	3.251
MS.144         	18.375         	3.303
MS.145         	18.337         	3.17
MS.146         	18.302         	3.166
MS.147         	18.265         	3.156
MS.148         	18.227         	3.182
MS.149         	18.192         	3.267
MS.150         	18.155         	3.136
MS.151         	18.12          	3.15
MS.152         	18.083         	3.066
MS.153         	18.047         	3.16
MS.154         	18.01          	3.041
MS.155         	17.975         	2.931
MS.156         	17.94          	3.031
MS.157         	17.903         	2.941
MS.158         	17.868         	3.098
MS.159         	17.833         	3.021
MS.160         	17.797         	3.031
MS.161         	17.76          	2.965
MS.162         	17.725         	2.933
MS.163         	17.69          	3.019
MS.164         	17.655         	2.884
MS.165         	17.62          	2.995
MS.166         	17.585         	2.896
MS.167         	17.55          	2.987
MS.168         	17.515         	2.955
MS.169         	17.48          	2.961
MS.170         	17.445         	2.852
MS.171         	17.41          	2.89
MS.172         	17.375         	2.864
MS.173         	17.34          	2.864
MS.174         	17.305         	2.771
MS.175         	17.27          	2.866
MS.176         	17.235         	2.755
MS.177         	17.202         	2.816
MS.178         	17.167         	2.842
MS.179         	17.132         	2.675
MS.180         	17.097         	2.81
MS.181         	17.065         	2.761
MS.182         	17.03          	2.671
MS.183         	16.997         	2.62
MS.184         	16.962         	2.8
MS.185         	16.927         	2.753
MS.186         	16.895         	2.685
MS.187         	16.86          	2.653
MS.188         	16.827         	2.624
MS.189         	16.792         	2.667
MS.190         	16.76          	2.679
MS.191         	16.727         	2.639
MS.192         	16.692         	2.612
MS.193         	16.66          	2.6
MS.194         	16.628         	2.651
MS.195         	16.592         	2.588
MS.196         	16.56          	2.564
MS.197         	16.528         	2.548
MS.198         	16.495         	2.614
MS.199         	16.46          	2.562
MS.200         	16.427         	2.51
MS.201         	16.395         	2.492
MS.202         	16.362         	2.494
MS.203         	16.33          	2.52
MS.204         	16.297         	2.431
MS.205         	16.265         	2.433
MS.206         	16.233         	2.471
MS.207         	16.2           	2.338
MS.208         	16.167         	2.363
MS.209         	16.135         	2.411
MS.210         	16.102         	2.326
MS.211         	16.07          	2.371
MS.212         	16.038         	2.393
MS.213         	16.007         	2.373
MS.214         	15.975         	2.367
MS.215         	15.943         	2.288
MS.216         	15.91          	2.278
MS.217         	15.88          	2.25
MS.218         	15.847         	2.242
MS.219         	15.815         	2.216
MS.220         	15.785         	2.314
MS.221         	15.752         	2.113
MS.222         	15.72          	2.191
MS.223         	15.69          	2.214
MS.224         	15.657         	2.028
MS.225         	15.627         	2.163
MS.226         	15.595         	2.145
MS.227         	15.565         	2.093
MS.228         	15.532         	2.153
MS.229         	15.502         	2.216
MS.230         	15.472         	2.149
MS.231         	15.44          	2.014
MS.232         	15.41          	2.05
MS.233         	15.38          	1.909
MS.234         	15.347         	1.966
MS.235         	15.318         	2.002
MS.236         	15.287         	1.887
MS.237         	15.257         	2.065
MS.238         	15.225         	1.946
MS.239         	15.195         	1.863
MS.240         	15.165         	1.972
MS.241         	15.135         	1.807
MS.242         	15.105         	1.901
MS.243         	15.075         	1.754
MS.244         	15.045         	1.789
MS.245         	15.015         	1.744
MS.246         	14.985         	1.692
MS.247         	14.955         	1.722
MS.248         	14.925         	1.74
MS.249         	14.895         	1.801
MS.250         	14.865         	1.676
MS.251         	14.835         	1.696
MS.252         	14.805         	1.559
MS.253         	14.775         	1.537
MS.254         	14.747         	1.503
MS.255         	14.717         	1.571
MS.256         	14.688         	1.579
MS.257         	14.657         	1.565
MS.258         	14.63          	1.486
MS.259         	14.6           	1.462
MS.260         	14.57          	1.356
MS.261         	14.542         	1.474
MS.262         	14.512         	1.418
MS.263         	14.483         	1.349
MS.264         	14.455         	1.339
MS.265         	14.425         	1.299
MS.266         	14.398         	1.257
MS.267         	14.367         	1.172
MS.268         	14.34          	1.182
MS.269         	14.31          	1.253
MS.270         	14.282         	1.152
MS.271         	14.252         	1.315
MS.272         	14.225         	1.118
MS.273         	14.197         	1.285
MS.274         	14.167         	1.144
MS.275         	14.14          	1.14
MS.276         	14.112         	1.086
MS.277         	14.082         	1.059
MS.278         	14.055         	0.987
MS.279         	14.028         	1.106
MS.280         	14             	1.007
MS.281         	13.97          	0.943
MS.282         	13.943         	1.011
MS.283         	13.915         	1.023
MS.284         	13.887         	1.086
MS.285         	13.86          	0.912
MS.286         	13.832         	0.963
MS.287         	13.805         	0.955
MS.288         	13.778         	0.959
MS.289         	13.75          	0.864
MS.290         	13.722         	0.888
MS.291         	13.695         	0.874
MS.292         	13.667         	0.773
MS.293         	13.64          	0.796
MS.294         	13.612         	0.796
MS.295         	13.585         	0.773
MS.296         	13.557         	0.745
MS.297         	13.53          	0.777
MS.298         	13.505         	0.721
MS.299         	13.477         	0.699
MS.300         	13.45          	0.739
MS.301         	13.422         	0.717
MS.302         	13.398         	0.697
MS.303         	13.37          	0.715
MS.304         	13.342         	0.634
MS.305         	13.318         	0.661
MS.306         	13.29          	0.628
MS.307         	13.262         	0.636
MS.308         	13.237         	0.628
MS.309         	13.21          	0.626
MS.310         	13.185         	0.582
MS.311         	13.157         	0.576
MS.312         	13.132         	0.586
MS.313         	13.105         	0.564
MS.314         	13.08          	0.572
MS.315         	13.052         	0.524
MS.316         	13.028         	0.495
MS.317         	13             	0.506
MS.318         	12.975         	0.544
MS.319         	12.947         	0.493
MS.320         	12.922         	0.493
MS.321         	12.898         	0.471
MS.322         	12.87          	0.467
MS.323         	12.845         	0.437
MS.324         	12.82          	0.473
MS.325         	12.795         	0.481
MS.326         	12.767         	0.393
MS.327         	12.742         	0.435
MS.328         	12.717         	0.415
MS.329         	12.693         	0.423
MS.330         	12.667         	0.357
MS.331         	12.642         	0.365
MS.332         	12.617         	0.383
MS.333         	12.59          	0.405
MS.334         	12.565         	0.34
MS.335         	12.54          	0.342
MS.336         	12.515         	0.31
MS.337         	12.49          	0.286
MS.338         	12.465         	0.294
MS.339         	12.44          	0.324
MS.340         	12.415         	0.314
MS.341         	12.392         	0.234
MS.342         	12.367         	0.272
MS.343         	12.342         	0.284
MS.344         	12.318         	0.238
MS.345         	12.292         	0.201
MS.346         	12.267         	0.201
MS.347         	12.242         	0.254
MS.348         	12.22          	0.209
MS.349         	12.195         	0.274
MS.350         	12.17          	0.203
MS.351         	12.145         	0.207
MS.352         	12.122         	0.216
MS.353         	12.097         	0.193
MS.354         	12.072         	0.248
MS.355         	12.05          	0.218
MS.356         	12.025         	0.183
MS.357         	12             	0.165
MS.358         	11.977         	0.155
MS.359         	11.952         	0.131
MS.360         	11.93          	0.167
MS.361         	11.905         	0.157
MS.362         	11.882         	0.079
MS.363         	11.858         	0.135
MS.364         	11.835         	0.153
MS.365         	11.81          	0.167
MS.366         	11.787         	0.123
MS.367         	11.762         	0.105
MS.368         	11.74          	0.189
MS.369         	11.717         	0.068
MS.370         	11.693         	0.105
MS.371         	11.67          	0.147
MS.372         	11.648         	0.155
MS.373         	11.622         	0.113
MS.374         	11.6           	0.085
MS.375         	11.577         	0.058
MS.376         	11.552         	0.066
MS.377         	11.53          	0.099
MS.378         	11.507         	0.099
MS.379         	11.485         	0.073
MS.380         	11.462         	0.07
MS.381         	11.438         	0.099
MS.382         	11.415         	0.048
MS.383         	11.392         	0.062
MS.384         	11.37          	0.042
MS.385         	11.347         	0.056
MS.386         	11.325         	0.046
MS.387         	11.302         	0.068
MS.388         	11.28          	0.087
MS.389         	11.257         	0.042
MS.390         	11.235         	0.02
MS.391         	11.212         	0.064
MS.392         	11.19          	0.066
MS.393         	11.167         	0.044
MS.394         	11.145         	0.04
MS.395         	11.122         	0.012
MS.396         	11.1           	0.02
MS.397         	11.077         	0.026
MS.398         	11.055         	0.04
MS.399         	11.035         	0.036
MS.400         	11.012         	0.05
MS.401         	10.99          	0.016
MS.402         	10.967         	0.024
MS.403         	10.945         	0.032
MS.404         	10.925         	0.038
MS.405         	10.903         	0.05
MS.406         	10.88          	0.038
MS.407         	10.86          	0.024
MS.408         	10.837         	0.01
MS.409         	10.815         	0.042
MS.410         	10.795         	0.024
MS.411         	10.773         	0.04
MS.412         	10.75          	0.032
MS.413         	10.73          	0.056
MS.414         	10.707         	0.038
MS.415         	10.688         	0.034
MS.416         	10.665         	0.044
MS.417         	10.645         	0.002
MS.418         	10.622         	0.03
MS.419         	10.602         	0.034
MS.420         	10.58          	0.044
MS.421         	10.56          	0.032
MS.422         	10.537         	0.004
MS.423         	10.517         	0.034
MS.424         	10.495         	0.016
MS.425         	10.475         	0.014
MS.426         	10.455         	0.028
MS.427         	10.432         	0.03
MS.428         	10.412         	0.036
MS.429         	10.392         	0.042
MS.430         	10.37          	0.012
MS.431         	10.35          	0.016
MS.432         	10.33          	0.032
MS.433         	10.31          	0.034
MS.434         	10.287         	-0.01
MS.435         	10.267         	0.04
MS.436         	10.247         	0.038
MS.437         	10.227         	-0.012
MS.438         	10.205         	0.024
MS.439         	10.185         	0.000
MS.440         	10.165         	-0.002
MS.441         	10.145         	0.052
MS.442         	10.125         	0.002
MS.443         	10.105         	0.026
MS.444         	10.085         	0.028
MS.445         	10.065         	0.03
MS.446         	10.045         	-0.01
MS.447         	10.025         	0.004
MS.448         	10.005         	0.018
MS.449         	9.985          	0.032
MS.450         	9.965          	0.022
MS.451         	9.945          	0.008
MS.452         	9.925          	-0.006
MS.453         	9.905          	-0.012
MS.454         	9.885          	0.004
MS.455         	9.865          	0.01
MS.456         	9.845          	-0.016
MS.457         	9.825          	0.006
MS.458         	9.805          	-0.016
MS.459         	9.787          	0.01
MS.460         	9.767          	-0.004
MS.461         	9.747          	-0.008
MS.462         	9.727          	0.008
MS.463         	9.707          	-0.014
MS.464         	9.69           	0.014
MS.465         	9.67           	-0.006
MS.466         	9.65           	-0.012
MS.467         	9.63           	0.000
MS.468         	9.613          	-0.002
MS.469         	9.592          	-0.006
MS.470         	9.573          	-0.014
MS.471         	9.555          	-0.014
MS.472         	9.535          	-0.008
MS.473         	9.515          	-0.012
MS.474         	9.497          	-0.008
MS.475         	9.477          	-0.004
MS.476         	9.46           	-0.008
MS.477         	9.44           	0.012
MS.478         	9.422          	-0.018
MS.479         	9.403          	0.002
MS.480         	9.385          	-0.006
MS.481         	9.365          	-0.008
MS.482         	9.347          	-0.01
MS.483         	9.327          	-0.006
MS.484         	9.31           	-0.004
MS.485         	9.29           	-0.002
MS.486         	9.273          	-0.008
MS.487         	9.252          	-0.008
MS.488         	9.235          	-0.008
MS.489         	9.217          	-0.01
MS.490         	9.198          	-0.008
MS.491         	9.18           	0.002
MS.492         	9.162          	-0.002
MS.493         	9.142          	-0.006
MS.494         	9.125          	-0.014
MS.495         	9.108          	-0.002
MS.496         	9.087          	0.000
MS.497         	9.07           	-0.008
MS.498         	9.052          	-0.012
MS.499         	9.035          	-0.002
MS.500         	9.015          	0.004
MS.501         	8.997          	0.000
MS.502         	8.98           	-0.014
MS.503         	8.962          	-0.004
MS.504         	8.945          	-0.01
MS.505         	8.925          	-0.004
MS.506         	8.908          	-0.008
MS.507         	8.89           	-0.016
MS.508         	8.872          	-0.008
MS.509         	8.855          	-0.008
MS.510         	8.837          	-0.012
MS.511         	8.82           	-0.006
MS.512         	8.802          	-0.008
MS.513         	8.785          	-0.014
MS.514         	8.767          	-0.014
MS.515         	8.75           	-0.012
DERIVED EXCITABILITY VARIABLES
Program = QTracP 9/10/2021
Threshold method = 6 (optimised for CAP, using data for present condition only)
SR method = 1 (using actual data values)
6.                 	0.000               	Peak response\(mV)
9.                 	31.9                	Temperature ( C)
17.                	29                  	Age (years)
18.                	1                   	Sex (M=1, F=2)

EXTRA VARIABLES

MScPeak(mV) = 4.22
MScS5(mA) = 12.17
MScS50(mA) = 15.58
MScS95(mA) = 20.78
MScNSteps = 1
MScSteps(%) = 2.3
MScStepMax(%) = 2.3
MScD50 = 63
MScSlope = 3.66
MScDuration(min) = 4.7
MSFTraces = 442
MSFPeakAmp(mV) = 4.23
MSFNUnits = 143
MSFMeanUnitAmp(uV) = 29.6
MSFHuntTime(m) = 3.18
MSFError(%) = 0.659
MSFNLarge = 41.39
MSFMedianAmp(%) = 0.604
MSFMedianAmp(mV) = 0.0255
MSFHalfAmpAmp(%) = 0.84
MSFHalfAmpAmp(mV) = 0.0356
MSFLargestAmp(%) = 1.93
MSFLargestAmp(mV) = 0.0816
MSFMeanRS(%) = 2
MSFSizeLimit(uV) = 10.6
MSFLimitType = 1
MSFSmallestAmp(uV) = 11.3
MSFOpts = 10106121

EXTRA WAVEFORMS


!MScan Model
!143
	1	9.85	0.49	2
	2	10.32	0.31	2
	3	11.21	0.54	2
	4	11.51	1.1	2
	5	11.78	1.01	2
	6	11.95	0.9	2
	7	12.16	1.08	2
	8	12.24	0.46	2
	9	12.29	0.33	2
	10	12.36	0.4	2
	11	12.4	0.36	2
	12	12.43	0.34	2
	13	12.46	0.32	2
	14	12.49	0.31	2
	15	12.55	0.52	2
	16	12.6	0.54	2
	17	12.65	0.39	2
	18	12.67	0.29	2
	19	12.71	0.39	2
	20	12.74	0.38	2
	21	12.77	0.29	2
	22	12.83	0.49	2
	23	12.89	0.56	2
	24	12.94	0.38	2
	25	12.99	0.53	2
	26	13.06	0.6	2
	27	13.09	0.35	2
	28	13.13	0.34	2
	29	13.16	0.35	2
	30	13.21	0.49	2
	31	13.23	0.31	2
	32	13.26	0.3	2
	33	13.29	0.29	2
	34	13.32	0.34	2
	35	13.36	0.35	2
	36	13.39	0.37	2
	37	13.42	0.35	2
	38	13.46	0.48	2
	39	13.5	0.4	2
	40	13.52	0.27	2
	41	13.54	0.37	2
	42	13.56	0.28	2
	43	13.59	0.28	2
	44	13.61	0.28	2
	45	13.63	0.32	2
	46	13.67	0.64	2
	47	13.7	0.4	2
	48	13.72	0.4	2
	49	13.78	0.88	2
	50	13.84	0.7	2
	51	13.92	1.29	2
	52	14	1.24	2
	53	14.07	0.74	2
	54	14.14	1.01	2
	55	14.21	0.97	2
	56	14.28	1.05	2
	57	14.35	1.3	2
	58	14.4	1.03	2
	59	14.43	0.41	2
	60	14.46	0.41	2
	61	14.48	0.27	2
	62	14.51	0.4	2
	63	14.53	0.52	2
	64	14.56	0.55	2
	65	14.59	0.61	2
	66	14.62	0.74	2
	67	14.65	0.79	2
	68	14.68	0.67	2
	69	14.72	0.86	2
	70	14.77	0.98	2
	71	14.82	0.66	2
	72	14.87	0.8	2
	73	14.91	0.76	2
	74	14.96	0.69	2
	75	15	0.95	2
	76	15.05	0.88	2
	77	15.11	0.76	2
	78	15.17	0.79	2
	79	15.26	1.76	2
	80	15.36	1.59	2
	81	15.51	1.78	2
	82	15.67	1.93	2
	83	15.72	0.36	2
	84	15.77	0.66	2
	85	15.84	1.05	2
	86	15.92	0.68	2
	87	15.99	0.73	2
	88	16.04	0.65	2
	89	16.09	0.64	2
	90	16.13	0.42	2
	91	16.17	0.39	2
	92	16.21	0.38	2
	93	16.24	0.43	2
	94	16.28	0.44	2
	95	16.32	0.41	2
	96	16.35	0.33	2
	97	16.38	0.29	2
	98	16.41	0.33	2
	99	16.45	0.42	2
	100	16.49	0.46	2
	101	16.53	0.45	2
	102	16.57	0.33	2
	103	16.61	0.32	2
	104	16.72	0.84	2
	105	16.86	1.09	2
	106	17.01	1.3	2
	107	17.13	0.91	2
	108	17.19	0.52	2
	109	17.25	0.69	2
	110	17.32	0.81	2
	111	17.42	0.69	2
	112	17.6	1.58	2
	113	17.82	1.37	2
	114	18.01	1.07	2
	115	18.07	0.46	2
	116	18.13	0.46	2
	117	18.19	0.84	2
	118	18.25	0.86	2
	119	18.31	0.71	2
	120	18.37	0.66	2
	121	18.42	0.5	2
	122	18.47	0.48	2
	123	18.52	0.67	2
	124	18.64	0.76	2
	125	18.67	1.39	2
	126	18.67	0.35	2
	127	18.84	1.72	2
	128	19	1.53	2
	129	19.15	1.35	2
	130	19.31	0.77	1.6
	131	19.94	1.85	2
	132	20.06	1.25	2
	133	20.15	0.84	2
	134	20.23	0.42	2
	135	20.32	0.95	2
	136	20.37	0.87	2
	137	20.4	0.91	2
	138	20.49	1.14	2
	139	20.9	1.87	2
	140	20.9	0.47	2
	141	21.18	0.8	2
	142	21.35	0.83	2
	143	21.61	1.18	2

