File:              	C:\Qtrac\Data\Daniel M Sørensen\MScan multicentre study\Data from centres\Newcastle\Processed data\SMC00228C.QZD
Name:              	UK.NEW.NC.5.2
Protocol:          	MSCAN-R2
Date:              	28/2/20
Start time:        	09:33:12
Age:               	40
Sex:               	F
Temperature:       	31.8
S/R sites:         	TA
NC/disease:        	NC
Operator:          	SM
Comments:
M-SCAN DATA (1.6-0.0m)
Scanpts: 14, 24, 665, 686
Stim. (mA)     	Amp. (mV)
MS.1           	18.5           	8.615
MS.2           	18.5           	8.639
MS.3           	18.425         	8.613
MS.4           	18.39          	8.602
MS.5           	18.352         	8.629
MS.6           	18.315         	8.604
MS.7           	18.28          	8.617
MS.8           	18.243         	8.615
MS.9           	18.208         	8.602
MS.10          	18.17          	8.596
MS.11          	18.132         	8.56
MS.12          	18.097         	8.596
MS.13          	18.06          	8.592
MS.14          	18.025         	8.596
MS.15          	17.99          	8.59
MS.16          	17.952         	8.582
MS.17          	17.917         	8.584
MS.18          	17.882         	8.588
MS.19          	17.845         	8.594
MS.20          	17.81          	8.576
MS.21          	17.775         	8.56
MS.22          	17.74          	8.6
MS.23          	17.702         	8.582
MS.24          	17.667         	8.588
MS.25          	17.632         	8.568
MS.26          	17.597         	8.566
MS.27          	17.562         	8.59
MS.28          	17.528         	8.566
MS.29          	17.493         	8.594
MS.30          	17.458         	8.59
MS.31          	17.422         	8.604
MS.32          	17.387         	8.6
MS.33          	17.352         	8.578
MS.34          	17.317         	8.592
MS.35          	17.285         	8.58
MS.36          	17.25          	8.56
MS.37          	17.215         	8.598
MS.38          	17.18          	8.568
MS.39          	17.145         	8.562
MS.40          	17.112         	8.538
MS.41          	17.077         	8.574
MS.42          	17.042         	8.562
MS.43          	17.01          	8.576
MS.44          	16.975         	8.566
MS.45          	16.942         	8.58
MS.46          	16.907         	8.572
MS.47          	16.875         	8.584
MS.48          	16.84          	8.578
MS.49          	16.807         	8.562
MS.50          	16.772         	8.55
MS.51          	16.74          	8.562
MS.52          	16.705         	8.556
MS.53          	16.672         	8.6
MS.54          	16.64          	8.554
MS.55          	16.605         	8.562
MS.56          	16.573         	8.58
MS.57          	16.54          	8.554
MS.58          	16.507         	8.552
MS.59          	16.472         	8.58
MS.60          	16.44          	8.556
MS.61          	16.407         	8.558
MS.62          	16.375         	8.568
MS.63          	16.342         	8.548
MS.64          	16.31          	8.564
MS.65          	16.278         	8.542
MS.66          	16.245         	8.516
MS.67          	16.212         	8.57
MS.68          	16.18          	8.528
MS.69          	16.147         	8.566
MS.70          	16.115         	8.522
MS.71          	16.083         	8.544
MS.72          	16.05          	8.508
MS.73          	16.02          	8.544
MS.74          	15.987         	8.502
MS.75          	15.955         	8.48
MS.76          	15.922         	8.502
MS.77          	15.89          	8.54
MS.78          	15.86          	8.5
MS.79          	15.827         	8.514
MS.80          	15.795         	8.488
MS.81          	15.765         	8.532
MS.82          	15.733         	8.478
MS.83          	15.702         	8.504
MS.84          	15.67          	8.468
MS.85          	15.64          	8.494
MS.86          	15.608         	8.421
MS.87          	15.577         	8.417
MS.88          	15.545         	8.439
MS.89          	15.515         	8.437
MS.90          	15.483         	8.427
MS.91          	15.452         	8.457
MS.92          	15.422         	8.429
MS.93          	15.39          	8.417
MS.94          	15.36          	8.449
MS.95          	15.33          	8.353
MS.96          	15.297         	8.468
MS.97          	15.267         	8.443
MS.98          	15.237         	8.415
MS.99          	15.207         	8.423
MS.100         	15.177         	8.425
MS.101         	15.148         	8.391
MS.102         	15.115         	8.393
MS.103         	15.085         	8.345
MS.104         	15.055         	8.423
MS.105         	15.025         	8.363
MS.106         	14.995         	8.357
MS.107         	14.965         	8.377
MS.108         	14.935         	8.359
MS.109         	14.905         	8.381
MS.110         	14.877         	8.316
MS.111         	14.847         	8.327
MS.112         	14.818         	8.32
MS.113         	14.787         	8.353
MS.114         	14.757         	8.351
MS.115         	14.727         	8.329
MS.116         	14.7           	8.296
MS.117         	14.67          	8.323
MS.118         	14.64          	8.284
MS.119         	14.61          	8.304
MS.120         	14.582         	8.306
MS.121         	14.552         	8.306
MS.122         	14.523         	8.294
MS.123         	14.495         	8.274
MS.124         	14.465         	8.282
MS.125         	14.438         	8.256
MS.126         	14.407         	8.286
MS.127         	14.38          	8.192
MS.128         	14.35          	8.218
MS.129         	14.322         	8.226
MS.130         	14.292         	8.22
MS.131         	14.265         	8.21
MS.132         	14.235         	8.202
MS.133         	14.207         	8.173
MS.134         	14.18          	8.224
MS.135         	14.15          	8.208
MS.136         	14.122         	8.165
MS.137         	14.095         	8.184
MS.138         	14.065         	8.165
MS.139         	14.037         	8.186
MS.140         	14.01          	8.149
MS.141         	13.983         	8.147
MS.142         	13.955         	8.157
MS.143         	13.925         	8.113
MS.144         	13.898         	8.115
MS.145         	13.87          	8.129
MS.146         	13.842         	8.069
MS.147         	13.815         	8.117
MS.148         	13.787         	7.994
MS.149         	13.76          	8.093
MS.150         	13.733         	8.059
MS.151         	13.705         	8.065
MS.152         	13.677         	8.026
MS.153         	13.65          	8.045
MS.154         	13.622         	7.956
MS.155         	13.595         	7.966
MS.156         	13.568         	8.047
MS.157         	13.542         	7.996
MS.158         	13.515         	7.98
MS.159         	13.487         	7.98
MS.160         	13.46          	7.95
MS.161         	13.432         	7.99
MS.162         	13.407         	7.928
MS.163         	13.38          	7.944
MS.164         	13.352         	7.891
MS.165         	13.327         	7.948
MS.166         	13.3           	7.889
MS.167         	13.273         	7.857
MS.168         	13.247         	7.815
MS.169         	13.22          	7.871
MS.170         	13.195         	7.857
MS.171         	13.167         	7.769
MS.172         	13.142         	7.769
MS.173         	13.115         	7.773
MS.174         	13.09          	7.746
MS.175         	13.062         	7.696
MS.176         	13.037         	7.823
MS.177         	13.01          	7.789
MS.178         	12.985         	7.746
MS.179         	12.957         	7.716
MS.180         	12.932         	7.744
MS.181         	12.907         	7.694
MS.182         	12.88          	7.7
MS.183         	12.855         	7.668
MS.184         	12.83          	7.694
MS.185         	12.805         	7.628
MS.186         	12.778         	7.589
MS.187         	12.752         	7.575
MS.188         	12.727         	7.609
MS.189         	12.702         	7.591
MS.190         	12.677         	7.618
MS.191         	12.653         	7.589
MS.192         	12.625         	7.489
MS.193         	12.6           	7.45
MS.194         	12.575         	7.493
MS.195         	12.55          	7.509
MS.196         	12.525         	7.517
MS.197         	12.5           	7.4
MS.198         	12.475         	7.605
MS.199         	12.45          	7.533
MS.200         	12.425         	7.519
MS.201         	12.4           	7.469
MS.202         	12.375         	7.328
MS.203         	12.352         	7.422
MS.204         	12.327         	7.354
MS.205         	12.302         	7.39
MS.206         	12.278         	7.332
MS.207         	12.252         	7.289
MS.208         	12.227         	7.342
MS.209         	12.205         	7.253
MS.210         	12.18          	7.215
MS.211         	12.155         	7.303
MS.212         	12.13          	7.247
MS.213         	12.108         	7.237
MS.214         	12.082         	7.289
MS.215         	12.057         	7.191
MS.216         	12.035         	7.142
MS.217         	12.01          	7.168
MS.218         	11.988         	7.176
MS.219         	11.962         	7.144
MS.220         	11.938         	7.108
MS.221         	11.915         	7.178
MS.222         	11.89          	7.078
MS.223         	11.867         	7.021
MS.224         	11.842         	7.015
MS.225         	11.82          	6.975
MS.226         	11.795         	7.025
MS.227         	11.773         	6.991
MS.228         	11.75          	7.054
MS.229         	11.725         	6.981
MS.230         	11.702         	6.919
MS.231         	11.677         	6.969
MS.232         	11.655         	6.949
MS.233         	11.632         	7.017
MS.234         	11.61          	6.939
MS.235         	11.585         	6.866
MS.236         	11.562         	6.882
MS.237         	11.54          	6.947
MS.238         	11.517         	6.834
MS.239         	11.492         	6.83
MS.240         	11.47          	6.806
MS.241         	11.447         	6.83
MS.242         	11.425         	6.717
MS.243         	11.403         	6.711
MS.244         	11.38          	6.733
MS.245         	11.355         	6.56
MS.246         	11.332         	6.633
MS.247         	11.31          	6.685
MS.248         	11.287         	6.675
MS.249         	11.265         	6.59
MS.250         	11.242         	6.574
MS.251         	11.22          	6.683
MS.252         	11.197         	6.635
MS.253         	11.175         	6.471
MS.254         	11.153         	6.407
MS.255         	11.132         	6.536
MS.256         	11.11          	6.467
MS.257         	11.087         	6.359
MS.258         	11.065         	6.294
MS.259         	11.042         	6.335
MS.260         	11.02          	6.455
MS.261         	10.997         	6.339
MS.262         	10.977         	6.266
MS.263         	10.955         	6.335
MS.264         	10.932         	6.26
MS.265         	10.91          	6.296
MS.266         	10.89          	6.268
MS.267         	10.867         	6.145
MS.268         	10.845         	6.21
MS.269         	10.825         	6.091
MS.270         	10.802         	6.047
MS.271         	10.78          	6.161
MS.272         	10.76          	6.093
MS.273         	10.738         	5.994
MS.274         	10.717         	5.986
MS.275         	10.695         	5.928
MS.276         	10.672         	5.964
MS.277         	10.653         	5.926
MS.278         	10.63          	5.869
MS.279         	10.61          	5.704
MS.280         	10.587         	5.895
MS.281         	10.568         	5.728
MS.282         	10.545         	5.583
MS.283         	10.525         	5.66
MS.284         	10.505         	5.7
MS.285         	10.483         	5.593
MS.286         	10.462         	5.575
MS.287         	10.443         	5.553
MS.288         	10.42          	5.555
MS.289         	10.4           	5.503
MS.290         	10.38          	5.464
MS.291         	10.358         	5.599
MS.292         	10.337         	5.501
MS.293         	10.318         	5.561
MS.294         	10.295         	5.392
MS.295         	10.275         	5.331
MS.296         	10.255         	5.432
MS.297         	10.235         	5.293
MS.298         	10.215         	5.329
MS.299         	10.193         	5.382
MS.300         	10.172         	5.257
MS.301         	10.153         	5.243
MS.302         	10.132         	5.251
MS.303         	10.113         	5.297
MS.304         	10.092         	5.152
MS.305         	10.073         	5.09
MS.306         	10.052         	5.142
MS.307         	10.032         	5.058
MS.308         	10.012         	5.096
MS.309         	9.992          	5.088
MS.310         	9.972          	4.947
MS.311         	9.952          	4.955
MS.312         	9.932          	5.019
MS.313         	9.912          	4.844
MS.314         	9.892          	4.911
MS.315         	9.872          	4.87
MS.316         	9.852          	4.84
MS.317         	9.832          	4.792
MS.318         	9.812          	4.703
MS.319         	9.795          	4.735
MS.320         	9.775          	4.685
MS.321         	9.755          	4.721
MS.322         	9.735          	4.774
MS.323         	9.715          	4.709
MS.324         	9.698          	4.631
MS.325         	9.677          	4.586
MS.326         	9.657          	4.59
MS.327         	9.637          	4.627
MS.328         	9.62           	4.598
MS.329         	9.6            	4.59
MS.330         	9.58           	4.512
MS.331         	9.562          	4.516
MS.332         	9.542          	4.57
MS.333         	9.523          	4.522
MS.334         	9.505          	4.588
MS.335         	9.485          	4.52
MS.336         	9.467          	4.538
MS.337         	9.448          	4.393
MS.338         	9.43           	4.498
MS.339         	9.41           	4.435
MS.340         	9.39           	4.365
MS.341         	9.372          	4.403
MS.342         	9.352          	4.288
MS.343         	9.335          	4.409
MS.344         	9.318          	4.365
MS.345         	9.297          	4.451
MS.346         	9.28           	4.216
MS.347         	9.26           	4.173
MS.348         	9.242          	4.177
MS.349         	9.222          	3.93
MS.350         	9.205          	4.183
MS.351         	9.188          	4.214
MS.352         	9.167          	4.01
MS.353         	9.15           	4.101
MS.354         	9.132          	4.048
MS.355         	9.113          	4.014
MS.356         	9.095          	3.942
MS.357         	9.077          	3.966
MS.358         	9.06           	3.978
MS.359         	9.04           	4.157
MS.360         	9.023          	3.829
MS.361         	9.005          	3.66
MS.362         	8.988          	3.76
MS.363         	8.97           	3.809
MS.364         	8.95           	3.865
MS.365         	8.932          	3.632
MS.366         	8.915          	3.64
MS.367         	8.898          	3.704
MS.368         	8.88           	3.754
MS.369         	8.863          	3.559
MS.370         	8.845          	3.515
MS.371         	8.827          	3.37
MS.372         	8.81           	3.523
MS.373         	8.792          	3.321
MS.374         	8.775          	3.241
MS.375         	8.755          	3.259
MS.376         	8.74           	3.267
MS.377         	8.722          	3.182
MS.378         	8.705          	3.291
MS.379         	8.688          	3.275
MS.380         	8.67           	3.039
MS.381         	8.653          	3.13
MS.382         	8.635          	3.078
MS.383         	8.617          	3.035
MS.384         	8.6            	3.029
MS.385         	8.582          	2.995
MS.386         	8.565          	2.941
MS.387         	8.547          	2.931
MS.388         	8.533          	2.953
MS.389         	8.515          	2.828
MS.390         	8.497          	2.751
MS.391         	8.48           	2.739
MS.392         	8.462          	2.693
MS.393         	8.448          	2.59
MS.394         	8.43           	2.58
MS.395         	8.412          	2.669
MS.396         	8.395          	2.53
MS.397         	8.38           	2.467
MS.398         	8.363          	2.401
MS.399         	8.345          	2.349
MS.400         	8.33           	2.308
MS.401         	8.312          	2.381
MS.402         	8.295          	2.373
MS.403         	8.28           	2.29
MS.404         	8.262          	2.232
MS.405         	8.247          	2.324
MS.406         	8.23           	2.334
MS.407         	8.212          	2.208
MS.408         	8.198          	2.21
MS.409         	8.18           	2.201
MS.410         	8.165          	1.976
MS.411         	8.148          	2.091
MS.412         	8.132          	1.994
MS.413         	8.115          	1.98
MS.414         	8.1            	1.942
MS.415         	8.082          	1.972
MS.416         	8.068          	1.841
MS.417         	8.05           	1.851
MS.418         	8.035          	1.881
MS.419         	8.017          	1.823
MS.420         	8.002          	1.928
MS.421         	7.987          	1.762
MS.422         	7.97           	1.791
MS.423         	7.955          	1.839
MS.424         	7.94           	1.813
MS.425         	7.922          	1.633
MS.426         	7.907          	1.776
MS.427         	7.892          	1.694
MS.428         	7.875          	1.64
MS.429         	7.86           	1.589
MS.430         	7.845          	1.64
MS.431         	7.827          	1.573
MS.432         	7.812          	1.497
MS.433         	7.797          	1.47
MS.434         	7.782          	1.505
MS.435         	7.765          	1.39
MS.436         	7.75           	1.486
MS.437         	7.735          	1.386
MS.438         	7.72           	1.531
MS.439         	7.705          	1.46
MS.440         	7.69           	1.354
MS.441         	7.672          	1.349
MS.442         	7.657          	1.364
MS.443         	7.642          	1.404
MS.444         	7.628          	1.267
MS.445         	7.612          	1.253
MS.446         	7.597          	1.235
MS.447         	7.582          	1.215
MS.448         	7.567          	1.233
MS.449         	7.552          	1.241
MS.450         	7.537          	1.053
MS.451         	7.523          	1.166
MS.452         	7.507          	1.053
MS.453         	7.492          	1.126
MS.454         	7.477          	1.068
MS.455         	7.462          	1.068
MS.456         	7.447          	0.969
MS.457         	7.432          	1.031
MS.458         	7.418          	1.003
MS.459         	7.402          	0.977
MS.460         	7.387          	0.941
MS.461         	7.372          	0.922
MS.462         	7.357          	0.969
MS.463         	7.342          	0.91
MS.464         	7.327          	0.91
MS.465         	7.315          	0.848
MS.466         	7.3            	0.81
MS.467         	7.285          	0.753
MS.468         	7.27           	0.784
MS.469         	7.255          	0.786
MS.470         	7.24           	0.773
MS.471         	7.227          	0.717
MS.472         	7.212          	0.725
MS.473         	7.197          	0.733
MS.474         	7.182          	0.659
MS.475         	7.17           	0.651
MS.476         	7.155          	0.677
MS.477         	7.14           	0.645
MS.478         	7.125          	0.584
MS.479         	7.112          	0.584
MS.480         	7.097          	0.566
MS.481         	7.082          	0.57
MS.482         	7.07           	0.6
MS.483         	7.055          	0.568
MS.484         	7.04           	0.534
MS.485         	7.027          	0.514
MS.486         	7.012          	0.479
MS.487         	7              	0.489
MS.488         	6.985          	0.506
MS.489         	6.97           	0.512
MS.490         	6.957          	0.487
MS.491         	6.942          	0.479
MS.492         	6.93           	0.473
MS.493         	6.915          	0.469
MS.494         	6.902          	0.453
MS.495         	6.887          	0.443
MS.496         	6.875          	0.419
MS.497         	6.86           	0.421
MS.498         	6.847          	0.435
MS.499         	6.832          	0.427
MS.500         	6.82           	0.391
MS.501         	6.805          	0.363
MS.502         	6.793          	0.381
MS.503         	6.777          	0.352
MS.504         	6.765          	0.375
MS.505         	6.753          	0.365
MS.506         	6.737          	0.399
MS.507         	6.725          	0.407
MS.508         	6.71           	0.381
MS.509         	6.697          	0.361
MS.510         	6.685          	0.377
MS.511         	6.67           	0.363
MS.512         	6.657          	0.346
MS.513         	6.645          	0.359
MS.514         	6.63           	0.411
MS.515         	6.617          	0.308
MS.516         	6.605          	0.348
MS.517         	6.592          	0.34
MS.518         	6.577          	0.357
MS.519         	6.565          	0.306
MS.520         	6.552          	0.304
MS.521         	6.54           	0.314
MS.522         	6.525          	0.282
MS.523         	6.512          	0.276
MS.524         	6.5            	0.292
MS.525         	6.487          	0.296
MS.526         	6.475          	0.27
MS.527         	6.46           	0.276
MS.528         	6.447          	0.26
MS.529         	6.435          	0.268
MS.530         	6.422          	0.274
MS.531         	6.41           	0.248
MS.532         	6.398          	0.24
MS.533         	6.385          	0.23
MS.534         	6.37           	0.232
MS.535         	6.358          	0.262
MS.536         	6.345          	0.27
MS.537         	6.332          	0.195
MS.538         	6.32           	0.264
MS.539         	6.307          	0.24
MS.540         	6.295          	0.216
MS.541         	6.282          	0.203
MS.542         	6.27           	0.203
MS.543         	6.257          	0.185
MS.544         	6.245          	0.161
MS.545         	6.233          	0.209
MS.546         	6.22           	0.209
MS.547         	6.207          	0.195
MS.548         	6.195          	0.155
MS.549         	6.182          	0.165
MS.550         	6.17           	0.133
MS.551         	6.157          	0.145
MS.552         	6.145          	0.137
MS.553         	6.132          	0.147
MS.554         	6.122          	0.121
MS.555         	6.11           	0.147
MS.556         	6.097          	0.143
MS.557         	6.085          	0.127
MS.558         	6.072          	0.125
MS.559         	6.06           	0.127
MS.560         	6.047          	0.113
MS.561         	6.035          	0.133
MS.562         	6.025          	0.121
MS.563         	6.012          	0.123
MS.564         	6              	0.127
MS.565         	5.987          	0.119
MS.566         	5.975          	0.111
MS.567         	5.965          	0.107
MS.568         	5.952          	0.127
MS.569         	5.94           	0.115
MS.570         	5.927          	0.107
MS.571         	5.918          	0.101
MS.572         	5.905          	0.109
MS.573         	5.892          	0.115
MS.574         	5.88           	0.103
MS.575         	5.87           	0.101
MS.576         	5.858          	0.095
MS.577         	5.845          	0.099
MS.578         	5.835          	0.109
MS.579         	5.822          	0.105
MS.580         	5.81           	0.099
MS.581         	5.8            	0.097
MS.582         	5.787          	0.101
MS.583         	5.777          	0.093
MS.584         	5.765          	0.097
MS.585         	5.753          	0.093
MS.586         	5.742          	0.097
MS.587         	5.73           	0.093
MS.588         	5.72           	0.095
MS.589         	5.707          	0.095
MS.590         	5.695          	0.089
MS.591         	5.685          	0.095
MS.592         	5.672          	0.093
MS.593         	5.662          	0.097
MS.594         	5.65           	0.095
MS.595         	5.64           	0.099
MS.596         	5.628          	0.095
MS.597         	5.617          	0.093
MS.598         	5.605          	0.095
MS.599         	5.595          	0.097
MS.600         	5.582          	0.095
MS.601         	5.572          	0.093
MS.602         	5.56           	0.095
MS.603         	5.55           	0.077
MS.604         	5.537          	0.089
MS.605         	5.527          	0.083
MS.606         	5.517          	0.081
MS.607         	5.505          	0.077
MS.608         	5.495          	0.089
MS.609         	5.483          	0.093
MS.610         	5.472          	0.087
MS.611         	5.463          	0.075
MS.612         	5.45           	0.07
MS.613         	5.44           	0.073
MS.614         	5.43           	0.07
MS.615         	5.418          	0.075
MS.616         	5.407          	0.048
MS.617         	5.398          	0.064
MS.618         	5.385          	0.073
MS.619         	5.375          	0.062
MS.620         	5.365          	0.079
MS.621         	5.352          	0.042
MS.622         	5.342          	0.042
MS.623         	5.332          	0.05
MS.624         	5.322          	0.068
MS.625         	5.31           	0.081
MS.626         	5.3            	0.06
MS.627         	5.29           	0.048
MS.628         	5.28           	0.048
MS.629         	5.267          	0.038
MS.630         	5.257          	0.036
MS.631         	5.247          	0.032
MS.632         	5.237          	0.042
MS.633         	5.227          	0.032
MS.634         	5.215          	0.038
MS.635         	5.205          	0.04
MS.636         	5.195          	0.032
MS.637         	5.185          	0.036
MS.638         	5.175          	0.038
MS.639         	5.165          	0.052
MS.640         	5.155          	0.03
MS.641         	5.142          	0.034
MS.642         	5.132          	0.034
MS.643         	5.122          	0.034
MS.644         	5.112          	0.032
MS.645         	5.102          	0.032
MS.646         	5.092          	0.032
MS.647         	5.082          	0.03
MS.648         	5.072          	0.028
MS.649         	5.062          	0.036
MS.650         	5.052          	0.032
MS.651         	5.043          	0.03
MS.652         	5.032          	0.032
MS.653         	5.023          	0.038
MS.654         	5.012          	0.032
MS.655         	5.003          	0.032
MS.656         	4.992          	0.034
MS.657         	4.983          	0.036
MS.658         	4.972          	0.034
MS.659         	4.963          	0.036
MS.660         	4.952          	0.034
MS.661         	4.943          	0.03
MS.662         	4.932          	0.028
MS.663         	4.922          	0.03
MS.664         	4.912          	0.032
MS.665         	4.902          	0.032
MS.666         	4.892          	0.032
MS.667         	4.882          	0.03
MS.668         	4.872          	0.03
MS.669         	4.862          	0.036
MS.670         	4.855          	0.03
MS.671         	4.845          	0.02
MS.672         	4.835          	0.024
MS.673         	4.825          	0.026
MS.674         	4.815          	0.03
MS.675         	4.805          	0.024
MS.676         	4.795          	0.03
MS.677         	4.787          	0.026
MS.678         	4.777          	0.024
MS.679         	4.767          	0.028
MS.680         	4.757          	0.03
MS.681         	4.747          	0.022
MS.682         	4.737          	0.022
MS.683         	4.73           	0.032
MS.684         	4.72           	0.03
MS.685         	4.71           	0.024
MS.686         	4.7            	0.022
MS.687         	4.693          	0.026
MS.688         	4.682          	0.022
MS.689         	4.673          	0.024
MS.690         	4.662          	0.02
MS.691         	4.655          	0.02
MS.692         	4.645          	0.022
MS.693         	4.635          	0.022
MS.694         	4.628          	0.024
MS.695         	4.617          	0.026
MS.696         	4.608          	0.024
MS.697         	4.597          	0.024
MS.698         	4.59           	0.02
MS.699         	4.58           	0.018
MS.700         	4.57           	0.016
MS.701         	4.562          	0.026
MS.702         	4.552          	0.018
MS.703         	4.545          	0.024
MS.704         	4.535          	0.022
MS.705         	4.525          	0.026
MS.706         	4.517          	0.022
MS.707         	4.507          	0.022
MS.708         	4.497          	0.02
MS.709         	4.49           	0.02
MS.710         	4.48           	0.016
MS.711         	4.472          	0.02
MS.712         	4.463          	0.018
MS.713         	4.455          	0.018
MS.714         	4.445          	0.02
MS.715         	4.435          	0.016
MS.716         	4.427          	0.014
MS.717         	4.418          	0.012
MS.718         	4.41           	0.018
MS.719         	4.4            	0.016
MS.720         	4.392          	0.014
MS.721         	4.382          	0.02
MS.722         	4.375          	0.02
MS.723         	4.365          	0.016
MS.724         	4.358          	0.022
MS.725         	4.347          	0.014
MS.726         	4.34           	0.016
MS.727         	4.33           	0.016
MS.728         	4.322          	0.014
MS.729         	4.312          	0.012
MS.730         	4.305          	0.016
MS.731         	4.298          	0.012
MS.732         	4.287          	0.02
MS.733         	4.28           	0.02
MS.734         	4.27           	0.014
MS.735         	4.262          	0.014
MS.736         	4.253          	0.01
MS.737         	4.245          	0.016
MS.738         	4.237          	0.012
MS.739         	4.227          	0.016
MS.740         	4.22           	0.012
MS.741         	4.213          	0.02
MS.742         	4.202          	0.014
MS.743         	4.195          	0.016
MS.744         	4.185          	0.016
MS.745         	4.177          	0.016
MS.746         	4.17           	0.016
MS.747         	4.16           	0.014
MS.748         	4.152          	0.006
MS.749         	4.145          	0.014
MS.750         	4.135          	0.012
MS.751         	4.128          	0.014
MS.752         	4.12           	0.012
MS.753         	4.112          	0.01
MS.754         	4.102          	0.006
MS.755         	4.095          	0.002
MS.756         	4.088          	0.004
MS.757         	4.077          	0.004
MS.758         	4.07           	0.014
DERIVED EXCITABILITY VARIABLES
Program = QTracP 9/10/2021
Threshold method = 6 (optimised for CAP, using data for present condition only)
SR method = 1 (using actual data values)
6.                 	0.000               	Peak response\(mV)
9.                 	31.8                	Temperature ( C)
17.                	40                  	Age (years)
18.                	2                   	Sex (M=1, F=2)

EXTRA VARIABLES

MScPeak(mV) = 8.56
MScS50(mA) = 4.09
MScS95(mA) = 4.12
MScNSteps = 50
MScSteps(%) = 1636.4
MScStepMax(%) = 109.1
MScD50 = 79
MScDuration(min) = 1.6
MSFTraces = 673
MSFPeakAmp(mV) = 8.56
MSFNUnits = 181
MSFMeanUnitAmp(uV) = 47.3
MSFHuntTime(m) = 4.37
MSFError(%) = 1.72
MSFNLarge = 62.31
MSFMedianAmp(%) = 0.516
MSFMedianAmp(mV) = 0.0442
MSFHalfAmpAmp(%) = 0.585
MSFHalfAmpAmp(mV) = 0.05
MSFLargestAmp(%) = 1.62
MSFLargestAmp(mV) = 0.139
MSFMeanRS(%) = 2
MSFSizeLimit(uV) = 21.4
MSFLimitType = 1
MSFSmallestAmp(uV) = 23.9
MSFOpts = 10106121

EXTRA WAVEFORMS


!MScan Model
!181
	1	5.36	0.48	2
	2	5.56	0.62	2
	3	6.18	0.47	2
	4	6.24	0.28	2
	5	6.3	0.3	2
	6	6.39	0.39	2
	7	6.47	0.37	2
	8	6.53	0.33	2
	9	6.63	0.39	2
	10	6.77	0.62	2
	11	6.83	0.3	2
	12	6.91	0.43	2
	13	6.96	0.4	2
	14	7.02	0.51	2
	15	7.05	0.37	2
	16	7.09	0.31	2
	17	7.12	0.37	2
	18	7.15	0.32	2
	19	7.17	0.35	2
	20	7.2	0.41	2
	21	7.22	0.31	2
	22	7.25	0.35	2
	23	7.28	0.41	2
	24	7.3	0.32	2
	25	7.32	0.31	2
	26	7.34	0.3	2
	27	7.36	0.29	2
	28	7.38	0.29	2
	29	7.39	0.3	2
	30	7.41	0.31	2
	31	7.43	0.33	2
	32	7.45	0.35	2
	33	7.47	0.36	2
	34	7.49	0.37	2
	35	7.52	0.42	2
	36	7.55	0.45	2
	37	7.58	0.49	2
	38	7.61	0.52	2
	39	7.64	0.51	2
	40	7.68	0.65	2
	41	7.72	0.62	2
	42	7.75	0.59	2
	43	7.78	0.63	2
	44	7.82	0.63	2
	45	7.86	0.61	2
	46	7.9	0.67	2
	47	7.95	0.66	2
	48	7.98	0.67	2
	49	8.02	0.82	2
	50	8.05	0.72	2
	51	8.09	0.7	2
	52	8.13	0.66	2
	53	8.16	0.55	2
	54	8.19	0.61	2
	55	8.22	0.56	2
	56	8.24	0.53	2
	57	8.27	0.55	2
	58	8.29	0.54	2
	59	8.31	0.52	2
	60	8.33	0.54	2
	61	8.35	0.56	2
	62	8.37	0.49	2
	63	8.39	0.42	2
	64	8.41	0.42	2
	65	8.42	0.42	2
	66	8.44	0.45	2
	67	8.46	0.39	2
	68	8.47	0.36	2
	69	8.49	0.37	2
	70	8.51	0.38	2
	71	8.52	0.39	2
	72	8.54	0.45	2
	73	8.56	0.56	2
	74	8.58	0.54	2
	75	8.6	0.51	2
	76	8.62	0.48	2
	77	8.65	0.64	2
	78	8.67	0.64	2
	79	8.69	0.63	2
	80	8.72	0.68	2
	81	8.75	0.74	2
	82	8.78	0.73	2
	83	8.82	0.92	2
	84	8.86	1.02	2
	85	8.91	1.01	2
	86	8.95	0.93	2
	87	9.01	1.37	2
	88	9.09	1.59	2
	89	9.17	0.91	2
	90	9.17	1.58	2
	91	9.26	1.62	2
	92	9.34	0.99	2
	93	9.44	0.94	2
	94	9.6	1.49	2
	95	9.65	0.53	2
	96	9.69	0.46	2
	97	9.73	0.41	2
	98	9.76	0.28	2
	99	9.78	0.29	2
	100	9.81	0.32	2
	101	9.83	0.38	2
	102	9.86	0.31	2
	103	9.88	0.34	2
	104	9.9	0.37	2
	105	9.93	0.39	2
	106	9.95	0.37	2
	107	9.97	0.33	2
	108	10	0.33	2
	109	10.02	0.32	2
	110	10.05	0.46	2
	111	10.08	0.55	2
	112	10.11	0.53	2
	113	10.15	0.53	2
	114	10.18	0.56	2
	115	10.22	0.51	2
	116	10.28	0.77	2
	117	10.34	0.84	2
	118	10.39	0.68	2
	119	10.43	0.78	2
	120	10.47	0.58	1.6
	121	10.51	0.61	2.4
	122	10.55	0.59	2
	123	10.58	0.38	2
	124	10.6	0.39	2
	125	10.63	0.41	2
	126	10.66	0.46	2
	127	10.69	0.56	2
	128	10.72	0.53	2
	129	10.75	0.52	2
	130	10.8	0.76	2
	131	10.85	0.72	2
	132	10.89	0.67	2
	133	10.94	0.7	2
	134	10.99	0.7	2
	135	11.05	0.76	2
	136	11.12	0.76	2
	137	11.18	0.79	2
	138	11.24	0.73	2
	139	11.31	0.71	2
	140	11.38	0.85	2
	141	11.45	0.71	2
	142	11.51	0.55	2
	143	11.58	0.64	2
	144	11.66	0.67	2
	145	11.74	0.76	2
	146	11.82	0.58	2
	147	11.89	0.52	2
	148	11.94	0.35	2
	149	11.99	0.37	2
	150	12.05	0.45	2
	151	12.11	0.51	2
	152	12.19	0.66	2
	153	12.29	0.74	2
	154	12.41	0.83	2
	155	12.54	0.87	2
	156	12.7	1.11	2
	157	12.81	0.57	2
	158	12.89	0.41	2
	159	12.97	0.53	2
	160	13.05	0.46	2
	161	13.12	0.46	2
	162	13.22	0.52	2
	163	13.31	0.42	2
	164	13.37	0.31	2
	165	13.46	0.51	2
	166	13.57	0.54	2
	167	13.68	0.52	2
	168	13.77	0.33	2
	169	13.85	0.33	2
	170	13.94	0.29	2
	171	14.05	0.43	2
	172	14.15	0.34	2
	173	14.24	0.29	2
	174	14.43	0.52	2
	175	14.54	0.29	2
	176	14.66	0.29	2
	177	14.8	0.36	2
	178	15.05	0.52	2
	179	15.53	0.87	2
	180	15.83	0.47	2
	181	16.34	0.62	2

