File:              	C:\Qtrac\Data\Daniel M Sørensen\MScan multicentre study\Data from centres\Oslo\IronKey\Oslo_NC_first examination\SZC00519C.QZD
Name:              	NO.OSL.NC.12.1
Protocol:          	MSCAN-R2
Date:              	19/5/20
Start time:        	16:53:11
Age:               	53
Sex:               	F
Temperature:       	31.3
S/R sites:         	Perpneal TA
NC/disease:        	NC12
Operator:          	SZ
Comments:          	Test1
M-SCAN DATA (10.8-5.9m)
Scanpts: 13, 19, 499, 505
Stim. (mA)     	Amp. (mV)
MS.1           	34.5           	6.22
MS.2           	34.5           	6.222
MS.3           	34.5           	6.194
MS.4           	34.5           	6.145
MS.5           	34.5           	6.139
MS.6           	34.5           	6.161
MS.7           	34.5           	6.123
MS.8           	34.5           	6.111
MS.9           	34.5           	6.141
MS.10          	34.5           	6.131
MS.11          	34.5           	6.107
MS.12          	34.5           	6.111
MS.13          	34.5           	6.119
MS.14          	34.5           	6.135
MS.15          	34.5           	6.115
MS.16          	34.5           	6.133
MS.17          	34.5           	6.127
MS.18          	34.5           	6.131
MS.19          	34.5           	6.107
MS.20          	34.5           	6.147
MS.21          	34.5           	6.121
MS.22          	34.5           	6.135
MS.23          	34.5           	6.151
MS.24          	34.362         	6.089
MS.25          	34.292         	6.055
MS.26          	34.225         	6.087
MS.27          	34.157         	6.107
MS.28          	34.087         	6.119
MS.29          	34.02          	6.125
MS.30          	33.952         	6.133
MS.31          	33.885         	6.109
MS.32          	33.818         	6.129
MS.33          	33.75          	6.111
MS.34          	33.682         	6.067
MS.35          	33.615         	6.113
MS.36          	33.548         	6.059
MS.37          	33.48          	6.101
MS.38          	33.412         	6.087
MS.39          	33.347         	6.089
MS.40          	33.28          	6.03
MS.41          	33.212         	6.026
MS.42          	33.147         	6.032
MS.43          	33.08          	6.059
MS.44          	33.015         	6.075
MS.45          	32.95          	6.04
MS.46          	32.882         	6.042
MS.47          	32.818         	6.059
MS.48          	32.752         	6.01
MS.49          	32.688         	6.01
MS.50          	32.62          	6.047
MS.51          	32.555         	5.986
MS.52          	32.49          	6.02
MS.53          	32.425         	6.04
MS.54          	32.36          	6.006
MS.55          	32.298         	5.996
MS.56          	32.232         	6.006
MS.57          	32.167         	6.006
MS.58          	32.103         	6.016
MS.59          	32.04          	5.968
MS.60          	31.975         	5.97
MS.61          	31.91          	5.95
MS.62          	31.847         	5.968
MS.63          	31.782         	5.97
MS.64          	31.72          	5.962
MS.65          	31.657         	5.944
MS.66          	31.592         	5.924
MS.67          	31.53          	5.944
MS.68          	31.467         	5.938
MS.69          	31.405         	5.984
MS.70          	31.342         	5.96
MS.71          	31.28          	5.936
MS.72          	31.217         	5.946
MS.73          	31.155         	5.954
MS.74          	31.092         	5.924
MS.75          	31.03          	5.962
MS.76          	30.967         	5.924
MS.77          	30.905         	5.916
MS.78          	30.845         	5.914
MS.79          	30.782         	5.94
MS.80          	30.722         	5.908
MS.81          	30.66          	5.897
MS.82          	30.597         	5.92
MS.83          	30.537         	5.901
MS.84          	30.477         	5.861
MS.85          	30.415         	5.893
MS.86          	30.355         	5.871
MS.87          	30.295         	5.857
MS.88          	30.233         	5.885
MS.89          	30.172         	5.815
MS.90          	30.112         	5.853
MS.91          	30.052         	5.855
MS.92          	29.992         	5.863
MS.93          	29.932         	5.811
MS.94          	29.872         	5.831
MS.95          	29.812         	5.805
MS.96          	29.755         	5.867
MS.97          	29.695         	5.843
MS.98          	29.635         	5.821
MS.99          	29.575         	5.839
MS.100         	29.517         	5.758
MS.101         	29.457         	5.771
MS.102         	29.4           	5.758
MS.103         	29.34          	5.791
MS.104         	29.282         	5.775
MS.105         	29.222         	5.742
MS.106         	29.165         	5.71
MS.107         	29.108         	5.767
MS.108         	29.047         	5.742
MS.109         	28.99          	5.736
MS.110         	28.932         	5.726
MS.111         	28.875         	5.726
MS.112         	28.817         	5.652
MS.113         	28.76          	5.607
MS.114         	28.702         	5.676
MS.115         	28.645         	5.601
MS.116         	28.587         	5.62
MS.117         	28.53          	5.652
MS.118         	28.472         	5.624
MS.119         	28.415         	5.579
MS.120         	28.36          	5.599
MS.121         	28.302         	5.583
MS.122         	28.245         	5.513
MS.123         	28.19          	5.517
MS.124         	28.132         	5.565
MS.125         	28.077         	5.44
MS.126         	28.02          	5.483
MS.127         	27.965         	5.489
MS.128         	27.91          	5.44
MS.129         	27.852         	5.436
MS.130         	27.797         	5.464
MS.131         	27.743         	5.36
MS.132         	27.688         	5.402
MS.133         	27.632         	5.45
MS.134         	27.577         	5.382
MS.135         	27.52          	5.338
MS.136         	27.465         	5.34
MS.137         	27.412         	5.382
MS.138         	27.358         	5.368
MS.139         	27.302         	5.219
MS.140         	27.247         	5.344
MS.141         	27.192         	5.305
MS.142         	27.137         	5.293
MS.143         	27.085         	5.239
MS.144         	27.03          	5.267
MS.145         	26.975         	5.233
MS.146         	26.922         	5.285
MS.147         	26.868         	5.172
MS.148         	26.815         	5.176
MS.149         	26.762         	5.166
MS.150         	26.707         	5.09
MS.151         	26.655         	5.12
MS.152         	26.6           	5.086
MS.153         	26.547         	5.102
MS.154         	26.495         	5.072
MS.155         	26.442         	4.985
MS.156         	26.39          	4.983
MS.157         	26.337         	5.011
MS.158         	26.285         	4.969
MS.159         	26.233         	4.973
MS.160         	26.18          	4.959
MS.161         	26.127         	4.947
MS.162         	26.075         	4.923
MS.163         	26.022         	4.824
MS.164         	25.97          	4.868
MS.165         	25.917         	4.798
MS.166         	25.868         	4.802
MS.167         	25.815         	4.812
MS.168         	25.762         	4.794
MS.169         	25.712         	4.761
MS.170         	25.66          	4.703
MS.171         	25.61          	4.776
MS.172         	25.557         	4.675
MS.173         	25.507         	4.647
MS.174         	25.455         	4.627
MS.175         	25.405         	4.627
MS.176         	25.355         	4.548
MS.177         	25.305         	4.596
MS.178         	25.252         	4.542
MS.179         	25.202         	4.602
MS.180         	25.153         	4.437
MS.181         	25.102         	4.453
MS.182         	25.052         	4.556
MS.183         	25.002         	4.409
MS.184         	24.952         	4.508
MS.185         	24.903         	4.351
MS.186         	24.852         	4.332
MS.187         	24.802         	4.435
MS.188         	24.752         	4.294
MS.189         	24.705         	4.316
MS.190         	24.655         	4.308
MS.191         	24.605         	4.276
MS.192         	24.555         	4.256
MS.193         	24.507         	4.228
MS.194         	24.457         	4.2
MS.195         	24.41          	4.167
MS.196         	24.36          	4.155
MS.197         	24.312         	4.097
MS.198         	24.262         	4.143
MS.199         	24.215         	4.073
MS.200         	24.165         	4.097
MS.201         	24.118         	4.141
MS.202         	24.07          	4.052
MS.203         	24.022         	4.042
MS.204         	23.972         	4.032
MS.205         	23.925         	4.061
MS.206         	23.877         	3.966
MS.207         	23.83          	3.986
MS.208         	23.782         	3.984
MS.209         	23.735         	3.928
MS.210         	23.688         	3.932
MS.211         	23.64          	3.897
MS.212         	23.592         	3.851
MS.213         	23.545         	3.845
MS.214         	23.5           	3.845
MS.215         	23.452         	3.801
MS.216         	23.405         	3.746
MS.217         	23.358         	3.775
MS.218         	23.312         	3.827
MS.219         	23.265         	3.815
MS.220         	23.217         	3.648
MS.221         	23.172         	3.718
MS.222         	23.125         	3.69
MS.223         	23.08          	3.644
MS.224         	23.032         	3.636
MS.225         	22.987         	3.555
MS.226         	22.942         	3.593
MS.227         	22.895         	3.541
MS.228         	22.85          	3.505
MS.229         	22.805         	3.553
MS.230         	22.76          	3.503
MS.231         	22.712         	3.474
MS.232         	22.667         	3.462
MS.233         	22.622         	3.44
MS.234         	22.577         	3.48
MS.235         	22.532         	3.4
MS.236         	22.487         	3.404
MS.237         	22.442         	3.339
MS.238         	22.397         	3.344
MS.239         	22.352         	3.295
MS.240         	22.307         	3.225
MS.241         	22.262         	3.279
MS.242         	22.22          	3.215
MS.243         	22.175         	3.233
MS.244         	22.13          	3.273
MS.245         	22.085         	3.152
MS.246         	22.042         	3.184
MS.247         	21.997         	3.209
MS.248         	21.955         	3.144
MS.249         	21.91          	3.08
MS.250         	21.868         	3.078
MS.251         	21.823         	3.045
MS.252         	21.78          	3.106
MS.253         	21.735         	3.068
MS.254         	21.692         	2.965
MS.255         	21.65          	2.91
MS.256         	21.605         	2.953
MS.257         	21.562         	2.929
MS.258         	21.52          	2.898
MS.259         	21.477         	2.906
MS.260         	21.432         	2.719
MS.261         	21.39          	2.812
MS.262         	21.347         	2.773
MS.263         	21.305         	2.735
MS.264         	21.262         	2.647
MS.265         	21.22          	2.608
MS.266         	21.177         	2.697
MS.267         	21.135         	2.719
MS.268         	21.092         	2.57
MS.269         	21.05          	2.667
MS.270         	21.01          	2.628
MS.271         	20.967         	2.516
MS.272         	20.925         	2.492
MS.273         	20.882         	2.485
MS.274         	20.842         	2.359
MS.275         	20.8           	2.409
MS.276         	20.757         	2.334
MS.277         	20.717         	2.395
MS.278         	20.675         	2.353
MS.279         	20.635         	2.435
MS.280         	20.592         	2.274
MS.281         	20.552         	2.292
MS.282         	20.51          	2.23
MS.283         	20.47          	2.244
MS.284         	20.43          	2.276
MS.285         	20.387         	2.143
MS.286         	20.347         	2.008
MS.287         	20.307         	2.175
MS.288         	20.265         	2.171
MS.289         	20.225         	1.996
MS.290         	20.185         	2.107
MS.291         	20.145         	1.968
MS.292         	20.105         	1.994
MS.293         	20.065         	2.016
MS.294         	20.025         	1.972
MS.295         	19.985         	2.002
MS.296         	19.945         	1.934
MS.297         	19.905         	1.972
MS.298         	19.865         	1.897
MS.299         	19.825         	1.72
MS.300         	19.785         	1.841
MS.301         	19.745         	1.819
MS.302         	19.708         	1.758
MS.303         	19.667         	1.831
MS.304         	19.627         	1.772
MS.305         	19.587         	1.73
MS.306         	19.55          	1.664
MS.307         	19.51          	1.698
MS.308         	19.472         	1.569
MS.309         	19.432         	1.656
MS.310         	19.395         	1.668
MS.311         	19.355         	1.583
MS.312         	19.317         	1.545
MS.313         	19.278         	1.521
MS.314         	19.24          	1.569
MS.315         	19.2           	1.513
MS.316         	19.163         	1.47
MS.317         	19.125         	1.533
MS.318         	19.085         	1.486
MS.319         	19.047         	1.517
MS.320         	19.01          	1.428
MS.321         	18.972         	1.38
MS.322         	18.935         	1.374
MS.323         	18.895         	1.434
MS.324         	18.858         	1.372
MS.325         	18.82          	1.307
MS.326         	18.782         	1.319
MS.327         	18.745         	1.315
MS.328         	18.708         	1.329
MS.329         	18.67          	1.317
MS.330         	18.632         	1.319
MS.331         	18.595         	1.267
MS.332         	18.56          	1.279
MS.333         	18.522         	1.301
MS.334         	18.485         	1.307
MS.335         	18.448         	1.122
MS.336         	18.41          	1.249
MS.337         	18.375         	1.178
MS.338         	18.337         	1.1
MS.339         	18.3           	1.259
MS.340         	18.265         	1.08
MS.341         	18.227         	1.088
MS.342         	18.192         	1.134
MS.343         	18.155         	1.225
MS.344         	18.12          	1.08
MS.345         	18.083         	1.059
MS.346         	18.047         	1.053
MS.347         	18.01          	1.061
MS.348         	17.975         	0.937
MS.349         	17.938         	1.049
MS.350         	17.903         	0.943
MS.351         	17.868         	1.061
MS.352         	17.833         	0.868
MS.353         	17.795         	0.898
MS.354         	17.76          	1.07
MS.355         	17.725         	0.963
MS.356         	17.69          	0.896
MS.357         	17.655         	0.868
MS.358         	17.618         	0.759
MS.359         	17.583         	0.898
MS.360         	17.547         	0.806
MS.361         	17.512         	0.812
MS.362         	17.477         	0.941
MS.363         	17.442         	0.775
MS.364         	17.407         	0.798
MS.365         	17.372         	0.679
MS.366         	17.34          	0.717
MS.367         	17.305         	0.681
MS.368         	17.27          	0.763
MS.369         	17.235         	0.719
MS.370         	17.2           	0.779
MS.371         	17.167         	0.681
MS.372         	17.132         	0.634
MS.373         	17.097         	0.594
MS.374         	17.062         	0.59
MS.375         	17.03          	0.626
MS.376         	16.995         	0.634
MS.377         	16.962         	0.512
MS.378         	16.927         	0.626
MS.379         	16.895         	0.528
MS.380         	16.86          	0.592
MS.381         	16.827         	0.588
MS.382         	16.792         	0.645
MS.383         	16.76          	0.576
MS.384         	16.725         	0.566
MS.385         	16.692         	0.495
MS.386         	16.66          	0.497
MS.387         	16.625         	0.483
MS.388         	16.592         	0.582
MS.389         	16.56          	0.536
MS.390         	16.528         	0.439
MS.391         	16.493         	0.495
MS.392         	16.46          	0.443
MS.393         	16.427         	0.453
MS.394         	16.395         	0.429
MS.395         	16.362         	0.457
MS.396         	16.33          	0.431
MS.397         	16.297         	0.421
MS.398         	16.265         	0.423
MS.399         	16.233         	0.395
MS.400         	16.2           	0.451
MS.401         	16.167         	0.419
MS.402         	16.135         	0.427
MS.403         	16.102         	0.328
MS.404         	16.07          	0.413
MS.405         	16.038         	0.357
MS.406         	16.005         	0.354
MS.407         	15.975         	0.381
MS.408         	15.943         	0.304
MS.409         	15.91          	0.34
MS.410         	15.877         	0.35
MS.411         	15.847         	0.32
MS.412         	15.815         	0.298
MS.413         	15.782         	0.328
MS.414         	15.752         	0.338
MS.415         	15.72          	0.3
MS.416         	15.69          	0.338
MS.417         	15.657         	0.304
MS.418         	15.627         	0.26
MS.419         	15.595         	0.296
MS.420         	15.565         	0.264
MS.421         	15.532         	0.254
MS.422         	15.502         	0.292
MS.423         	15.47          	0.224
MS.424         	15.44          	0.278
MS.425         	15.41          	0.214
MS.426         	15.377         	0.171
MS.427         	15.347         	0.22
MS.428         	15.318         	0.157
MS.429         	15.287         	0.23
MS.430         	15.255         	0.214
MS.431         	15.225         	0.169
MS.432         	15.195         	0.135
MS.433         	15.165         	0.129
MS.434         	15.135         	0.187
MS.435         	15.105         	0.161
MS.436         	15.075         	0.137
MS.437         	15.042         	0.159
MS.438         	15.012         	0.093
MS.439         	14.983         	0.175
MS.440         	14.952         	0.139
MS.441         	14.925         	0.111
MS.442         	14.895         	0.113
MS.443         	14.865         	0.143
MS.444         	14.835         	0.091
MS.445         	14.805         	0.119
MS.446         	14.775         	0.135
MS.447         	14.745         	0.115
MS.448         	14.717         	0.139
MS.449         	14.688         	0.137
MS.450         	14.657         	0.101
MS.451         	14.627         	0.123
MS.452         	14.6           	0.121
MS.453         	14.57          	0.123
MS.454         	14.54          	0.101
MS.455         	14.512         	0.099
MS.456         	14.483         	0.103
MS.457         	14.455         	0.115
MS.458         	14.425         	0.111
MS.459         	14.395         	0.103
MS.460         	14.367         	0.097
MS.461         	14.337         	0.101
MS.462         	14.31          	0.107
MS.463         	14.282         	0.099
MS.464         	14.252         	0.095
MS.465         	14.225         	0.107
MS.466         	14.195         	0.115
MS.467         	14.167         	0.095
MS.468         	14.14          	0.107
MS.469         	14.11          	0.109
MS.470         	14.082         	0.121
MS.471         	14.055         	0.105
MS.472         	14.028         	0.087
MS.473         	13.997         	0.097
MS.474         	13.97          	0.107
MS.475         	13.943         	0.105
MS.476         	13.915         	0.115
MS.477         	13.887         	0.095
MS.478         	13.86          	0.095
MS.479         	13.832         	0.097
MS.480         	13.805         	0.093
MS.481         	13.778         	0.113
MS.482         	13.75          	0.111
MS.483         	13.722         	0.111
MS.484         	13.695         	0.109
MS.485         	13.667         	0.119
MS.486         	13.64          	0.099
MS.487         	13.612         	0.101
MS.488         	13.585         	0.103
MS.489         	13.557         	0.111
MS.490         	13.53          	0.109
MS.491         	13.502         	0.097
MS.492         	13.477         	0.107
MS.493         	13.45          	0.091
MS.494         	13.422         	0.101
MS.495         	13.395         	0.103
MS.496         	13.37          	0.107
MS.497         	13.342         	0.107
MS.498         	13.315         	0.101
MS.499         	13.29          	0.103
MS.500         	13.262         	0.103
MS.501         	13.235         	0.103
MS.502         	13.21          	0.103
MS.503         	13.182         	0.089
MS.504         	13.157         	0.091
MS.505         	13.13          	0.103
MS.506         	13.105         	0.103
MS.507         	13.077         	0.101
MS.508         	13.052         	0.091
MS.509         	13.025         	0.113
MS.510         	13             	0.111
MS.511         	12.975         	0.095
MS.512         	12.947         	0.107
MS.513         	12.922         	0.099
MS.514         	12.898         	0.105
MS.515         	12.87          	0.101
MS.516         	12.845         	0.105
MS.517         	12.82          	0.107
MS.518         	12.792         	0.111
MS.519         	12.767         	0.097
MS.520         	12.742         	0.113
MS.521         	12.717         	0.103
MS.522         	12.693         	0.093
MS.523         	12.667         	0.095
MS.524         	12.64          	0.097
MS.525         	12.615         	0.105
MS.526         	12.59          	0.095
MS.527         	12.565         	0.099
MS.528         	12.54          	0.099
MS.529         	12.515         	0.091
MS.530         	12.49          	0.101
MS.531         	12.465         	0.101
MS.532         	12.44          	0.097
MS.533         	12.415         	0.097
MS.534         	12.39          	0.101
MS.535         	12.365         	0.095
DERIVED EXCITABILITY VARIABLES
Program = QTracP 3/4/2020
Threshold method = 6 (optimised for CAP, using data for present condition only)
SR method = 1 (using actual data values)
6.                 	0.000               	Peak response\(mV)
9.                 	31.3                	Temperature ( C)
17.                	53                  	Age (years)
18.                	2                   	Sex (M=1, F=2)

EXTRA VARIABLES

MScPeak(mV) = 6.04
MScS5(mA) = 15.75
MScS50(mA) = 21.72
MScS95(mA) = 29.12
MScNSteps = 0
MScSteps(%) = 0.0
MScStepMax(%) = 0.0
MScD50 = 71
MScSlope = 3.63
MSFPeakAmp(mV) = 6.02
MSFNUnits = 186
MSFMeanUnitAmp(uV) = 32.4
MSFHuntTime(m) = 3.56
MSFError(%) = 1.14
MSFNLarge = 62.36
MSFMedianAmp(%) = 0.478
MSFMedianAmp(mV) = 0.0288
MSFHalfAmpAmp(%) = 0.555
MSFHalfAmpAmp(mV) = 0.0334
MSFLargestAmp(%) = 1.75
MSFLargestAmp(mV) = 0.106
MSFMeanRS(%) = 2
MSFOpts = 10106121
MScDuration(min) = 4.9
MSFTraces = 493
MSFSizeLimit(uV) = 15.1
MSFLimitType = 1
MSFSmallestAmp(uV) = 15.4

EXTRA WAVEFORMS


!MScan Model
!186
	1	14.88	0.52	2
	2	15.17	0.7	2
	3	15.33	0.61	2
	4	15.45	0.47	2
	5	15.59	0.61	2
	6	15.77	0.85	2
	7	15.94	0.6	2
	8	16.1	0.53	2
	9	16.29	0.79	2
	10	16.52	0.96	2
	11	16.84	1.43	2
	12	17.09	1.4	2
	13	17.29	1.09	2
	14	17.52	1.75	2
	15	17.74	1.59	2
	16	17.95	1.74	2
	17	18.16	1.32	2
	18	18.3	1.14	2
	19	18.48	0.86	2
	20	18.61	0.73	2
	21	18.73	0.99	2
	22	18.83	0.64	2
	23	18.91	0.52	2
	24	18.98	0.48	2
	25	19.05	0.52	2
	26	19.11	0.45	2
	27	19.17	0.41	2
	28	19.23	0.47	2
	29	19.3	0.6	2
	30	19.38	0.69	2
	31	19.46	0.7	2
	32	19.52	0.46	2
	33	19.57	0.46	2
	34	19.62	0.51	2
	35	19.69	0.66	2
	36	19.77	0.67	2
	37	19.84	0.67	2
	38	19.92	0.83	2
	39	20.02	0.89	2
	40	20.11	0.76	2
	41	20.19	0.81	2
	42	20.27	0.86	2
	43	20.36	0.82	2
	44	20.44	0.75	2
	45	20.52	0.77	2
	46	20.6	0.85	2
	47	20.67	0.84	2
	48	20.74	0.69	2
	49	20.81	0.65	2
	50	20.87	0.65	2
	51	20.94	0.67	2
	52	21.01	0.69	2
	53	21.07	0.71	2
	54	21.13	0.58	2
	55	21.19	0.55	2
	56	21.24	0.58	2
	57	21.3	0.62	2
	58	21.36	0.66	2
	59	21.41	0.64	2
	60	21.47	0.6	2
	61	21.53	0.52	2
	62	21.57	0.36	2
	63	21.61	0.36	2
	64	21.65	0.37	2
	65	21.69	0.34	2
	66	21.74	0.63	2
	67	21.8	0.54	2
	68	21.86	0.45	2
	69	21.91	0.44	2
	70	21.96	0.43	2
	71	22	0.44	2
	72	22.05	0.42	2
	73	22.1	0.39	2
	74	22.14	0.36	2
	75	22.18	0.29	2
	76	22.21	0.29	2
	77	22.25	0.28	2
	78	22.29	0.27	2
	79	22.33	0.28	2
	80	22.36	0.29	2
	81	22.4	0.28	2
	82	22.44	0.27	2
	83	22.47	0.27	2
	84	22.51	0.27	2
	85	22.55	0.28	2
	86	22.58	0.29	2
	87	22.63	0.34	2
	88	22.67	0.35	2
	89	22.71	0.37	2
	90	22.76	0.38	2
	91	22.81	0.39	2
	92	22.86	0.41	2
	93	22.91	0.39	2
	94	22.96	0.37	2
	95	23.01	0.37	2
	96	23.06	0.33	2
	97	23.1	0.29	2
	98	23.14	0.29	2
	99	23.18	0.3	2
	100	23.22	0.31	2
	101	23.27	0.35	2
	102	23.31	0.35	2
	103	23.36	0.35	2
	104	23.4	0.34	2
	105	23.45	0.33	2
	106	23.5	0.32	2
	107	23.55	0.45	2
	108	23.62	0.44	2
	109	23.68	0.41	2
	110	23.72	0.29	2
	111	23.8	0.48	2
	112	23.87	0.55	2
	113	23.99	0.59	2
	114	24.03	0.31	2
	115	24.07	0.3	2
	116	24.11	0.29	2
	117	24.15	0.28	2
	118	24.21	0.35	2
	119	24.28	0.42	2
	120	24.35	0.45	2
	121	24.41	0.46	2
	122	24.48	0.47	2
	123	24.56	0.51	2
	124	24.64	0.55	2
	125	24.71	0.51	2
	126	24.78	0.48	2
	127	24.85	0.47	2
	128	24.92	0.48	2
	129	24.99	0.53	2
	130	25.06	0.58	2
	131	25.14	0.58	2
	132	25.21	0.53	2
	133	25.29	0.51	2
	134	25.36	0.48	2
	135	25.43	0.51	2
	136	25.48	0.35	2
	137	25.53	0.29	2
	138	25.57	0.29	2
	139	25.61	0.29	2
	140	25.65	0.3	2
	141	25.68	0.26	2
	142	25.75	0.48	2
	143	25.82	0.45	2
	144	25.88	0.54	2
	145	25.99	0.57	2
	146	26.03	0.31	2
	147	26.07	0.3	2
	148	26.11	0.28	2
	149	26.15	0.27	2
	150	26.23	0.49	2
	151	26.31	0.47	2
	152	26.39	0.61	2
	153	26.52	0.69	2
	154	26.59	0.48	2
	155	26.67	0.43	2
	156	26.74	0.44	2
	157	26.83	0.45	2
	158	26.91	0.42	2
	159	26.99	0.42	2
	160	27.11	0.64	2
	161	27.26	0.68	2
	162	27.48	1.04	2
	163	27.65	0.66	2
	164	27.79	0.58	2
	165	27.9	0.44	2
	166	28.02	0.41	2
	167	28.13	0.44	2
	168	28.23	0.39	2
	169	28.32	0.41	2
	170	28.43	0.44	2
	171	28.53	0.43	2
	172	28.64	0.39	2
	173	28.77	0.51	2
	174	28.94	0.54	2
	175	29.11	0.49	2
	176	29.28	0.41	2
	177	29.65	0.91	2
	178	29.96	0.53	2
	179	30.29	0.54	2
	180	30.57	0.41	2
	181	30.95	0.48	2
	182	32.08	0.51	2
	183	32.35	0.32	2
	184	32.9	0.53	2
	185	32.98	0.69	2
	186	33.7	0.68	2

