File:              	C:\Qtrac\Data\Daniel M Sørensen\MScan multicentre study\Data from centres\Oslo\IronKey\Oslo_NC_first examination\SZC00602C.QZD
Name:              	NO.OSL.NC.15.1
Protocol:          	MSCAN-R2
Date:              	2/6/20
Start time:        	16:38:47
Age:               	41
Sex:               	M
Temperature:       	35
S/R sites:         	Peroneal TA
NC/disease:        	NC15
Operator:          	SZ
Comments:          	Test1
M-SCAN DATA (18.3-6.7m)
Scanpts: 22, 42, 1165, 1176
Stim. (mA)     	Amp. (mV)
MS.1           	35             	8.139
MS.2           	35             	8.147
MS.3           	35             	8.141
MS.4           	35             	8.101
MS.5           	35             	8.069
MS.6           	35             	8.087
MS.7           	35             	8.099
MS.8           	35             	8.069
MS.9           	35             	8.034
MS.10          	35             	8.03
MS.11          	35             	8.045
MS.12          	35             	8.012
MS.13          	35             	8.008
MS.14          	35             	7.978
MS.15          	35             	8.036
MS.16          	35             	8.069
MS.17          	35             	8.02
MS.18          	35             	8.022
MS.19          	35             	8.059
MS.20          	35             	8.049
MS.21          	35             	8.041
MS.22          	35             	8.073
MS.23          	35             	8.085
MS.24          	34.79          	8.057
MS.25          	34.72          	8.016
MS.26          	34.653         	8.053
MS.27          	34.583         	8.032
MS.28          	34.513         	8.01
MS.29          	34.445         	8.02
MS.30          	34.375         	8.008
MS.31          	34.307         	8.028
MS.32          	34.237         	8.049
MS.33          	34.17          	8.018
MS.34          	34.103         	8.039
MS.35          	34.032         	8.055
MS.36          	33.965         	7.998
MS.37          	33.897         	8.008
MS.38          	33.83          	7.998
MS.39          	33.763         	8.012
MS.40          	33.695         	8.026
MS.41          	33.627         	8.018
MS.42          	33.56          	7.998
MS.43          	33.493         	8.006
MS.44          	33.427         	8.055
MS.45          	33.36          	8.03
MS.46          	33.292         	8.024
MS.47          	33.228         	8.041
MS.48          	33.16          	7.984
MS.49          	33.092         	8.032
MS.50          	33.028         	8.012
MS.51          	32.962         	8.053
MS.52          	32.895         	8.014
MS.53          	32.83          	8.004
MS.54          	32.765         	7.982
MS.55          	32.7           	8.077
MS.56          	32.632         	8.004
MS.57          	32.568         	7.988
MS.58          	32.502         	8.022
MS.59          	32.438         	8.016
MS.60          	32.372         	7.966
MS.61          	32.31          	7.984
MS.62          	32.245         	7.972
MS.63          	32.18          	7.958
MS.64          	32.115         	7.986
MS.65          	32.052         	7.958
MS.66          	31.987         	7.992
MS.67          	31.922         	7.986
MS.68          	31.86          	8.008
MS.69          	31.795         	7.968
MS.70          	31.733         	7.942
MS.71          	31.67          	7.96
MS.72          	31.605         	7.964
MS.73          	31.542         	7.968
MS.74          	31.48          	7.924
MS.75          	31.417         	7.922
MS.76          	31.355         	7.968
MS.77          	31.292         	7.93
MS.78          	31.23          	7.972
MS.79          	31.167         	7.93
MS.80          	31.105         	7.928
MS.81          	31.042         	7.964
MS.82          	30.98          	7.922
MS.83          	30.917         	7.914
MS.84          	30.858         	7.924
MS.85          	30.795         	7.934
MS.86          	30.733         	7.936
MS.87          	30.672         	7.936
MS.88          	30.61          	7.974
MS.89          	30.55          	7.896
MS.90          	30.487         	7.918
MS.91          	30.427         	7.91
MS.92          	30.367         	7.93
MS.93          	30.305         	7.936
MS.94          	30.245         	7.926
MS.95          	30.185         	7.922
MS.96          	30.125         	7.914
MS.97          	30.065         	7.916
MS.98          	30.005         	7.934
MS.99          	29.945         	7.912
MS.100         	29.885         	7.906
MS.101         	29.825         	7.902
MS.102         	29.765         	7.918
MS.103         	29.705         	7.926
MS.104         	29.647         	7.914
MS.105         	29.587         	7.873
MS.106         	29.528         	7.906
MS.107         	29.47          	7.875
MS.108         	29.41          	7.877
MS.109         	29.352         	7.853
MS.110         	29.292         	7.881
MS.111         	29.235         	7.867
MS.112         	29.175         	7.92
MS.113         	29.117         	7.867
MS.114         	29.06          	7.867
MS.115         	29.002         	7.851
MS.116         	28.942         	7.793
MS.117         	28.885         	7.817
MS.118         	28.827         	7.855
MS.119         	28.77          	7.825
MS.120         	28.712         	7.857
MS.121         	28.655         	7.845
MS.122         	28.597         	7.831
MS.123         	28.54          	7.877
MS.124         	28.485         	7.831
MS.125         	28.427         	7.847
MS.126         	28.37          	7.881
MS.127         	28.312         	7.841
MS.128         	28.257         	7.851
MS.129         	28.2           	7.863
MS.130         	28.145         	7.831
MS.131         	28.087         	7.849
MS.132         	28.032         	7.831
MS.133         	27.975         	7.855
MS.134         	27.92          	7.799
MS.135         	27.865         	7.825
MS.136         	27.807         	7.789
MS.137         	27.752         	7.837
MS.138         	27.698         	7.839
MS.139         	27.642         	7.783
MS.140         	27.587         	7.839
MS.141         	27.532         	7.843
MS.142         	27.477         	7.821
MS.143         	27.422         	7.831
MS.144         	27.368         	7.787
MS.145         	27.312         	7.835
MS.146         	27.257         	7.787
MS.147         	27.202         	7.789
MS.148         	27.15          	7.821
MS.149         	27.095         	7.801
MS.150         	27.04          	7.813
MS.151         	26.987         	7.785
MS.152         	26.932         	7.803
MS.153         	26.88          	7.787
MS.154         	26.825         	7.789
MS.155         	26.772         	7.773
MS.156         	26.717         	7.821
MS.157         	26.665         	7.789
MS.158         	26.612         	7.835
MS.159         	26.557         	7.771
MS.160         	26.505         	7.797
MS.161         	26.452         	7.785
MS.162         	26.4           	7.791
MS.163         	26.347         	7.805
MS.164         	26.295         	7.759
MS.165         	26.243         	7.797
MS.166         	26.19          	7.827
MS.167         	26.137         	7.771
MS.168         	26.085         	7.771
MS.169         	26.032         	7.791
MS.170         	25.98          	7.809
MS.171         	25.927         	7.803
MS.172         	25.877         	7.803
MS.173         	25.825         	7.801
MS.174         	25.772         	7.75
MS.175         	25.722         	7.771
MS.176         	25.67          	7.759
MS.177         	25.62          	7.738
MS.178         	25.567         	7.757
MS.179         	25.517         	7.748
MS.180         	25.465         	7.748
MS.181         	25.415         	7.757
MS.182         	25.365         	7.785
MS.183         	25.312         	7.753
MS.184         	25.262         	7.761
MS.185         	25.212         	7.765
MS.186         	25.163         	7.775
MS.187         	25.112         	7.785
MS.188         	25.062         	7.769
MS.189         	25.012         	7.775
MS.190         	24.962         	7.785
MS.191         	24.913         	7.742
MS.192         	24.862         	7.761
MS.193         	24.812         	7.748
MS.194         	24.762         	7.736
MS.195         	24.712         	7.757
MS.196         	24.665         	7.779
MS.197         	24.615         	7.827
MS.198         	24.565         	7.797
MS.199         	24.517         	7.803
MS.200         	24.467         	7.728
MS.201         	24.417         	7.742
MS.202         	24.37          	7.724
MS.203         	24.32          	7.799
MS.204         	24.272         	7.7
MS.205         	24.225         	7.803
MS.206         	24.175         	7.779
MS.207         	24.127         	7.759
MS.208         	24.08          	7.748
MS.209         	24.03          	7.803
MS.210         	23.983         	7.821
MS.211         	23.935         	7.795
MS.212         	23.887         	7.783
MS.213         	23.84          	7.791
MS.214         	23.792         	7.773
MS.215         	23.745         	7.755
MS.216         	23.698         	7.773
MS.217         	23.65          	7.781
MS.218         	23.602         	7.761
MS.219         	23.555         	7.807
MS.220         	23.507         	7.801
MS.221         	23.46          	7.775
MS.222         	23.415         	7.797
MS.223         	23.368         	7.783
MS.224         	23.32          	7.74
MS.225         	23.275         	7.809
MS.226         	23.227         	7.779
MS.227         	23.18          	7.795
MS.228         	23.135         	7.742
MS.229         	23.087         	7.748
MS.230         	23.042         	7.791
MS.231         	22.997         	7.746
MS.232         	22.95          	7.734
MS.233         	22.905         	7.742
MS.234         	22.86          	7.734
MS.235         	22.812         	7.726
MS.236         	22.767         	7.73
MS.237         	22.722         	7.767
MS.238         	22.677         	7.753
MS.239         	22.632         	7.728
MS.240         	22.587         	7.771
MS.241         	22.54          	7.757
MS.242         	22.495         	7.771
MS.243         	22.45          	7.738
MS.244         	22.407         	7.742
MS.245         	22.362         	7.771
MS.246         	22.317         	7.748
MS.247         	22.272         	7.75
MS.248         	22.227         	7.771
MS.249         	22.182         	7.761
MS.250         	22.14          	7.763
MS.251         	22.095         	7.763
MS.252         	22.05          	7.761
MS.253         	22.007         	7.724
MS.254         	21.962         	7.696
MS.255         	21.92          	7.738
MS.256         	21.875         	7.748
MS.257         	21.833         	7.72
MS.258         	21.788         	7.746
MS.259         	21.745         	7.765
MS.260         	21.7           	7.708
MS.261         	21.657         	7.714
MS.262         	21.615         	7.728
MS.263         	21.57          	7.692
MS.264         	21.528         	7.706
MS.265         	21.485         	7.706
MS.266         	21.442         	7.706
MS.267         	21.4           	7.714
MS.268         	21.355         	7.72
MS.269         	21.312         	7.704
MS.270         	21.27          	7.734
MS.271         	21.227         	7.708
MS.272         	21.185         	7.702
MS.273         	21.142         	7.71
MS.274         	21.102         	7.72
MS.275         	21.06          	7.688
MS.276         	21.017         	7.726
MS.277         	20.975         	7.674
MS.278         	20.932         	7.724
MS.279         	20.892         	7.748
MS.280         	20.85          	7.704
MS.281         	20.807         	7.726
MS.282         	20.767         	7.718
MS.283         	20.725         	7.72
MS.284         	20.682         	7.718
MS.285         	20.642         	7.698
MS.286         	20.6           	7.698
MS.287         	20.56          	7.716
MS.288         	20.52          	7.698
MS.289         	20.477         	7.714
MS.290         	20.438         	7.72
MS.291         	20.395         	7.73
MS.292         	20.355         	7.722
MS.293         	20.315         	7.644
MS.294         	20.275         	7.714
MS.295         	20.233         	7.696
MS.296         	20.192         	7.728
MS.297         	20.153         	7.72
MS.298         	20.112         	7.688
MS.299         	20.073         	7.682
MS.300         	20.032         	7.688
MS.301         	19.993         	7.71
MS.302         	19.952         	7.678
MS.303         	19.913         	7.666
MS.304         	19.872         	7.678
MS.305         	19.833         	7.688
MS.306         	19.792         	7.672
MS.307         	19.755         	7.692
MS.308         	19.715         	7.7
MS.309         	19.675         	7.692
MS.310         	19.635         	7.688
MS.311         	19.597         	7.662
MS.312         	19.557         	7.704
MS.313         	19.517         	7.686
MS.314         	19.48          	7.7
MS.315         	19.44          	7.684
MS.316         	19.403         	7.712
MS.317         	19.362         	7.652
MS.318         	19.325         	7.692
MS.319         	19.285         	7.72
MS.320         	19.247         	7.68
MS.321         	19.208         	7.714
MS.322         	19.17          	7.69
MS.323         	19.132         	7.706
MS.324         	19.092         	7.696
MS.325         	19.055         	7.67
MS.326         	19.017         	7.678
MS.327         	18.98          	7.684
MS.328         	18.942         	7.682
MS.329         	18.903         	7.658
MS.330         	18.865         	7.69
MS.331         	18.827         	7.652
MS.332         	18.79          	7.688
MS.333         	18.753         	7.686
MS.334         	18.715         	7.682
MS.335         	18.677         	7.65
MS.336         	18.64          	7.716
MS.337         	18.602         	7.636
MS.338         	18.565         	7.654
MS.339         	18.53          	7.72
MS.340         	18.493         	7.66
MS.341         	18.455         	7.692
MS.342         	18.417         	7.597
MS.343         	18.382         	7.658
MS.344         	18.345         	7.634
MS.345         	18.307         	7.636
MS.346         	18.272         	7.644
MS.347         	18.235         	7.616
MS.348         	18.198         	7.652
MS.349         	18.163         	7.652
MS.350         	18.125         	7.648
MS.351         	18.09          	7.605
MS.352         	18.052         	7.66
MS.353         	18.017         	7.601
MS.354         	17.983         	7.644
MS.355         	17.945         	7.597
MS.356         	17.91          	7.62
MS.357         	17.875         	7.664
MS.358         	17.837         	7.614
MS.359         	17.802         	7.571
MS.360         	17.767         	7.597
MS.361         	17.733         	7.567
MS.362         	17.695         	7.555
MS.363         	17.66          	7.599
MS.364         	17.625         	7.583
MS.365         	17.59          	7.601
MS.366         	17.555         	7.553
MS.367         	17.52          	7.523
MS.368         	17.485         	7.491
MS.369         	17.45          	7.531
MS.370         	17.415         	7.497
MS.371         	17.38          	7.575
MS.372         	17.345         	7.507
MS.373         	17.31          	7.555
MS.374         	17.278         	7.513
MS.375         	17.243         	7.541
MS.376         	17.208         	7.543
MS.377         	17.172         	7.279
MS.378         	17.14          	7.354
MS.379         	17.105         	7.473
MS.380         	17.07          	7.456
MS.381         	17.038         	7.334
MS.382         	17.003         	7.503
MS.383         	16.967         	7.446
MS.384         	16.935         	7.346
MS.385         	16.9           	7.471
MS.386         	16.868         	7.311
MS.387         	16.833         	7.334
MS.388         	16.8           	7.471
MS.389         	16.765         	7.16
MS.390         	16.733         	7.382
MS.391         	16.7           	7.279
MS.392         	16.665         	7.255
MS.393         	16.632         	7.231
MS.394         	16.6           	7.509
MS.395         	16.565         	7.279
MS.396         	16.532         	7.265
MS.397         	16.5           	7.18
MS.398         	16.467         	7.315
MS.399         	16.435         	7.152
MS.400         	16.4           	7.158
MS.401         	16.368         	7.205
MS.402         	16.335         	7.152
MS.403         	16.302         	7.13
MS.404         	16.27          	7.152
MS.405         	16.237         	7.241
MS.406         	16.205         	7.152
MS.407         	16.172         	7.052
MS.408         	16.14          	7.132
MS.409         	16.108         	7.168
MS.410         	16.077         	7.025
MS.411         	16.045         	6.951
MS.412         	16.012         	7.037
MS.413         	15.98          	7.031
MS.414         	15.947         	7.054
MS.415         	15.917         	6.987
MS.416         	15.885         	6.973
MS.417         	15.852         	6.975
MS.418         	15.82          	7.015
MS.419         	15.79          	7.009
MS.420         	15.757         	7.088
MS.421         	15.727         	6.971
MS.422         	15.695         	6.963
MS.423         	15.662         	7.001
MS.424         	15.632         	6.957
MS.425         	15.6           	6.985
MS.426         	15.57          	6.925
MS.427         	15.54          	6.987
MS.428         	15.507         	6.919
MS.429         	15.477         	6.939
MS.430         	15.445         	6.905
MS.431         	15.415         	6.909
MS.432         	15.385         	6.892
MS.433         	15.352         	6.907
MS.434         	15.322         	6.929
MS.435         	15.292         	6.957
MS.436         	15.262         	6.886
MS.437         	15.23          	6.915
MS.438         	15.2           	6.945
MS.439         	15.17          	6.874
MS.440         	15.14          	6.905
MS.441         	15.11          	6.905
MS.442         	15.08          	6.862
MS.443         	15.05          	6.925
MS.444         	15.02          	6.842
MS.445         	14.99          	6.826
MS.446         	14.96          	6.852
MS.447         	14.93          	6.745
MS.448         	14.9           	6.749
MS.449         	14.87          	6.753
MS.450         	14.84          	6.751
MS.451         	14.81          	6.834
MS.452         	14.78          	6.826
MS.453         	14.752         	6.818
MS.454         	14.722         	6.842
MS.455         	14.693         	6.846
MS.456         	14.662         	6.711
MS.457         	14.635         	6.84
MS.458         	14.605         	6.711
MS.459         	14.575         	6.701
MS.460         	14.547         	6.878
MS.461         	14.517         	6.774
MS.462         	14.487         	6.663
MS.463         	14.46          	6.723
MS.464         	14.43          	6.651
MS.465         	14.403         	6.683
MS.466         	14.372         	6.641
MS.467         	14.345         	6.737
MS.468         	14.315         	6.707
MS.469         	14.287         	6.679
MS.470         	14.257         	6.584
MS.471         	14.23          	6.713
MS.472         	14.202         	6.643
MS.473         	14.172         	6.627
MS.474         	14.145         	6.677
MS.475         	14.117         	6.61
MS.476         	14.087         	6.667
MS.477         	14.06          	6.608
MS.478         	14.032         	6.556
MS.479         	14.005         	6.653
MS.480         	13.975         	6.538
MS.481         	13.947         	6.558
MS.482         	13.92          	6.57
MS.483         	13.892         	6.564
MS.484         	13.865         	6.528
MS.485         	13.837         	6.578
MS.486         	13.81          	6.514
MS.487         	13.782         	6.554
MS.488         	13.755         	6.59
MS.489         	13.727         	6.594
MS.490         	13.7           	6.522
MS.491         	13.672         	6.494
MS.492         	13.645         	6.556
MS.493         	13.617         	6.542
MS.494         	13.59          	6.514
MS.495         	13.562         	6.465
MS.496         	13.535         	6.447
MS.497         	13.51          	6.459
MS.498         	13.483         	6.518
MS.499         	13.455         	6.417
MS.500         	13.427         	6.492
MS.501         	13.4           	6.411
MS.502         	13.375         	6.419
MS.503         	13.347         	6.508
MS.504         	13.32          	6.437
MS.505         	13.295         	6.451
MS.506         	13.267         	6.403
MS.507         	13.242         	6.389
MS.508         	13.215         	6.397
MS.509         	13.188         	6.373
MS.510         	13.162         	6.296
MS.511         	13.135         	6.363
MS.512         	13.11          	6.377
MS.513         	13.082         	6.435
MS.514         	13.057         	6.393
MS.515         	13.03          	6.357
MS.516         	13.005         	6.395
MS.517         	12.98          	6.312
MS.518         	12.952         	6.335
MS.519         	12.927         	6.369
MS.520         	12.903         	6.266
MS.521         	12.875         	6.331
MS.522         	12.85          	6.302
MS.523         	12.825         	6.298
MS.524         	12.797         	6.222
MS.525         	12.773         	6.214
MS.526         	12.747         	6.206
MS.527         	12.722         	6.296
MS.528         	12.697         	6.143
MS.529         	12.672         	6.169
MS.530         	12.645         	6.214
MS.531         	12.62          	6.143
MS.532         	12.595         	6.133
MS.533         	12.57          	6.171
MS.534         	12.545         	6.099
MS.535         	12.52          	6.063
MS.536         	12.495         	6.115
MS.537         	12.47          	6.127
MS.538         	12.445         	6.079
MS.539         	12.42          	6.089
MS.540         	12.395         	6.077
MS.541         	12.37          	6.071
MS.542         	12.345         	6.089
MS.543         	12.322         	5.968
MS.544         	12.297         	6.03
MS.545         	12.273         	6.02
MS.546         	12.247         	6.053
MS.547         	12.222         	5.998
MS.548         	12.2           	6.053
MS.549         	12.175         	6.034
MS.550         	12.15          	6.028
MS.551         	12.125         	5.879
MS.552         	12.102         	5.938
MS.553         	12.077         	6.127
MS.554         	12.052         	5.918
MS.555         	12.03          	5.946
MS.556         	12.005         	5.897
MS.557         	11.983         	5.883
MS.558         	11.957         	5.891
MS.559         	11.932         	5.899
MS.560         	11.91          	5.879
MS.561         	11.885         	5.821
MS.562         	11.863         	5.795
MS.563         	11.837         	5.688
MS.564         	11.815         	5.829
MS.565         	11.79          	5.752
MS.566         	11.767         	5.875
MS.567         	11.745         	5.777
MS.568         	11.72          	5.767
MS.569         	11.697         	5.692
MS.570         	11.675         	5.71
MS.571         	11.65          	5.704
MS.572         	11.627         	5.694
MS.573         	11.605         	5.551
MS.574         	11.58          	5.511
MS.575         	11.557         	5.626
MS.576         	11.535         	5.579
MS.577         	11.512         	5.511
MS.578         	11.488         	5.507
MS.579         	11.465         	5.579
MS.580         	11.443         	5.505
MS.581         	11.42          	5.499
MS.582         	11.398         	5.553
MS.583         	11.375         	5.406
MS.584         	11.352         	5.481
MS.585         	11.33          	5.4
MS.586         	11.305         	5.45
MS.587         	11.282         	5.444
MS.588         	11.26          	5.495
MS.589         	11.238         	5.501
MS.590         	11.215         	5.372
MS.591         	11.193         	5.408
MS.592         	11.172         	5.382
MS.593         	11.15          	5.342
MS.594         	11.127         	5.412
MS.595         	11.105         	5.317
MS.596         	11.082         	5.307
MS.597         	11.06          	5.309
MS.598         	11.037         	5.317
MS.599         	11.015         	5.18
MS.600         	10.995         	5.263
MS.601         	10.972         	5.37
MS.602         	10.95          	5.307
MS.603         	10.927         	5.336
MS.604         	10.907         	5.311
MS.605         	10.885         	5.098
MS.606         	10.863         	5.253
MS.607         	10.84          	5.195
MS.608         	10.82          	5.301
MS.609         	10.797         	5.168
MS.610         	10.775         	5.225
MS.611         	10.755         	5.158
MS.612         	10.733         	5.122
MS.613         	10.712         	5.122
MS.614         	10.69          	5.074
MS.615         	10.67          	5.013
MS.616         	10.648         	5.084
MS.617         	10.627         	5.078
MS.618         	10.605         	4.945
MS.619         	10.585         	5.011
MS.620         	10.562         	4.975
MS.621         	10.542         	4.983
MS.622         	10.52          	4.931
MS.623         	10.5           	5.082
MS.624         	10.477         	4.921
MS.625         	10.457         	4.931
MS.626         	10.438         	4.961
MS.627         	10.415         	4.955
MS.628         	10.395         	4.909
MS.629         	10.375         	4.987
MS.630         	10.352         	4.961
MS.631         	10.332         	4.973
MS.632         	10.312         	4.959
MS.633         	10.292         	4.915
MS.634         	10.27          	4.898
MS.635         	10.25          	4.87
MS.636         	10.23          	4.925
MS.637         	10.21          	4.902
MS.638         	10.19          	4.935
MS.639         	10.17          	4.892
MS.640         	10.148         	4.947
MS.641         	10.127         	4.806
MS.642         	10.108         	4.796
MS.643         	10.087         	4.802
MS.644         	10.068         	4.878
MS.645         	10.047         	4.79
MS.646         	10.028         	4.818
MS.647         	10.007         	4.82
MS.648         	9.988          	4.792
MS.649         	9.967          	4.784
MS.650         	9.948          	4.808
MS.651         	9.927          	4.588
MS.652         	9.907          	4.582
MS.653         	9.887          	4.665
MS.654         	9.867          	4.534
MS.655         	9.847          	4.633
MS.656         	9.83           	4.693
MS.657         	9.81           	4.639
MS.658         	9.79           	4.514
MS.659         	9.77           	4.655
MS.660         	9.75           	4.749
MS.661         	9.733          	4.473
MS.662         	9.712          	4.616
MS.663         	9.693          	4.49
MS.664         	9.672          	4.415
MS.665         	9.653          	4.405
MS.666         	9.635          	4.339
MS.667         	9.615          	4.379
MS.668         	9.595          	4.373
MS.669         	9.577          	4.486
MS.670         	9.557          	4.421
MS.671         	9.537          	4.391
MS.672         	9.52           	4.385
MS.673         	9.5            	4.435
MS.674         	9.483          	4.339
MS.675         	9.462          	4.308
MS.676         	9.443          	4.419
MS.677         	9.425          	4.328
MS.678         	9.405          	4.286
MS.679         	9.387          	4.421
MS.680         	9.367          	4.395
MS.681         	9.35           	4.316
MS.682         	9.33           	4.365
MS.683         	9.312          	4.264
MS.684         	9.295          	4.276
MS.685         	9.275          	4.24
MS.686         	9.257          	4.357
MS.687         	9.238          	4.298
MS.688         	9.22           	4.282
MS.689         	9.202          	4.216
MS.690         	9.182          	4.167
MS.691         	9.165          	4.183
MS.692         	9.148          	4.21
MS.693         	9.127          	4.165
MS.694         	9.11           	4.173
MS.695         	9.092          	4.195
MS.696         	9.073          	4.189
MS.697         	9.055          	4.171
MS.698         	9.037          	4.21
MS.699         	9.02           	4.177
MS.700         	9              	4.137
MS.701         	8.983          	4.252
MS.702         	8.965          	4.125
MS.703         	8.948          	4.159
MS.704         	8.93           	4.155
MS.705         	8.912          	4.05
MS.706         	8.892          	4.125
MS.707         	8.875          	4.038
MS.708         	8.858          	4.129
MS.709         	8.84           	4.071
MS.710         	8.823          	4.079
MS.711         	8.805          	4.044
MS.712         	8.787          	4.081
MS.713         	8.77           	4.028
MS.714         	8.752          	4.099
MS.715         	8.735          	4.101
MS.716         	8.717          	4.075
MS.717         	8.7            	4.089
MS.718         	8.682          	3.976
MS.719         	8.665          	4.002
MS.720         	8.648          	3.984
MS.721         	8.63           	3.984
MS.722         	8.613          	3.964
MS.723         	8.597          	3.974
MS.724         	8.58           	3.96
MS.725         	8.562          	3.972
MS.726         	8.545          	3.97
MS.727         	8.528          	3.928
MS.728         	8.51           	3.984
MS.729         	8.495          	3.96
MS.730         	8.477          	3.958
MS.731         	8.46           	3.956
MS.732         	8.443          	3.907
MS.733         	8.425          	3.962
MS.734         	8.41           	3.893
MS.735         	8.392          	3.827
MS.736         	8.375          	3.911
MS.737         	8.36           	3.771
MS.738         	8.342          	3.831
MS.739         	8.325          	3.831
MS.740         	8.31           	3.837
MS.741         	8.292          	3.841
MS.742         	8.275          	3.907
MS.743         	8.26           	3.811
MS.744         	8.242          	3.859
MS.745         	8.227          	3.835
MS.746         	8.21           	3.817
MS.747         	8.193          	3.855
MS.748         	8.177          	3.851
MS.749         	8.16           	3.837
MS.750         	8.145          	3.835
MS.751         	8.127          	3.873
MS.752         	8.113          	3.849
MS.753         	8.095          	3.835
MS.754         	8.08           	3.823
MS.755         	8.062          	3.843
MS.756         	8.047          	3.771
MS.757         	8.033          	3.803
MS.758         	8.015          	3.803
MS.759         	8              	3.855
MS.760         	7.982          	3.803
MS.761         	7.967          	3.801
MS.762         	7.952          	3.787
MS.763         	7.935          	3.803
MS.764         	7.92           	3.821
MS.765         	7.905          	3.799
MS.766         	7.887          	3.793
MS.767         	7.872          	3.803
MS.768         	7.857          	3.781
MS.769         	7.84           	3.821
MS.770         	7.825          	3.714
MS.771         	7.81           	3.702
MS.772         	7.795          	3.833
MS.773         	7.777          	3.73
MS.774         	7.762          	3.718
MS.775         	7.747          	3.789
MS.776         	7.732          	3.787
MS.777         	7.717          	3.801
MS.778         	7.7            	3.698
MS.779         	7.685          	3.71
MS.780         	7.67           	3.706
MS.781         	7.655          	3.815
MS.782         	7.64           	3.684
MS.783         	7.625          	3.752
MS.784         	7.61           	3.795
MS.785         	7.595          	3.74
MS.786         	7.577          	3.746
MS.787         	7.562          	3.577
MS.788         	7.547          	3.561
MS.789         	7.532          	3.589
MS.790         	7.517          	3.573
MS.791         	7.503          	3.7
MS.792         	7.487          	3.591
MS.793         	7.472          	3.577
MS.794         	7.457          	3.573
MS.795         	7.442          	3.563
MS.796         	7.427          	3.579
MS.797         	7.415          	3.575
MS.798         	7.4            	3.575
MS.799         	7.385          	3.555
MS.800         	7.37           	3.734
MS.801         	7.355          	3.561
MS.802         	7.34           	3.775
MS.803         	7.325          	3.593
MS.804         	7.31           	3.337
MS.805         	7.295          	3.303
MS.806         	7.282          	3.315
MS.807         	7.267          	3.609
MS.808         	7.253          	3.356
MS.809         	7.237          	3.702
MS.810         	7.222          	3.664
MS.811         	7.21           	3.388
MS.812         	7.195          	3.573
MS.813         	7.18           	3.366
MS.814         	7.165          	3.702
MS.815         	7.152          	3.63
MS.816         	7.137          	3.66
MS.817         	7.122          	3.404
MS.818         	7.11           	3.394
MS.819         	7.095          	3.376
MS.820         	7.08           	3.573
MS.821         	7.067          	3.337
MS.822         	7.052          	3.354
MS.823         	7.037          	3.281
MS.824         	7.025          	3.313
MS.825         	7.01           	3.337
MS.826         	6.995          	3.265
MS.827         	6.983          	3.259
MS.828         	6.967          	3.273
MS.829         	6.955          	3.192
MS.830         	6.94           	3.243
MS.831         	6.927          	3.323
MS.832         	6.912          	3.335
MS.833         	6.9            	3.257
MS.834         	6.885          	3.194
MS.835         	6.87           	2.987
MS.836         	6.858          	3.211
MS.837         	6.845          	3.186
MS.838         	6.83           	3.271
MS.839         	6.817          	2.997
MS.840         	6.802          	2.927
MS.841         	6.79           	2.971
MS.842         	6.775          	3.08
MS.843         	6.762          	2.929
MS.844         	6.747          	2.896
MS.845         	6.735          	3.086
MS.846         	6.722          	2.808
MS.847         	6.707          	2.89
MS.848         	6.695          	2.836
MS.849         	6.682          	2.917
MS.850         	6.668          	2.902
MS.851         	6.655          	2.921
MS.852         	6.642          	2.9
MS.853         	6.628          	2.828
MS.854         	6.615          	2.898
MS.855         	6.602          	2.798
MS.856         	6.587          	2.82
MS.857         	6.575          	2.812
MS.858         	6.562          	2.834
MS.859         	6.55           	2.838
MS.860         	6.535          	2.838
MS.861         	6.523          	2.814
MS.862         	6.51           	2.788
MS.863         	6.497          	2.769
MS.864         	6.485          	2.792
MS.865         	6.47           	2.755
MS.866         	6.457          	2.767
MS.867         	6.445          	2.784
MS.868         	6.432          	2.61
MS.869         	6.42           	2.761
MS.870         	6.407          	2.568
MS.871         	6.395          	2.6
MS.872         	6.38           	2.633
MS.873         	6.367          	2.427
MS.874         	6.355          	2.483
MS.875         	6.342          	2.385
MS.876         	6.33           	2.494
MS.877         	6.317          	2.471
MS.878         	6.305          	2.538
MS.879         	6.293          	2.338
MS.880         	6.28           	2.691
MS.881         	6.267          	2.461
MS.882         	6.255          	2.582
MS.883         	6.242          	2.32
MS.884         	6.23           	2.054
MS.885         	6.217          	2.246
MS.886         	6.205          	2.395
MS.887         	6.192          	2.167
MS.888         	6.18           	2.008
MS.889         	6.168          	2.395
MS.890         	6.155          	2.077
MS.891         	6.142          	2.216
MS.892         	6.13           	2.012
MS.893         	6.117          	2.058
MS.894         	6.108          	2.091
MS.895         	6.095          	1.994
MS.896         	6.082          	2.292
MS.897         	6.07           	2.028
MS.898         	6.057          	2.141
MS.899         	6.045          	1.968
MS.900         	6.032          	2.123
MS.901         	6.023          	2.016
MS.902         	6.01           	1.917
MS.903         	5.997          	1.976
MS.904         	5.985          	2.026
MS.905         	5.972          	2.058
MS.906         	5.963          	1.901
MS.907         	5.95           	1.873
MS.908         	5.938          	1.835
MS.909         	5.925          	1.843
MS.910         	5.915          	1.932
MS.911         	5.902          	1.881
MS.912         	5.89           	1.841
MS.913         	5.878          	1.76
MS.914         	5.867          	1.799
MS.915         	5.855          	1.67
MS.916         	5.842          	1.768
MS.917         	5.832          	1.807
MS.918         	5.82           	1.714
MS.919         	5.807          	1.787
MS.920         	5.797          	1.69
MS.921         	5.785          	1.779
MS.922         	5.775          	1.744
MS.923         	5.762          	1.662
MS.924         	5.75           	1.644
MS.925         	5.74           	1.531
MS.926         	5.727          	1.549
MS.927         	5.717          	1.529
MS.928         	5.705          	1.515
MS.929         	5.692          	1.41
MS.930         	5.682          	1.597
MS.931         	5.67           	1.432
MS.932         	5.66           	1.601
MS.933         	5.648          	1.46
MS.934         	5.637          	1.376
MS.935         	5.625          	1.444
MS.936         	5.615          	1.499
MS.937         	5.602          	1.499
MS.938         	5.592          	1.468
MS.939         	5.58           	1.311
MS.940         	5.57           	1.448
MS.941         	5.557          	1.362
MS.942         	5.547          	1.356
MS.943         	5.537          	1.303
MS.944         	5.525          	1.255
MS.945         	5.515          	1.299
MS.946         	5.503          	1.307
MS.947         	5.492          	1.337
MS.948         	5.483          	1.233
MS.949         	5.47           	1.323
MS.950         	5.46           	1.323
MS.951         	5.447          	1.249
MS.952         	5.438          	1.323
MS.953         	5.427          	1.229
MS.954         	5.415          	1.325
MS.955         	5.405          	1.217
MS.956         	5.395          	1.243
MS.957         	5.382          	1.194
MS.958         	5.372          	1.243
MS.959         	5.362          	1.114
MS.960         	5.352          	1.213
MS.961         	5.34           	1.168
MS.962         	5.33           	1.146
MS.963         	5.32           	1.275
MS.964         	5.307          	1.158
MS.965         	5.297          	1.116
MS.966         	5.287          	1.11
MS.967         	5.277          	1.196
MS.968         	5.267          	1.172
MS.969         	5.255          	1.092
MS.970         	5.245          	1.132
MS.971         	5.235          	1.068
MS.972         	5.225          	1.053
MS.973         	5.215          	1.045
MS.974         	5.202          	1.029
MS.975         	5.193          	0.999
MS.976         	5.182          	1.08
MS.977         	5.172          	1.041
MS.978         	5.162          	1.126
MS.979         	5.152          	0.993
MS.980         	5.142          	1.013
MS.981         	5.13           	1.017
MS.982         	5.12           	1.031
MS.983         	5.11           	0.89
MS.984         	5.1            	0.979
MS.985         	5.09           	0.965
MS.986         	5.08           	0.91
MS.987         	5.07           	0.975
MS.988         	5.06           	0.84
MS.989         	5.05           	0.852
MS.990         	5.04           	0.844
MS.991         	5.03           	0.981
MS.992         	5.02           	0.749
MS.993         	5.01           	0.715
MS.994         	5              	0.816
MS.995         	4.99           	0.729
MS.996         	4.98           	0.745
MS.997         	4.97           	0.725
MS.998         	4.96           	0.792
MS.999         	4.95           	0.632
MS.1000        	4.94           	0.703
MS.1001        	4.93           	0.711
MS.1002        	4.92           	0.685
MS.1003        	4.91           	0.653
MS.1004        	4.9            	0.566
MS.1005        	4.89           	0.614
MS.1006        	4.88           	0.6
MS.1007        	4.87           	0.58
MS.1008        	4.862          	0.594
MS.1009        	4.852          	0.653
MS.1010        	4.842          	0.594
MS.1011        	4.832          	0.598
MS.1012        	4.822          	0.618
MS.1013        	4.812          	0.55
MS.1014        	4.802          	0.552
MS.1015        	4.795          	0.681
MS.1016        	4.785          	0.608
MS.1017        	4.775          	0.53
MS.1018        	4.765          	0.546
MS.1019        	4.755          	0.618
MS.1020        	4.745          	0.534
MS.1021        	4.737          	0.518
MS.1022        	4.727          	0.57
MS.1023        	4.717          	0.512
MS.1024        	4.707          	0.532
MS.1025        	4.7            	0.52
MS.1026        	4.69           	0.455
MS.1027        	4.68           	0.526
MS.1028        	4.67           	0.53
MS.1029        	4.662          	0.52
MS.1030        	4.652          	0.491
MS.1031        	4.642          	0.506
MS.1032        	4.632          	0.431
MS.1033        	4.625          	0.461
MS.1034        	4.615          	0.512
MS.1035        	4.605          	0.497
MS.1036        	4.597          	0.485
MS.1037        	4.588          	0.502
MS.1038        	4.577          	0.455
MS.1039        	4.57           	0.439
MS.1040        	4.56           	0.477
MS.1041        	4.55           	0.435
MS.1042        	4.543          	0.411
MS.1043        	4.532          	0.493
MS.1044        	4.525          	0.435
MS.1045        	4.515          	0.461
MS.1046        	4.505          	0.427
MS.1047        	4.497          	0.481
MS.1048        	4.487          	0.375
MS.1049        	4.477          	0.425
MS.1050        	4.47           	0.348
MS.1051        	4.46           	0.431
MS.1052        	4.452          	0.354
MS.1053        	4.443          	0.354
MS.1054        	4.435          	0.332
MS.1055        	4.425          	0.421
MS.1056        	4.418          	0.342
MS.1057        	4.407          	0.361
MS.1058        	4.4            	0.216
MS.1059        	4.39           	0.433
MS.1060        	4.382          	0.332
MS.1061        	4.372          	0.322
MS.1062        	4.365          	0.177
MS.1063        	4.355          	0.334
MS.1064        	4.347          	0.163
MS.1065        	4.338          	0.32
MS.1066        	4.33           	0.165
MS.1067        	4.32           	0.155
MS.1068        	4.312          	0.244
MS.1069        	4.302          	0.163
MS.1070        	4.295          	0.163
MS.1071        	4.285          	0.153
MS.1072        	4.277          	0.157
MS.1073        	4.27           	0.159
MS.1074        	4.26           	0.167
MS.1075        	4.253          	0.155
MS.1076        	4.242          	0.163
MS.1077        	4.235          	0.149
MS.1078        	4.227          	0.149
MS.1079        	4.217          	0.143
MS.1080        	4.21           	0.161
MS.1081        	4.2            	0.157
MS.1082        	4.193          	0.143
MS.1083        	4.185          	0.157
MS.1084        	4.175          	0.139
MS.1085        	4.168          	0.151
MS.1086        	4.16           	0.139
MS.1087        	4.15           	0.175
MS.1088        	4.142          	0.153
MS.1089        	4.135          	0.125
MS.1090        	4.125          	0.115
MS.1091        	4.117          	0.149
MS.1092        	4.11           	0.129
MS.1093        	4.102          	0.171
MS.1094        	4.092          	0.167
MS.1095        	4.085          	0.163
MS.1096        	4.077          	0.159
MS.1097        	4.07           	0.161
MS.1098        	4.06           	0.189
MS.1099        	4.052          	0.155
MS.1100        	4.045          	0.123
MS.1101        	4.037          	0.161
MS.1102        	4.027          	0.133
MS.1103        	4.02           	0.123
MS.1104        	4.012          	0.155
MS.1105        	4.005          	0.093
MS.1106        	3.995          	0.131
MS.1107        	3.987          	0.129
MS.1108        	3.98           	0.111
MS.1109        	3.972          	0.117
MS.1110        	3.965          	0.159
MS.1111        	3.957          	0.117
MS.1112        	3.947          	0.103
MS.1113        	3.94           	0.125
MS.1114        	3.932          	0.153
MS.1115        	3.925          	0.095
MS.1116        	3.918          	0.103
MS.1117        	3.91           	0.087
MS.1118        	3.902          	0.097
MS.1119        	3.892          	0.113
MS.1120        	3.885          	0.103
MS.1121        	3.877          	0.075
MS.1122        	3.87           	0.113
MS.1123        	3.862          	0.103
MS.1124        	3.855          	0.103
MS.1125        	3.847          	0.097
MS.1126        	3.84           	0.103
MS.1127        	3.832          	0.103
MS.1128        	3.825          	0.097
MS.1129        	3.817          	0.095
MS.1130        	3.81           	0.099
MS.1131        	3.803          	0.119
MS.1132        	3.793          	0.109
MS.1133        	3.785          	0.101
MS.1134        	3.777          	0.093
MS.1135        	3.77           	0.093
MS.1136        	3.762          	0.099
MS.1137        	3.755          	0.115
MS.1138        	3.747          	0.095
MS.1139        	3.74           	0.103
MS.1140        	3.732          	0.109
MS.1141        	3.725          	0.119
MS.1142        	3.717          	0.095
MS.1143        	3.71           	0.093
MS.1144        	3.702          	0.091
MS.1145        	3.697          	0.107
MS.1146        	3.69           	0.099
MS.1147        	3.682          	0.113
MS.1148        	3.675          	0.099
MS.1149        	3.668          	0.107
MS.1150        	3.66           	0.107
MS.1151        	3.652          	0.103
MS.1152        	3.645          	0.101
MS.1153        	3.637          	0.101
MS.1154        	3.63           	0.097
MS.1155        	3.622          	0.095
MS.1156        	3.615          	0.089
MS.1157        	3.607          	0.103
MS.1158        	3.602          	0.089
MS.1159        	3.595          	0.085
MS.1160        	3.587          	0.101
MS.1161        	3.58           	0.087
MS.1162        	3.572          	0.101
MS.1163        	3.565          	0.109
MS.1164        	3.557          	0.095
MS.1165        	3.553          	0.103
MS.1166        	3.545          	0.103
MS.1167        	3.537          	0.095
MS.1168        	3.53           	0.095
MS.1169        	3.523          	0.111
MS.1170        	3.515          	0.091
MS.1171        	3.51           	0.097
MS.1172        	3.502          	0.087
MS.1173        	3.495          	0.101
MS.1174        	3.487          	0.091
MS.1175        	3.48           	0.097
MS.1176        	3.475          	0.085
MS.1177        	3.467          	0.095
MS.1178        	3.46           	0.087
MS.1179        	3.452          	0.087
MS.1180        	3.447          	0.095
MS.1181        	3.44           	0.101
MS.1182        	3.432          	0.087
MS.1183        	3.425          	0.113
MS.1184        	3.42           	0.097
MS.1185        	3.412          	0.105
MS.1186        	3.405          	0.083
MS.1187        	3.398          	0.091
MS.1188        	3.392          	0.109
MS.1189        	3.385          	0.087
MS.1190        	3.377          	0.101
MS.1191        	3.372          	0.095
MS.1192        	3.365          	0.093
MS.1193        	3.357          	0.087
MS.1194        	3.352          	0.093
MS.1195        	3.345          	0.068
MS.1196        	3.337          	0.091
MS.1197        	3.33           	0.099
MS.1198        	3.325          	0.083
MS.1199        	3.317          	0.095
MS.1200        	3.312          	0.111
MS.1201        	3.305          	0.115
MS.1202        	3.297          	0.087
DERIVED EXCITABILITY VARIABLES
Program = QTracP 3/4/2020
Threshold method = 6 (optimised for CAP, using data for present condition only)
SR method = 1 (using actual data values)
6.                 	0.000               	Peak response\(mV)
9.                 	35                  	Temperature ( C)
17.                	41                  	Age (years)
18.                	1                   	Sex (M=1, F=2)

EXTRA VARIABLES

MScPeak(mV) = 7.97
MScS5(mA) = 4.44
MScS50(mA) = 8.6
MScS95(mA) = 17.55
MScNSteps = 0
MScSteps(%) = 0.0
MScStepMax(%) = 0.0
MScD50 = 123
MScSlope = 1.39
MSFPeakAmp(mV) = 7.93
MSFNUnits = 154
MSFMeanUnitAmp(uV) = 51.5
MSFHuntTime(m) = 5.73
MSFError(%) = 2.23
MSFNLarge = 46.66
MSFMedianAmp(%) = 0.542
MSFMedianAmp(mV) = 0.043
MSFHalfAmpAmp(%) = 0.698
MSFHalfAmpAmp(mV) = 0.0553
MSFLargestAmp(%) = 2.28
MSFLargestAmp(mV) = 0.18
MSFMeanRS(%) = 2.01
MSFOpts = 10106121
MScDuration(min) = 11.6
MSFTraces = 1155
MSFSizeLimit(uV) = 19.8
MSFLimitType = 1
MSFSmallestAmp(uV) = 20.3

EXTRA WAVEFORMS


!MScan Model
!154
	1	4.01	0.52	2
	2	4.31	0.77	2
	3	4.36	0.7	2
	4	4.43	1.25	2
	5	4.49	0.86	2
	6	4.58	0.71	2
	7	4.68	0.55	2
	8	4.74	0.43	2
	9	4.86	0.92	2
	10	4.91	0.46	2
	11	4.93	0.32	2
	12	4.96	0.51	2
	13	4.98	0.53	2
	14	5.01	0.54	2
	15	5.03	0.38	2
	16	5.05	0.42	2
	17	5.08	0.91	2
	18	5.13	0.72	2
	19	5.18	0.54	2
	20	5.22	0.61	2
	21	5.25	0.29	2
	22	5.33	0.84	2
	23	5.37	0.48	2
	24	5.41	0.4	2
	25	5.48	0.64	2
	26	5.51	0.33	2
	27	5.54	0.52	2
	28	5.58	0.37	2
	29	5.66	1.17	2
	30	5.69	0.61	2
	31	5.71	0.33	2
	32	5.73	0.43	2
	33	5.75	0.32	2
	34	5.76	0.4	2
	35	5.79	0.56	2
	36	5.82	0.57	2
	37	5.88	0.89	2
	38	5.9	0.31	2
	39	5.93	0.5	2
	40	5.97	0.86	2
	41	6.03	1.17	2
	42	6.17	2.17	2
	43	6.24	1.76	2
	44	6.34	2.28	2
	45	6.38	0.8	2
	46	6.41	0.5	2
	47	6.44	0.63	2
	48	6.46	0.65	2
	49	6.49	0.31	2
	50	6.52	0.61	2
	51	6.64	0.73	2
	52	6.71	0.77	2
	53	6.75	0.76	2
	54	6.79	0.65	2
	55	6.83	0.89	2
	56	6.88	0.86	2
	57	6.96	1.14	2
	58	7.01	0.68	2
	59	7.07	1.24	2
	60	7.19	1.91	2
	61	7.54	1.56	2.4
	62	7.79	1	2
	63	8	0.61	2
	64	8.31	0.47	2
	65	8.4	0.42	2
	66	8.45	0.43	2
	67	8.52	0.41	2
	68	8.59	0.42	2
	69	8.7	0.61	2
	70	8.81	0.63	2
	71	8.94	0.66	2
	72	9.09	0.85	2
	73	9.21	0.54	2
	74	9.27	0.44	2
	75	9.37	0.73	2
	76	9.6	1.1	2
	77	9.66	0.74	2
	78	9.78	1	2
	79	9.9	1.61	2
	80	9.97	0.53	2
	81	10.04	0.83	2
	82	10.1	0.64	2
	83	10.17	0.36	2
	84	10.35	0.92	2
	85	10.52	0.51	2.2
	86	10.57	0.26	2
	87	10.62	0.36	2
	88	10.65	0.31	2
	89	10.69	0.56	2
	90	10.75	0.57	2
	91	10.8	0.47	2
	92	11.02	1.43	2
	93	11.08	0.45	2
	94	11.15	0.52	2
	95	11.22	0.33	2
	96	11.32	0.69	2
	97	11.4	0.37	2
	98	11.47	0.47	2
	99	11.5	0.3	2
	100	11.54	0.44	2
	101	11.58	0.39	2
	102	11.62	0.4	2
	103	11.67	0.41	2
	104	11.73	0.62	2
	105	11.79	0.72	2
	106	11.87	0.6	2
	107	11.95	0.66	2
	108	12.02	0.47	2
	109	12.19	0.98	2
	110	12.27	0.33	2
	111	12.4	0.58	2
	112	12.47	0.35	2
	113	12.53	0.37	2
	114	12.62	0.41	2
	115	12.66	0.27	2
	116	12.74	0.49	2
	117	12.78	0.26	2
	118	12.83	0.39	2
	119	12.89	0.43	2
	120	13.03	0.59	2
	121	13.22	0.64	2
	122	13.32	0.26	2
	123	13.43	0.48	2
	124	13.57	0.43	2
	125	13.68	0.33	2
	126	13.87	0.61	2
	127	14.04	0.43	2
	128	14.29	0.77	2
	129	14.49	0.8	2
	130	14.9	1.15	2
	131	15	0.29	2
	132	15.12	0.44	2
	133	15.34	0.52	2
	134	15.59	0.51	2
	135	15.92	0.94	2
	136	16.09	0.55	2
	137	16.22	0.59	2
	138	16.41	1.11	2
	139	16.74	1.59	2
	140	17.19	1.62	2
	141	17.48	0.97	2
	142	17.6	0.29	2
	143	17.74	0.32	2
	144	17.9	0.26	2
	145	18.63	0.76	2
	146	21.51	0.61	2
	147	22.1	0.34	2
	148	26.03	0.51	2
	149	27.84	0.56	2
	150	29.01	0.31	2
	151	29.56	0.53	2
	152	30.94	0.49	2
	153	31.65	0.36	2
	154	32.36	0.42	2

