File:              	C:\Qtrac\Data\Daniel M Sørensen\MScan multicentre study\Data from centres\Oslo\Processed data\SZC00619C (2).QZD
Name:              	NO.OSL.NC.17.2
Protocol:          	MSCAN-R2
Date:              	19/6/20
Start time:        	13:28:16
Age:               	52
Sex:               	F
Temperature:       	32.6
S/R sites:         	TA
NC/disease:        	NC17
Operator:          	SZ
Comments:          	Test2
M-SCAN DATA (7.7-2.4m)
Scanpts: 90, 103, 551, 571
Stim. (mA)     	Amp. (mV)
MS.1           	24             	8.351
MS.2           	24             	8.433
MS.3           	24             	8.445
MS.4           	24             	8.397
MS.5           	24             	8.349
MS.6           	24             	8.369
MS.7           	24             	8.377
MS.8           	24             	8.383
MS.9           	24             	8.375
MS.10          	24             	8.353
MS.11          	24             	8.359
MS.12          	24             	8.371
MS.13          	24             	8.367
MS.14          	24             	8.353
MS.15          	24             	8.375
MS.16          	24             	8.413
MS.17          	24             	8.397
MS.18          	24             	8.365
MS.19          	24             	8.383
MS.20          	24             	8.369
MS.21          	24             	8.381
MS.22          	24             	8.409
MS.23          	24             	8.393
MS.24          	23.905         	8.389
MS.25          	23.858         	8.417
MS.26          	23.807         	8.355
MS.27          	23.76          	8.383
MS.28          	23.712         	8.351
MS.29          	23.665         	8.351
MS.30          	23.62          	8.343
MS.31          	23.573         	8.375
MS.32          	23.525         	8.339
MS.33          	23.477         	8.333
MS.34          	23.43          	8.327
MS.35          	23.385         	8.318
MS.36          	23.337         	8.312
MS.37          	23.29          	8.345
MS.38          	23.245         	8.359
MS.39          	23.198         	8.325
MS.40          	23.153         	8.333
MS.41          	23.105         	8.318
MS.42          	23.06          	8.341
MS.43          	23.012         	8.302
MS.44          	22.967         	8.3
MS.45          	22.92          	8.304
MS.46          	22.875         	8.306
MS.47          	22.83          	8.298
MS.48          	22.785         	8.325
MS.49          	22.737         	8.349
MS.50          	22.692         	8.308
MS.51          	22.647         	8.327
MS.52          	22.602         	8.331
MS.53          	22.557         	8.333
MS.54          	22.512         	8.331
MS.55          	22.467         	8.339
MS.56          	22.422         	8.314
MS.57          	22.377         	8.345
MS.58          	22.332         	8.351
MS.59          	22.288         	8.345
MS.60          	22.243         	8.335
MS.61          	22.2           	8.325
MS.62          	22.155         	8.278
MS.63          	22.11          	8.296
MS.64          	22.067         	8.333
MS.65          	22.022         	8.294
MS.66          	21.977         	8.32
MS.67          	21.935         	8.353
MS.68          	21.89          	8.329
MS.69          	21.847         	8.302
MS.70          	21.802         	8.29
MS.71          	21.76          	8.316
MS.72          	21.715         	8.318
MS.73          	21.672         	8.355
MS.74          	21.63          	8.31
MS.75          	21.585         	8.343
MS.76          	21.542         	8.327
MS.77          	21.5           	8.318
MS.78          	21.458         	8.341
MS.79          	21.415         	8.306
MS.80          	21.372         	8.304
MS.81          	21.327         	8.31
MS.82          	21.285         	8.323
MS.83          	21.243         	8.278
MS.84          	21.2           	8.298
MS.85          	21.157         	8.308
MS.86          	21.118         	8.288
MS.87          	21.075         	8.292
MS.88          	21.032         	8.27
MS.89          	20.99          	8.312
MS.90          	20.948         	8.296
MS.91          	20.907         	8.292
MS.92          	20.865         	8.288
MS.93          	20.823         	8.32
MS.94          	20.78          	8.296
MS.95          	20.74          	8.3
MS.96          	20.698         	8.288
MS.97          	20.657         	8.29
MS.98          	20.615         	8.296
MS.99          	20.575         	8.296
MS.100         	20.532         	8.296
MS.101         	20.493         	8.29
MS.102         	20.452         	8.284
MS.103         	20.41          	8.331
MS.104         	20.37          	8.284
MS.105         	20.33          	8.292
MS.106         	20.288         	8.304
MS.107         	20.247         	8.276
MS.108         	20.208         	8.28
MS.109         	20.167         	8.284
MS.110         	20.127         	8.296
MS.111         	20.087         	8.292
MS.112         	20.047         	8.32
MS.113         	20.007         	8.298
MS.114         	19.967         	8.298
MS.115         	19.927         	8.304
MS.116         	19.887         	8.224
MS.117         	19.847         	8.272
MS.118         	19.807         	8.31
MS.119         	19.767         	8.298
MS.120         	19.727         	8.28
MS.121         	19.69          	8.266
MS.122         	19.65          	8.175
MS.123         	19.61          	8.236
MS.124         	19.57          	8.246
MS.125         	19.532         	8.325
MS.126         	19.493         	8.226
MS.127         	19.455         	8.246
MS.128         	19.415         	8.246
MS.129         	19.377         	8.212
MS.130         	19.337         	8.212
MS.131         	19.3           	8.194
MS.132         	19.26          	8.298
MS.133         	19.222         	8.169
MS.134         	19.182         	8.214
MS.135         	19.145         	8.175
MS.136         	19.108         	8.224
MS.137         	19.067         	8.159
MS.138         	19.03          	8.204
MS.139         	18.993         	8.212
MS.140         	18.955         	8.188
MS.141         	18.917         	8.194
MS.142         	18.88          	8.151
MS.143         	18.842         	8.214
MS.144         	18.802         	8.111
MS.145         	18.765         	8.073
MS.146         	18.727         	8.169
MS.147         	18.69          	8.155
MS.148         	18.655         	8.163
MS.149         	18.618         	8.107
MS.150         	18.58          	8.113
MS.151         	18.542         	8.161
MS.152         	18.505         	8.091
MS.153         	18.467         	8.173
MS.154         	18.432         	8.175
MS.155         	18.395         	8.103
MS.156         	18.358         	8.053
MS.157         	18.32          	8.016
MS.158         	18.285         	8.073
MS.159         	18.247         	8.091
MS.160         	18.212         	8.077
MS.161         	18.175         	8.101
MS.162         	18.137         	8.121
MS.163         	18.102         	8.061
MS.164         	18.067         	8.091
MS.165         	18.03          	8.077
MS.166         	17.995         	8.085
MS.167         	17.958         	8.067
MS.168         	17.922         	7.964
MS.169         	17.887         	8.067
MS.170         	17.85          	7.988
MS.171         	17.815         	7.924
MS.172         	17.78          	7.924
MS.173         	17.745         	7.835
MS.174         	17.708         	7.924
MS.175         	17.672         	7.833
MS.176         	17.637         	7.837
MS.177         	17.602         	7.819
MS.178         	17.567         	7.873
MS.179         	17.532         	7.803
MS.180         	17.497         	7.831
MS.181         	17.462         	7.759
MS.182         	17.427         	7.714
MS.183         	17.392         	7.787
MS.184         	17.358         	7.799
MS.185         	17.323         	7.787
MS.186         	17.288         	7.791
MS.187         	17.255         	7.789
MS.188         	17.22          	7.803
MS.189         	17.185         	7.714
MS.190         	17.15          	7.688
MS.191         	17.118         	7.664
MS.192         	17.083         	7.746
MS.193         	17.047         	7.718
MS.194         	17.015         	7.618
MS.195         	16.98          	7.7
MS.196         	16.948         	7.696
MS.197         	16.913         	7.628
MS.198         	16.878         	7.575
MS.199         	16.845         	7.644
MS.200         	16.812         	7.607
MS.201         	16.778         	7.614
MS.202         	16.745         	7.529
MS.203         	16.71          	7.473
MS.204         	16.677         	7.537
MS.205         	16.645         	7.535
MS.206         	16.61          	7.523
MS.207         	16.577         	7.39
MS.208         	16.545         	7.398
MS.209         	16.512         	7.336
MS.210         	16.477         	7.279
MS.211         	16.445         	7.273
MS.212         	16.413         	7.309
MS.213         	16.38          	7.402
MS.214         	16.347         	7.394
MS.215         	16.315         	7.418
MS.216         	16.282         	7.334
MS.217         	16.25          	7.392
MS.218         	16.217         	7.309
MS.219         	16.185         	7.263
MS.220         	16.153         	7.213
MS.221         	16.12          	7.128
MS.222         	16.087         	7.166
MS.223         	16.055         	7.003
MS.224         	16.022         	7.023
MS.225         	15.992         	6.943
MS.226         	15.96          	6.949
MS.227         	15.927         	7.017
MS.228         	15.895         	6.969
MS.229         	15.865         	6.802
MS.230         	15.832         	7.017
MS.231         	15.8           	6.743
MS.232         	15.77          	6.872
MS.233         	15.737         	6.796
MS.234         	15.705         	6.83
MS.235         	15.675         	6.717
MS.236         	15.642         	6.691
MS.237         	15.612         	6.689
MS.238         	15.58          	6.608
MS.239         	15.55          	6.681
MS.240         	15.52          	6.669
MS.241         	15.487         	6.655
MS.242         	15.457         	6.496
MS.243         	15.425         	6.631
MS.244         	15.395         	6.508
MS.245         	15.365         	6.423
MS.246         	15.332         	6.474
MS.247         	15.302         	6.353
MS.248         	15.273         	6.455
MS.249         	15.242         	6.429
MS.250         	15.212         	6.345
MS.251         	15.18          	6.278
MS.252         	15.15          	6.244
MS.253         	15.12          	6.347
MS.254         	15.09          	6.316
MS.255         	15.06          	6.272
MS.256         	15.03          	6.069
MS.257         	15             	6.177
MS.258         	14.97          	6.109
MS.259         	14.94          	5.978
MS.260         	14.91          	6.133
MS.261         	14.88          	6.089
MS.262         	14.85          	6
MS.263         	14.82          	5.966
MS.264         	14.792         	6.006
MS.265         	14.762         	5.948
MS.266         	14.733         	5.996
MS.267         	14.702         	6.083
MS.268         	14.672         	5.893
MS.269         	14.645         	5.891
MS.270         	14.615         	5.916
MS.271         	14.585         	5.877
MS.272         	14.557         	5.988
MS.273         	14.527         	5.881
MS.274         	14.497         	5.873
MS.275         	14.47          	5.859
MS.276         	14.44          	5.849
MS.277         	14.412         	5.984
MS.278         	14.382         	5.849
MS.279         	14.355         	5.807
MS.280         	14.325         	5.797
MS.281         	14.297         	5.754
MS.282         	14.267         	5.746
MS.283         	14.24          	5.821
MS.284         	14.212         	5.728
MS.285         	14.182         	5.769
MS.286         	14.155         	5.746
MS.287         	14.127         	5.724
MS.288         	14.097         	5.712
MS.289         	14.07          	5.605
MS.290         	14.042         	5.597
MS.291         	14.015         	5.642
MS.292         	13.985         	5.617
MS.293         	13.957         	5.541
MS.294         	13.93          	5.46
MS.295         	13.903         	5.626
MS.296         	13.875         	5.541
MS.297         	13.847         	5.533
MS.298         	13.82          	5.537
MS.299         	13.792         	5.535
MS.300         	13.765         	5.541
MS.301         	13.737         	5.362
MS.302         	13.71          	5.529
MS.303         	13.682         	5.452
MS.304         	13.655         	5.539
MS.305         	13.627         	5.422
MS.306         	13.6           	5.317
MS.307         	13.572         	5.374
MS.308         	13.545         	5.372
MS.309         	13.517         	5.474
MS.310         	13.492         	5.241
MS.311         	13.465         	5.388
MS.312         	13.438         	5.331
MS.313         	13.41          	5.225
MS.314         	13.385         	5.319
MS.315         	13.358         	5.293
MS.316         	13.33          	5.243
MS.317         	13.305         	5.309
MS.318         	13.278         	5.253
MS.319         	13.25          	5.241
MS.320         	13.225         	5.148
MS.321         	13.197         	5.066
MS.322         	13.172         	5.076
MS.323         	13.145         	5.094
MS.324         	13.12          	5.096
MS.325         	13.092         	5.128
MS.326         	13.068         	5.049
MS.327         	13.04          	4.931
MS.328         	13.015         	5.031
MS.329         	12.987         	4.929
MS.330         	12.962         	4.969
MS.331         	12.938         	4.876
MS.332         	12.91          	4.904
MS.333         	12.885         	4.828
MS.334         	12.86          	4.959
MS.335         	12.832         	4.904
MS.336         	12.807         	4.836
MS.337         	12.782         	4.858
MS.338         	12.757         	4.842
MS.339         	12.73          	4.79
MS.340         	12.705         	4.768
MS.341         	12.68          	4.691
MS.342         	12.655         	4.695
MS.343         	12.63          	4.729
MS.344         	12.605         	4.584
MS.345         	12.58          	4.463
MS.346         	12.555         	4.645
MS.347         	12.53          	4.294
MS.348         	12.505         	4.341
MS.349         	12.48          	4.389
MS.350         	12.455         	4.218
MS.351         	12.43          	4.177
MS.352         	12.405         	4.107
MS.353         	12.38          	4.147
MS.354         	12.355         	4.044
MS.355         	12.33          	4.117
MS.356         	12.305         	4.173
MS.357         	12.28          	4.105
MS.358         	12.257         	3.922
MS.359         	12.233         	3.92
MS.360         	12.207         	3.875
MS.361         	12.182         	3.581
MS.362         	12.16          	3.658
MS.363         	12.135         	3.835
MS.364         	12.11          	3.901
MS.365         	12.085         	3.779
MS.366         	12.062         	3.752
MS.367         	12.037         	3.664
MS.368         	12.012         	3.599
MS.369         	11.99          	3.654
MS.370         	11.965         	3.559
MS.371         	11.943         	3.533
MS.372         	11.917         	3.474
MS.373         	11.895         	3.551
MS.374         	11.87          	3.301
MS.375         	11.847         	3.215
MS.376         	11.822         	3.257
MS.377         	11.8           	3.194
MS.378         	11.775         	3.084
MS.379         	11.752         	2.917
MS.380         	11.73          	3.172
MS.381         	11.705         	2.812
MS.382         	11.682         	3.043
MS.383         	11.657         	2.691
MS.384         	11.635         	2.884
MS.385         	11.613         	2.578
MS.386         	11.59          	2.685
MS.387         	11.565         	2.56
MS.388         	11.542         	2.55
MS.389         	11.52          	2.641
MS.390         	11.497         	2.518
MS.391         	11.472         	2.641
MS.392         	11.45          	2.292
MS.393         	11.427         	2.173
MS.394         	11.405         	2.288
MS.395         	11.382         	1.909
MS.396         	11.36          	2.411
MS.397         	11.337         	2.141
MS.398         	11.315         	2.038
MS.399         	11.292         	2.177
MS.400         	11.27          	1.791
MS.401         	11.247         	2.161
MS.402         	11.225         	1.835
MS.403         	11.202         	1.915
MS.404         	11.18          	1.94
MS.405         	11.157         	1.95
MS.406         	11.135         	1.861
MS.407         	11.113         	1.77
MS.408         	11.09          	1.756
MS.409         	11.068         	1.702
MS.410         	11.045         	1.845
MS.411         	11.023         	1.654
MS.412         	11.002         	1.537
MS.413         	10.98          	1.811
MS.414         	10.957         	1.648
MS.415         	10.935         	1.66
MS.416         	10.915         	1.668
MS.417         	10.892         	1.555
MS.418         	10.87          	1.593
MS.419         	10.85          	1.656
MS.420         	10.827         	1.629
MS.421         	10.805         	1.535
MS.422         	10.785         	1.631
MS.423         	10.762         	1.507
MS.424         	10.74          	1.631
MS.425         	10.72          	1.44
MS.426         	10.698         	1.573
MS.427         	10.677         	1.513
MS.428         	10.655         	1.503
MS.429         	10.635         	1.396
MS.430         	10.613         	1.402
MS.431         	10.592         	1.283
MS.432         	10.57          	1.343
MS.433         	10.55          	1.424
MS.434         	10.528         	1.404
MS.435         	10.507         	1.446
MS.436         	10.485         	1.273
MS.437         	10.465         	1.257
MS.438         	10.445         	1.237
MS.439         	10.422         	1.14
MS.440         	10.403         	1.146
MS.441         	10.382         	1.124
MS.442         	10.36          	1.208
MS.443         	10.34          	1.14
MS.444         	10.32          	1.186
MS.445         	10.3           	1.124
MS.446         	10.278         	0.959
MS.447         	10.257         	1.235
MS.448         	10.238         	1.074
MS.449         	10.217         	0.971
MS.450         	10.198         	0.957
MS.451         	10.175         	1.148
MS.452         	10.155         	0.939
MS.453         	10.135         	0.912
MS.454         	10.115         	1.045
MS.455         	10.095         	0.983
MS.456         	10.075         	0.786
MS.457         	10.055         	0.719
MS.458         	10.035         	0.669
MS.459         	10.015         	0.927
MS.460         	9.995          	0.826
MS.461         	9.975          	0.904
MS.462         	9.955          	0.753
MS.463         	9.935          	0.753
MS.464         	9.915          	0.705
MS.465         	9.895          	0.699
MS.466         	9.875          	0.649
MS.467         	9.855          	0.552
MS.468         	9.835          	0.777
MS.469         	9.818          	0.661
MS.470         	9.797          	0.568
MS.471         	9.778          	0.677
MS.472         	9.757          	0.522
MS.473         	9.738          	0.622
MS.474         	9.717          	0.614
MS.475         	9.7            	0.661
MS.476         	9.68           	0.546
MS.477         	9.66           	0.421
MS.478         	9.64           	0.284
MS.479         	9.622          	0.35
MS.480         	9.602          	0.266
MS.481         	9.582          	0.316
MS.482         	9.565          	0.316
MS.483         	9.545          	0.33
MS.484         	9.525          	0.218
MS.485         	9.507          	0.34
MS.486         	9.488          	0.397
MS.487         	9.47           	0.328
MS.488         	9.45           	0.167
MS.489         	9.432          	0.218
MS.490         	9.412          	0.296
MS.491         	9.395          	0.228
MS.492         	9.375          	0.131
MS.493         	9.358          	0.254
MS.494         	9.337          	0.169
MS.495         	9.32           	0.175
MS.496         	9.3            	0.093
MS.497         	9.283          	0.068
MS.498         	9.262          	0.042
MS.499         	9.245          	0.087
MS.500         	9.225          	0.109
MS.501         	9.207          	0.056
MS.502         	9.19           	0.143
MS.503         	9.17           	0.058
MS.504         	9.153          	0.058
MS.505         	9.135          	0.052
MS.506         	9.115          	0.034
MS.507         	9.097          	0.022
MS.508         	9.08           	0.056
MS.509         	9.062          	-0.002
MS.510         	9.042          	0.016
MS.511         	9.025          	0.03
MS.512         	9.007          	0.077
MS.513         	8.99           	-0.036
MS.514         	8.972          	-0.026
MS.515         	8.952          	-0.038
MS.516         	8.935          	-0.058
MS.517         	8.917          	0.02
MS.518         	8.9            	-0.044
MS.519         	8.882          	-0.004
MS.520         	8.865          	-0.026
MS.521         	8.847          	-0.042
MS.522         	8.83           	-0.056
MS.523         	8.812          	-0.034
MS.524         	8.795          	-0.03
MS.525         	8.778          	-0.036
MS.526         	8.757          	-0.028
MS.527         	8.74           	-0.054
MS.528         	8.725          	-0.052
MS.529         	8.707          	-0.042
MS.530         	8.69           	-0.05
MS.531         	8.672          	-0.048
MS.532         	8.655          	-0.038
MS.533         	8.637          	-0.048
MS.534         	8.62           	-0.03
MS.535         	8.602          	-0.048
MS.536         	8.585          	-0.048
MS.537         	8.568          	-0.058
MS.538         	8.55           	-0.058
MS.539         	8.535          	-0.048
MS.540         	8.517          	-0.052
MS.541         	8.5            	-0.044
MS.542         	8.483          	-0.046
MS.543         	8.465          	-0.046
MS.544         	8.45           	-0.054
MS.545         	8.432          	-0.046
MS.546         	8.415          	-0.048
MS.547         	8.398          	-0.05
MS.548         	8.382          	-0.052
MS.549         	8.365          	-0.05
MS.550         	8.347          	-0.056
MS.551         	8.332          	-0.042
MS.552         	8.315          	-0.042
MS.553         	8.297          	-0.058
MS.554         	8.283          	-0.046
MS.555         	8.265          	-0.052
MS.556         	8.247          	-0.048
MS.557         	8.233          	-0.052
MS.558         	8.215          	-0.044
MS.559         	8.2            	-0.046
MS.560         	8.182          	-0.046
MS.561         	8.167          	-0.044
MS.562         	8.15           	-0.044
MS.563         	8.135          	-0.044
MS.564         	8.117          	-0.054
MS.565         	8.102          	-0.048
MS.566         	8.085          	-0.044
MS.567         	8.07           	-0.052
MS.568         	8.052          	-0.05
MS.569         	8.037          	-0.048
MS.570         	8.02           	-0.04
MS.571         	8.005          	-0.046
DERIVED EXCITABILITY VARIABLES
Program = QTracP 3/4/2020
Threshold method = 6 (optimised for CAP, using data for present condition only)
SR method = 1 (using actual data values)
6.                 	0.000               	Peak response\(mV)
9.                 	32.6                	Temperature ( C)
17.                	52                  	Age (years)
18.                	2                   	Sex (M=1, F=2)

EXTRA VARIABLES

MScPeak(mV) = 8.43
MScS5(mA) = 9.66
MScS50(mA) = 12.45
MScS95(mA) = 17.9
MScNSteps = 1
MScSteps(%) = 2.1
MScStepMax(%) = 2.1
MScD50 = 62
MScSlope = 3.25
MSFPeakAmp(mV) = 8.34
MSFNUnits = 164
MSFMeanUnitAmp(uV) = 50.9
MSFHuntTime(m) = 2.76
MSFError(%) = 3.14
MSFNLarge = 45.27
MSFMedianAmp(%) = 0.495
MSFMedianAmp(mV) = 0.0413
MSFHalfAmpAmp(%) = 0.617
MSFHalfAmpAmp(mV) = 0.0515
MSFLargestAmp(%) = 2.75
MSFLargestAmp(mV) = 0.229
MSFMeanRS(%) = 2
MSFOpts = 10106121
MScDuration(min) = 5.3
MSFTraces = 482
MSFSizeLimit(uV) = 20.9
MSFLimitType = 1
MSFSmallestAmp(uV) = 21.1

EXTRA WAVEFORMS


!MScan Model
!164
	1	9.04	0.64	2
	2	9.09	0.25	2
	3	9.17	0.4	2
	4	9.26	0.4	2
	5	9.31	0.49	2
	6	9.35	0.48	2
	7	9.4	0.51	2
	8	9.53	0.84	2
	9	9.6	1.02	2
	10	9.63	0.36	2
	11	9.66	0.43	2
	12	9.8	2.75	2
	13	9.86	0.81	2
	14	10	1.02	2
	15	10.12	1.82	2
	16	10.28	1.91	2
	17	10.35	0.5	2
	18	10.39	0.49	2
	19	10.43	0.55	2
	20	10.47	0.34	2
	21	10.56	1.45	2
	22	10.64	0.76	2
	23	10.68	0.31	2
	24	10.76	1.05	2
	25	10.91	0.99	2
	26	10.98	0.66	2
	27	11.06	0.88	2
	28	11.2	1.99	2
	29	11.32	2.09	2
	30	11.39	1.69	2
	31	11.45	1.44	2
	32	11.51	1.47	2
	33	11.56	1.92	2
	34	11.6	1	2
	35	11.62	0.55	2
	36	11.65	0.53	2
	37	11.67	0.47	2
	38	11.69	0.57	2
	39	11.72	0.68	2
	40	11.74	0.51	2
	41	11.75	0.34	2
	42	11.76	0.35	2
	43	11.77	0.36	2
	44	11.78	0.34	2
	45	11.79	0.33	2
	46	11.81	0.35	2
	47	11.82	0.37	2
	48	11.83	0.32	2
	49	11.84	0.29	2
	50	11.85	0.29	2
	51	11.86	0.29	2
	52	11.86	0.29	2
	53	11.87	0.27	2
	54	11.89	0.58	2
	55	11.91	0.39	2
	56	11.92	0.25	2
	57	11.94	0.45	2
	58	11.96	0.57	2
	59	12.1	2.11	2
	60	12.17	1.54	2
	61	12.23	1.06	2
	62	12.27	0.34	2
	63	12.31	0.72	2
	64	12.35	0.65	2
	65	12.38	0.77	2
	66	12.41	0.78	2
	67	12.44	0.5	2
	68	12.47	0.76	2
	69	12.49	0.27	2
	70	12.5	0.29	2
	71	12.51	0.29	2
	72	12.52	0.29	2
	73	12.54	0.31	2
	74	12.55	0.32	2
	75	12.57	0.49	2
	76	12.59	0.64	2
	77	12.62	0.63	2
	78	12.64	0.62	2
	79	12.67	0.51	2
	80	12.69	0.3	2
	81	12.72	0.43	2
	82	12.75	0.4	2
	83	12.79	0.35	2
	84	12.83	0.33	2
	85	12.88	0.41	2
	86	12.92	0.42	2
	87	12.97	0.42	2
	88	13.01	0.31	2
	89	13.06	0.34	2
	90	13.09	0.32	2
	91	13.12	0.3	2
	92	13.15	0.5	2
	93	13.18	0.41	2
	94	13.21	0.32	2
	95	13.28	0.55	2
	96	13.38	0.76	2
	97	13.55	1.16	2
	98	13.66	0.78	2
	99	13.74	0.54	2
	100	13.84	0.45	2
	101	13.93	0.52	2
	102	14	0.54	2
	103	14.04	0.32	2
	104	14.07	0.35	2
	105	14.11	0.26	2
	106	14.15	0.26	2
	107	14.23	0.58	2
	108	14.31	0.61	2
	109	14.42	0.53	2
	110	14.54	0.54	2
	111	14.64	0.58	2
	112	14.76	0.54	2
	113	14.88	0.67	2
	114	14.93	0.44	2
	115	14.97	0.49	2
	116	15.01	0.52	2
	117	15.06	0.52	2
	118	15.11	0.57	2
	119	15.16	0.57	2
	120	15.21	0.61	2
	121	15.26	0.39	2
	122	15.29	0.29	2
	123	15.31	0.3	2
	124	15.34	0.33	2
	125	15.38	0.46	2
	126	15.42	0.4	2
	127	15.45	0.33	2
	128	15.49	0.35	2
	129	15.54	0.39	2
	130	15.59	0.62	2
	131	15.63	0.58	2
	132	15.7	0.62	2
	133	15.76	0.5	2
	134	15.83	0.59	2
	135	15.87	0.42	2
	136	15.91	0.42	2
	137	15.96	0.46	2
	138	15.99	0.46	2
	139	16.03	0.42	2
	140	16.05	0.28	2
	141	16.08	0.29	2
	142	16.1	0.37	2
	143	16.13	0.41	2
	144	16.15	0.41	2
	145	16.39	1.87	2
	146	16.59	0.87	2
	147	16.64	0.49	2
	148	16.7	0.64	2
	149	16.75	0.56	2
	150	16.81	0.35	2
	151	16.95	0.69	2
	152	17.05	0.47	2
	153	17.16	0.51	2
	154	17.39	0.58	2
	155	17.57	0.61	2
	156	17.69	0.52	2
	157	17.74	0.27	2
	158	17.78	0.31	2
	159	17.83	0.48	2
	160	17.92	0.56	2
	161	17.98	0.34	2
	162	18.67	1.2	2
	163	19.11	0.75	2
	164	19.65	0.68	2

