File:              	C:\Qtrac\Data\Daniel M Sørensen\MScan multicentre study\Data from centres\Odense\Processed data\TKC01028C.QZD
Name:              	DK.ODE.NC.7.1
Protocol:          	MSCAN-R2
Date:              	28/10/20
Start time:        	10:26:18
Age:               	41
Sex:               	F
Temperature:       	31.0
S/R sites:         	TA
NC/disease:        	NC
Operator:          	TK
Comments:
M-SCAN DATA (6.3-0.9m)
Scanpts: 48, 54, 493, 501
Stim. (mA)     	Amp. (mV)
MS.1           	28.5           	6.586
MS.2           	28.5           	6.655
MS.3           	28.5           	6.606
MS.4           	28.5           	6.542
MS.5           	28.5           	6.56
MS.6           	28.5           	6.584
MS.7           	28.5           	6.522
MS.8           	28.5           	6.574
MS.9           	28.5           	6.506
MS.10          	28.5           	6.467
MS.11          	28.5           	6.55
MS.12          	28.5           	6.588
MS.13          	28.5           	6.532
MS.14          	28.5           	6.536
MS.15          	28.5           	6.482
MS.16          	28.5           	6.526
MS.17          	28.5           	6.576
MS.18          	28.5           	6.524
MS.19          	28.5           	6.488
MS.20          	28.5           	6.538
MS.21          	28.5           	6.51
MS.22          	28.5           	6.51
MS.23          	28.385         	6.544
MS.24          	28.33          	6.542
MS.25          	28.272         	6.504
MS.26          	28.217         	6.474
MS.27          	28.16          	6.514
MS.28          	28.102         	6.542
MS.29          	28.047         	6.572
MS.30          	27.993         	6.584
MS.31          	27.935         	6.568
MS.32          	27.88          	6.588
MS.33          	27.825         	6.518
MS.34          	27.767         	6.556
MS.35          	27.712         	6.552
MS.36          	27.657         	6.615
MS.37          	27.602         	6.427
MS.38          	27.547         	6.467
MS.39          	27.493         	6.413
MS.40          	27.438         	6.476
MS.41          	27.382         	6.617
MS.42          	27.327         	6.576
MS.43          	27.272         	6.532
MS.44          	27.217         	6.528
MS.45          	27.165         	6.546
MS.46          	27.11          	6.502
MS.47          	27.055         	6.52
MS.48          	27.002         	6.498
MS.49          	26.948         	6.562
MS.50          	26.895         	6.604
MS.51          	26.84          	6.566
MS.52          	26.787         	6.55
MS.53          	26.733         	6.51
MS.54          	26.68          	6.578
MS.55          	26.627         	6.494
MS.56          	26.573         	6.514
MS.57          	26.52          	6.542
MS.58          	26.467         	6.615
MS.59          	26.415         	6.51
MS.60          	26.362         	6.55
MS.61          	26.307         	6.578
MS.62          	26.255         	6.55
MS.63          	26.202         	6.53
MS.64          	26.153         	6.534
MS.65          	26.1           	6.566
MS.66          	26.047         	6.524
MS.67          	25.995         	6.546
MS.68          	25.942         	6.645
MS.69          	25.89          	6.48
MS.70          	25.84          	6.482
MS.71          	25.787         	6.56
MS.72          	25.735         	6.492
MS.73          	25.685         	6.516
MS.74          	25.632         	6.536
MS.75          	25.582         	6.506
MS.76          	25.53          	6.522
MS.77          	25.48          	6.52
MS.78          	25.43          	6.518
MS.79          	25.377         	6.528
MS.80          	25.327         	6.528
MS.81          	25.278         	6.492
MS.82          	25.227         	6.586
MS.83          	25.175         	6.548
MS.84          	25.125         	6.576
MS.85          	25.075         	6.486
MS.86          	25.025         	6.574
MS.87          	24.975         	6.498
MS.88          	24.925         	6.534
MS.89          	24.875         	6.526
MS.90          	24.825         	6.534
MS.91          	24.778         	6.53
MS.92          	24.727         	6.471
MS.93          	24.677         	6.51
MS.94          	24.627         	6.494
MS.95          	24.58          	6.5
MS.96          	24.53          	6.524
MS.97          	24.48          	6.564
MS.98          	24.432         	6.449
MS.99          	24.382         	6.536
MS.100         	24.335         	6.524
MS.101         	24.285         	6.482
MS.102         	24.237         	6.516
MS.103         	24.19          	6.516
MS.104         	24.14          	6.417
MS.105         	24.092         	6.49
MS.106         	24.045         	6.502
MS.107         	23.997         	6.467
MS.108         	23.948         	6.423
MS.109         	23.9           	6.435
MS.110         	23.852         	6.459
MS.111         	23.805         	6.504
MS.112         	23.757         	6.439
MS.113         	23.71          	6.467
MS.114         	23.663         	6.449
MS.115         	23.615         	6.383
MS.116         	23.567         	6.532
MS.117         	23.52          	6.405
MS.118         	23.475         	6.421
MS.119         	23.427         	6.455
MS.120         	23.38          	6.357
MS.121         	23.332         	6.375
MS.122         	23.288         	6.447
MS.123         	23.24          	6.381
MS.124         	23.195         	6.453
MS.125         	23.147         	6.359
MS.126         	23.102         	6.405
MS.127         	23.055         	6.395
MS.128         	23.01          	6.413
MS.129         	22.962         	6.32
MS.130         	22.917         	6.32
MS.131         	22.872         	6.357
MS.132         	22.825         	6.413
MS.133         	22.78          	6.254
MS.134         	22.735         	6.252
MS.135         	22.69          	6.276
MS.136         	22.645         	6.405
MS.137         	22.6           	6.365
MS.138         	22.552         	6.282
MS.139         	22.507         	6.268
MS.140         	22.462         	6.318
MS.141         	22.42          	6.318
MS.142         	22.375         	6.22
MS.143         	22.33          	6.131
MS.144         	22.285         	6.185
MS.145         	22.24          	6.159
MS.146         	22.195         	6.121
MS.147         	22.153         	6.188
MS.148         	22.108         	6.107
MS.149         	22.062         	6.208
MS.150         	22.02          	6.069
MS.151         	21.975         	6.167
MS.152         	21.93          	6.25
MS.153         	21.887         	6.143
MS.154         	21.842         	6.169
MS.155         	21.8           	6.143
MS.156         	21.755         	6.105
MS.157         	21.712         	6.177
MS.158         	21.67          	6.181
MS.159         	21.625         	6.183
MS.160         	21.583         	6.121
MS.161         	21.54          	6.135
MS.162         	21.497         	6.115
MS.163         	21.455         	5.984
MS.164         	21.41          	5.97
MS.165         	21.368         	5.924
MS.166         	21.325         	6.032
MS.167         	21.282         	6.034
MS.168         	21.24          	6.028
MS.169         	21.198         	5.982
MS.170         	21.155         	5.958
MS.171         	21.112         	6.024
MS.172         	21.07          	6.105
MS.173         	21.03          	5.994
MS.174         	20.987         	5.934
MS.175         	20.945         	5.918
MS.176         	20.903         	5.809
MS.177         	20.862         	5.899
MS.178         	20.82          	5.972
MS.179         	20.778         	5.881
MS.180         	20.737         	5.944
MS.181         	20.695         	5.881
MS.182         	20.655         	5.829
MS.183         	20.612         	5.674
MS.184         	20.573         	5.716
MS.185         	20.53          	5.75
MS.186         	20.49          	5.7
MS.187         	20.448         	5.674
MS.188         	20.407         	5.771
MS.189         	20.368         	5.613
MS.190         	20.325         	5.688
MS.191         	20.285         	5.543
MS.192         	20.245         	5.642
MS.193         	20.205         	5.63
MS.194         	20.165         	5.485
MS.195         	20.122         	5.628
MS.196         	20.083         	5.535
MS.197         	20.042         	5.529
MS.198         	20.002         	5.477
MS.199         	19.962         	5.394
MS.200         	19.922         	5.394
MS.201         	19.882         	5.424
MS.202         	19.845         	5.378
MS.203         	19.805         	5.452
MS.204         	19.765         	5.454
MS.205         	19.725         	5.462
MS.206         	19.685         	5.362
MS.207         	19.647         	5.424
MS.208         	19.608         	5.319
MS.209         	19.567         	5.418
MS.210         	19.53          	5.279
MS.211         	19.49          	5.285
MS.212         	19.45          	5.348
MS.213         	19.413         	5.259
MS.214         	19.372         	5.054
MS.215         	19.335         	5.096
MS.216         	19.295         	5.134
MS.217         	19.257         	5.064
MS.218         	19.22          	5.15
MS.219         	19.18          	5.003
MS.220         	19.142         	5.005
MS.221         	19.105         	4.939
MS.222         	19.065         	5.025
MS.223         	19.028         	5.056
MS.224         	18.99          	4.971
MS.225         	18.952         	4.906
MS.226         	18.915         	5.003
MS.227         	18.875         	4.965
MS.228         	18.837         	4.981
MS.229         	18.8           	4.896
MS.230         	18.762         	4.963
MS.231         	18.725         	4.935
MS.232         	18.688         	4.894
MS.233         	18.65          	4.828
MS.234         	18.612         	4.856
MS.235         	18.577         	4.695
MS.236         	18.54          	4.757
MS.237         	18.503         	4.82
MS.238         	18.465         	4.695
MS.239         	18.427         	4.703
MS.240         	18.392         	4.592
MS.241         	18.355         	4.687
MS.242         	18.317         	4.612
MS.243         	18.282         	4.572
MS.244         	18.245         	4.518
MS.245         	18.208         	4.471
MS.246         	18.172         	4.578
MS.247         	18.135         	4.443
MS.248         	18.1           	4.484
MS.249         	18.062         	4.409
MS.250         	18.028         	4.413
MS.251         	17.993         	4.649
MS.252         	17.955         	4.385
MS.253         	17.92          	4.336
MS.254         	17.885         	4.181
MS.255         	17.847         	4.208
MS.256         	17.812         	4.167
MS.257         	17.778         	4.268
MS.258         	17.743         	4.23
MS.259         	17.705         	4.085
MS.260         	17.67          	4.057
MS.261         	17.635         	4.097
MS.262         	17.6           	3.938
MS.263         	17.565         	4.01
MS.264         	17.53          	3.841
MS.265         	17.495         	3.813
MS.266         	17.46          	3.966
MS.267         	17.425         	3.835
MS.268         	17.39          	3.922
MS.269         	17.355         	3.849
MS.270         	17.32          	3.803
MS.271         	17.285         	3.938
MS.272         	17.253         	3.911
MS.273         	17.217         	3.901
MS.274         	17.182         	3.684
MS.275         	17.147         	3.837
MS.276         	17.115         	3.599
MS.277         	17.08          	3.716
MS.278         	17.045         	3.63
MS.279         	17.012         	3.541
MS.280         	16.977         	3.537
MS.281         	16.945         	3.597
MS.282         	16.91          	3.597
MS.283         	16.875         	3.549
MS.284         	16.842         	3.388
MS.285         	16.81          	3.466
MS.286         	16.775         	3.491
MS.287         	16.743         	3.462
MS.288         	16.708         	3.392
MS.289         	16.675         	3.412
MS.290         	16.642         	3.243
MS.291         	16.608         	3.257
MS.292         	16.575         	3.293
MS.293         	16.542         	3.281
MS.294         	16.51          	3.213
MS.295         	16.475         	3.18
MS.296         	16.442         	3.152
MS.297         	16.41          	3.118
MS.298         	16.378         	3.033
MS.299         	16.345         	3.094
MS.300         	16.312         	3.005
MS.301         	16.28          	2.985
MS.302         	16.247         	2.925
MS.303         	16.215         	2.792
MS.304         	16.182         	2.844
MS.305         	16.15          	2.713
MS.306         	16.118         	2.82
MS.307         	16.085         	2.794
MS.308         	16.052         	2.681
MS.309         	16.02          	2.826
MS.310         	15.99          	2.655
MS.311         	15.957         	2.673
MS.312         	15.925         	2.5
MS.313         	15.892         	2.572
MS.314         	15.862         	2.473
MS.315         	15.83          	2.286
MS.316         	15.797         	2.332
MS.317         	15.767         	2.413
MS.318         	15.735         	2.129
MS.319         	15.705         	2.429
MS.320         	15.672         	2.21
MS.321         	15.64          	2.24
MS.322         	15.61          	2.052
MS.323         	15.577         	2.25
MS.324         	15.547         	2.234
MS.325         	15.517         	2.189
MS.326         	15.485         	2.075
MS.327         	15.455         	1.928
MS.328         	15.422         	1.942
MS.329         	15.392         	1.964
MS.330         	15.362         	1.821
MS.331         	15.332         	1.734
MS.332         	15.3           	1.851
MS.333         	15.27          	1.676
MS.334         	15.24          	1.66
MS.335         	15.21          	1.672
MS.336         	15.18          	1.766
MS.337         	15.148         	1.472
MS.338         	15.117         	1.515
MS.339         	15.087         	1.535
MS.340         	15.057         	1.523
MS.341         	15.027         	1.535
MS.342         	14.997         	1.38
MS.343         	14.967         	1.239
MS.344         	14.938         	1.352
MS.345         	14.907         	1.192
MS.346         	14.877         	1.269
MS.347         	14.847         	1.241
MS.348         	14.82          	1.076
MS.349         	14.79          	1.106
MS.350         	14.76          	1.055
MS.351         	14.73          	1.215
MS.352         	14.7           	1.18
MS.353         	14.672         	1.068
MS.354         	14.642         	0.792
MS.355         	14.612         	0.965
MS.356         	14.582         	0.931
MS.357         	14.555         	0.924
MS.358         	14.525         	0.81
MS.359         	14.497         	0.848
MS.360         	14.467         	0.717
MS.361         	14.438         	0.675
MS.362         	14.41          	0.681
MS.363         	14.38          	0.713
MS.364         	14.352         	0.643
MS.365         	14.322         	0.624
MS.366         	14.295         	0.669
MS.367         	14.267         	0.548
MS.368         	14.237         	0.588
MS.369         	14.21          	0.536
MS.370         	14.18          	0.447
MS.371         	14.153         	0.459
MS.372         	14.125         	0.35
MS.373         	14.095         	0.373
MS.374         	14.068         	0.469
MS.375         	14.04          	0.504
MS.376         	14.012         	0.463
MS.377         	13.985         	0.441
MS.378         	13.955         	0.435
MS.379         	13.927         	0.367
MS.380         	13.9           	0.31
MS.381         	13.872         	0.348
MS.382         	13.845         	0.365
MS.383         	13.818         	0.447
MS.384         	13.79          	0.431
MS.385         	13.762         	0.524
MS.386         	13.735         	0.425
MS.387         	13.707         	0.419
MS.388         	13.68          	0.401
MS.389         	13.653         	0.409
MS.390         	13.625         	0.363
MS.391         	13.597         	0.312
MS.392         	13.57          	0.28
MS.393         	13.542         	0.35
MS.394         	13.517         	0.276
MS.395         	13.49          	0.278
MS.396         	13.462         	0.294
MS.397         	13.435         	0.354
MS.398         	13.407         	0.298
MS.399         	13.382         	0.363
MS.400         	13.355         	0.357
MS.401         	13.327         	0.31
MS.402         	13.302         	0.276
MS.403         	13.275         	0.308
MS.404         	13.247         	0.326
MS.405         	13.222         	0.25
MS.406         	13.195         	0.203
MS.407         	13.17          	0.226
MS.408         	13.142         	0.214
MS.409         	13.117         	0.163
MS.410         	13.09          	0.195
MS.411         	13.065         	0.169
MS.412         	13.037         	0.155
MS.413         	13.012         	0.189
MS.414         	12.987         	0.153
MS.415         	12.96          	0.034
MS.416         	12.935         	0.127
MS.417         	12.907         	0.107
MS.418         	12.882         	0.107
MS.419         	12.858         	0.137
MS.420         	12.832         	0.147
MS.421         	12.805         	0.099
MS.422         	12.78          	0.081
MS.423         	12.755         	0.056
MS.424         	12.73          	0.048
MS.425         	12.705         	0.028
MS.426         	12.677         	0.01
MS.427         	12.653         	-0.006
MS.428         	12.627         	0.079
MS.429         	12.602         	0.04
MS.430         	12.577         	-0.022
MS.431         	12.552         	0.034
MS.432         	12.528         	0.024
MS.433         	12.502         	-0.014
MS.434         	12.477         	0.044
MS.435         	12.452         	-0.004
MS.436         	12.427         	-0.012
MS.437         	12.403         	0.026
MS.438         	12.377         	-0.022
MS.439         	12.352         	0.038
MS.440         	12.327         	0.079
MS.441         	12.302         	0.008
MS.442         	12.28          	0.016
MS.443         	12.255         	0.000
MS.444         	12.23          	0.022
MS.445         	12.205         	-0.022
MS.446         	12.182         	-0.016
MS.447         	12.157         	0.022
MS.448         	12.132         	-0.022
MS.449         	12.108         	-0.06
MS.450         	12.085         	0.002
MS.451         	12.06          	-0.034
MS.452         	12.035         	0.01
MS.453         	12.012         	-0.024
MS.454         	11.988         	0.028
MS.455         	11.965         	-0.079
MS.456         	11.94          	-0.097
MS.457         	11.915         	-0.032
MS.458         	11.892         	-0.05
MS.459         	11.867         	-0.091
MS.460         	11.845         	-0.07
MS.461         	11.822         	-0.038
MS.462         	11.797         	-0.046
MS.463         	11.775         	-0.048
MS.464         	11.75          	-0.052
MS.465         	11.727         	-0.087
MS.466         	11.702         	-0.068
MS.467         	11.68          	-0.087
MS.468         	11.657         	-0.046
MS.469         	11.632         	-0.083
MS.470         	11.61          	-0.036
MS.471         	11.587         	-0.018
MS.472         	11.565         	-0.064
MS.473         	11.54          	-0.093
MS.474         	11.517         	-0.06
MS.475         	11.495         	-0.091
MS.476         	11.472         	-0.089
MS.477         	11.45          	-0.056
MS.478         	11.425         	-0.026
MS.479         	11.403         	-0.107
MS.480         	11.38          	-0.05
MS.481         	11.358         	-0.062
MS.482         	11.335         	-0.087
MS.483         	11.312         	-0.077
MS.484         	11.29          	-0.075
MS.485         	11.267         	-0.034
MS.486         	11.245         	-0.107
MS.487         	11.222         	-0.022
MS.488         	11.2           	-0.083
MS.489         	11.177         	-0.117
MS.490         	11.155         	-0.064
MS.491         	11.132         	-0.068
MS.492         	11.11          	-0.05
MS.493         	11.087         	-0.032
MS.494         	11.068         	-0.101
MS.495         	11.045         	-0.105
MS.496         	11.023         	-0.093
MS.497         	11             	-0.097
MS.498         	10.977         	-0.119
MS.499         	10.955         	-0.129
MS.500         	10.935         	-0.087
MS.501         	10.912         	-0.07
MS.502         	10.89          	-0.032
MS.503         	10.87          	-0.077
MS.504         	10.847         	-0.07
MS.505         	10.825         	-0.06
MS.506         	10.805         	-0.107
MS.507         	10.782         	-0.113
MS.508         	10.76          	-0.079
MS.509         	10.74          	-0.111
MS.510         	10.717         	-0.083
MS.511         	10.698         	-0.109
MS.512         	10.675         	-0.052
MS.513         	10.653         	-0.075
MS.514         	10.632         	-0.087
MS.515         	10.61          	-0.121
MS.516         	10.59          	-0.066
MS.517         	10.568         	-0.107
MS.518         	10.547         	-0.073
MS.519         	10.528         	-0.089
MS.520         	10.505         	-0.091
MS.521         	10.485         	-0.079
MS.522         	10.462         	-0.103
MS.523         	10.443         	-0.111
MS.524         	10.422         	-0.103
MS.525         	10.4           	-0.042
MS.526         	10.38          	-0.097
MS.527         	10.36          	-0.137
MS.528         	10.34          	-0.123
MS.529         	10.318         	-0.107
MS.530         	10.297         	-0.125
MS.531         	10.278         	-0.093
MS.532         	10.257         	-0.107
MS.533         	10.235         	-0.058
MS.534         	10.215         	-0.068
MS.535         	10.195         	-0.066
MS.536         	10.175         	-0.05
MS.537         	10.155         	-0.107
MS.538         	10.135         	-0.066
MS.539         	10.115         	-0.103
MS.540         	10.092         	-0.087
MS.541         	10.073         	-0.062
MS.542         	10.052         	-0.085
MS.543         	10.032         	-0.103
MS.544         	10.012         	-0.062
MS.545         	9.992          	-0.099
MS.546         	9.972          	-0.121
MS.547         	9.952          	-0.073
MS.548         	9.932          	-0.085
MS.549         	9.912          	-0.058
MS.550         	9.892          	-0.087
MS.551         	9.875          	-0.079
MS.552         	9.855          	-0.081
MS.553         	9.835          	-0.095
MS.554         	9.815          	-0.111
MS.555         	9.795          	-0.073
MS.556         	9.775          	-0.042
MS.557         	9.755          	-0.079
MS.558         	9.738          	-0.058
MS.559         	9.717          	-0.064
MS.560         	9.698          	-0.089
MS.561         	9.677          	-0.091
MS.562         	9.66           	-0.099
MS.563         	9.64           	-0.089
MS.564         	9.62           	-0.089
MS.565         	9.602          	-0.095
MS.566         	9.582          	-0.127
MS.567         	9.562          	-0.093
MS.568         	9.545          	-0.058
MS.569         	9.525          	-0.091
MS.570         	9.505          	-0.125
MS.571         	9.488          	-0.081
MS.572         	9.467          	-0.097
MS.573         	9.45           	-0.097
MS.574         	9.43           	-0.091
MS.575         	9.41           	-0.081
MS.576         	9.392          	-0.121
MS.577         	9.372          	-0.058
MS.578         	9.355          	-0.087
MS.579         	9.335          	-0.07
MS.580         	9.318          	-0.083
MS.581         	9.3            	-0.054
MS.582         	9.28           	-0.083
MS.583         	9.262          	-0.093
MS.584         	9.242          	-0.133
DERIVED EXCITABILITY VARIABLES
Program = QTracP 9/10/2021
Threshold method = 6 (optimised for CAP, using data for present condition only)
SR method = 1 (using actual data values)
6.                 	0.000               	Peak response\(mV)
9.                 	31                  	Temperature ( C)
17.                	41                  	Age (years)
18.                	2                   	Sex (M=1, F=2)

EXTRA VARIABLES

MScPeak(mV) = 6.63
MScS5(mA) = 13.57
MScS50(mA) = 16.66
MScS95(mA) = 22.59
MScNSteps = 0
MScSteps(%) = 0.0
MScStepMax(%) = 0.0
MScD50 = 58
MScSlope = 4.4
MScDuration(min) = 5.4
MSFTraces = 454
MSFPeakAmp(mV) = 6.65
MSFNUnits = 174
MSFMeanUnitAmp(uV) = 38.2
MSFHuntTime(m) = 3.62
MSFError(%) = 2.24
MSFNLarge = 58.34
MSFMedianAmp(%) = 0.501
MSFMedianAmp(mV) = 0.0333
MSFHalfAmpAmp(%) = 0.601
MSFHalfAmpAmp(mV) = 0.04
MSFLargestAmp(%) = 1.79
MSFLargestAmp(mV) = 0.119
MSFMeanRS(%) = 2
MSFSizeLimit(uV) = 16.6
MSFLimitType = 1
MSFSmallestAmp(uV) = 17.2
MSFOpts = 10106121

EXTRA WAVEFORMS


!MScan Model
!174
	1	11.47	0.81	2
	2	12.43	0.83	2
	3	12.67	0.5	2
	4	12.78	0.44	2
	5	12.86	0.38	2
	6	12.92	0.34	2
	7	12.98	0.37	2
	8	13.05	0.45	2
	9	13.12	0.52	2
	10	13.21	0.37	2
	11	13.38	1.19	2
	12	13.74	0.97	2
	13	14.05	1.5	2
	14	14.16	0.52	2
	15	14.2	0.39	2
	16	14.24	0.51	2
	17	14.29	0.51	2
	18	14.32	0.52	2
	19	14.35	0.36	2
	20	14.38	0.39	2
	21	14.41	0.46	2
	22	14.44	0.54	2
	23	14.46	0.45	2
	24	14.49	0.5	2
	25	14.52	0.47	2
	26	14.55	0.47	2
	27	14.58	0.47	2
	28	14.61	0.51	2
	29	14.64	0.5	2
	30	14.67	0.45	2
	31	14.7	0.53	2
	32	14.73	0.54	2
	33	14.76	0.54	2
	34	14.79	0.61	2
	35	14.83	0.6	2
	36	14.86	0.6	2
	37	14.89	0.6	2
	38	14.92	0.52	2
	39	14.95	0.44	2
	40	14.97	0.42	2
	41	14.99	0.43	2
	42	15.02	0.44	2
	43	15.04	0.46	2
	44	15.07	0.44	2
	45	15.09	0.4	2
	46	15.11	0.4	2
	47	15.13	0.42	2
	48	15.15	0.44	2
	49	15.17	0.47	2
	50	15.19	0.45	2
	51	15.22	0.47	2
	52	15.24	0.56	2
	53	15.27	0.57	2
	54	15.3	0.55	2
	55	15.32	0.53	2
	56	15.35	0.54	2
	57	15.39	0.75	2
	58	15.43	0.8	2
	59	15.48	0.68	2
	60	15.52	0.77	2
	61	15.56	0.71	2
	62	15.6	0.79	2
	63	15.64	0.85	2
	64	15.68	0.77	2
	65	15.73	0.94	2
	66	15.78	0.91	2
	67	15.83	0.83	2
	68	15.86	0.56	2
	69	15.89	0.45	2
	70	15.92	0.47	2
	71	15.95	0.5	2
	72	15.98	0.55	2
	73	16	0.44	2
	74	16.02	0.37	2
	75	16.05	0.36	2
	76	16.07	0.35	2
	77	16.09	0.35	2
	78	16.11	0.34	2
	79	16.13	0.36	2
	80	16.15	0.37	2
	81	16.17	0.37	2
	82	16.19	0.4	2
	83	16.21	0.43	2
	84	16.23	0.4	2
	85	16.26	0.38	2
	86	16.28	0.35	2
	87	16.3	0.33	2
	88	16.32	0.3	2
	89	16.35	0.48	2
	90	16.38	0.42	2
	91	16.41	0.41	2
	92	16.44	0.41	2
	93	16.47	0.48	2
	94	16.49	0.29	2
	95	16.51	0.31	2
	96	16.53	0.36	2
	97	16.55	0.34	2
	98	16.57	0.32	2
	99	16.59	0.28	2
	100	16.61	0.27	2
	101	16.63	0.26	2
	102	16.66	0.36	2
	103	16.7	0.45	2
	104	16.73	0.45	2
	105	16.76	0.43	2
	106	16.8	0.4	2
	107	16.84	0.47	2
	108	16.88	0.58	2
	109	16.93	0.62	2
	110	16.98	0.59	2
	111	17.07	1.06	2
	112	17.16	0.86	2
	113	17.25	0.94	2
	114	17.34	0.97	2
	115	17.44	1.13	2
	116	17.53	1.09	2
	117	17.58	0.45	2
	118	17.63	0.45	2
	119	17.67	0.65	2
	120	17.72	0.69	2
	121	17.77	0.6	2
	122	17.82	0.48	2
	123	17.87	0.6	2
	124	17.92	0.73	2
	125	17.98	0.78	2
	126	18.03	0.64	2
	127	18.09	0.64	2
	128	18.15	0.76	2
	129	18.21	0.71	2
	130	18.26	0.48	2
	131	18.28	0.27	2
	132	18.31	0.26	2
	133	18.33	0.26	2
	134	18.36	0.27	2
	135	18.39	0.27	2
	136	18.41	0.28	2
	137	18.44	0.32	2
	138	18.48	0.35	2
	139	18.51	0.3	2
	140	18.54	0.4	2
	141	18.61	0.47	2
	142	18.69	0.71	2
	143	18.76	0.51	2
	144	18.87	0.87	2
	145	19	0.71	2
	146	19.08	0.67	2
	147	19.17	1	2
	148	19.23	0.45	2
	149	19.28	0.34	1.6
	150	19.34	0.47	2
	151	19.41	0.7	2
	152	19.49	0.59	2
	153	19.58	0.62	2
	154	19.7	1.04	2
	155	19.82	0.86	2.4
	156	19.94	0.94	2
	157	20.05	0.63	2
	158	20.16	0.61	2
	159	20.23	0.4	2
	160	20.29	0.48	2
	161	20.35	0.56	2
	162	20.43	0.63	2
	163	20.51	0.55	2
	164	20.6	0.61	2
	165	20.7	0.71	2
	166	20.84	0.91	2
	167	21.14	1.58	2
	168	21.45	1.21	2
	169	22.09	1.79	2
	170	22.41	0.76	2
	171	22.67	0.97	2
	172	23.09	1.1	2
	173	23.73	1.12	2
	174	24.49	0.88	2

