File:              	C:\Qtrac\Data\Daniel M Sørensen\MScan multicentre study\Data from centres\Odense\Processed data\TKC01014C.QZD
Name:              	DK.ODE.NC.5.2
Protocol:          	MSCAN-R2
Date:              	14/10/20
Start time:        	12:35:20
Age:               	62
Sex:               	F
Temperature:       	31.2
S/R sites:         	TA
NC/disease:        	NC
Operator:          	TK
Comments:
M-SCAN DATA (9.2-0.7m)
Scanpts: 9, 16, 579, 586
Stim. (mA)     	Amp. (mV)
MS.1           	18             	5.021
MS.2           	18             	5.039
MS.3           	18             	5.039
MS.4           	18             	4.933
MS.5           	18             	4.969
MS.6           	18             	4.977
MS.7           	18             	4.941
MS.8           	18             	4.973
MS.9           	18             	4.987
MS.10          	18             	4.935
MS.11          	18             	4.997
MS.12          	18             	4.953
MS.13          	18             	4.937
MS.14          	18             	4.906
MS.15          	18             	4.943
MS.16          	18             	4.929
MS.17          	18             	4.941
MS.18          	18             	4.965
MS.19          	18             	4.909
MS.20          	18             	4.923
MS.21          	18             	4.947
MS.22          	18             	4.947
MS.23          	18             	4.967
MS.24          	17.927         	4.971
MS.25          	17.892         	4.894
MS.26          	17.858         	4.951
MS.27          	17.82          	4.953
MS.28          	17.785         	4.919
MS.29          	17.75          	4.894
MS.30          	17.715         	4.953
MS.31          	17.68          	4.933
MS.32          	17.642         	4.915
MS.33          	17.608         	4.898
MS.34          	17.573         	4.919
MS.35          	17.538         	4.941
MS.36          	17.503         	4.906
MS.37          	17.467         	4.953
MS.38          	17.432         	4.945
MS.39          	17.397         	4.957
MS.40          	17.362         	4.848
MS.41          	17.33          	4.858
MS.42          	17.295         	4.943
MS.43          	17.26          	4.866
MS.44          	17.225         	4.862
MS.45          	17.19          	4.921
MS.46          	17.157         	4.836
MS.47          	17.122         	4.894
MS.48          	17.087         	4.878
MS.49          	17.052         	4.846
MS.50          	17.02          	4.844
MS.51          	16.985         	4.834
MS.52          	16.952         	4.84
MS.53          	16.917         	4.842
MS.54          	16.885         	4.854
MS.55          	16.85          	4.846
MS.56          	16.817         	4.81
MS.57          	16.782         	4.806
MS.58          	16.75          	4.814
MS.59          	16.715         	4.89
MS.60          	16.682         	4.834
MS.61          	16.65          	4.774
MS.62          	16.615         	4.856
MS.63          	16.583         	4.846
MS.64          	16.55          	4.834
MS.65          	16.517         	4.824
MS.66          	16.483         	4.81
MS.67          	16.45          	4.828
MS.68          	16.417         	4.832
MS.69          	16.385         	4.812
MS.70          	16.352         	4.81
MS.71          	16.32          	4.862
MS.72          	16.288         	4.836
MS.73          	16.255         	4.808
MS.74          	16.222         	4.84
MS.75          	16.19          	4.816
MS.76          	16.157         	4.838
MS.77          	16.125         	4.798
MS.78          	16.092         	4.824
MS.79          	16.06          	4.834
MS.80          	16.028         	4.822
MS.81          	15.997         	4.854
MS.82          	15.965         	4.842
MS.83          	15.932         	4.844
MS.84          	15.9           	4.838
MS.85          	15.87          	4.788
MS.86          	15.837         	4.814
MS.87          	15.805         	4.747
MS.88          	15.775         	4.768
MS.89          	15.742         	4.774
MS.90          	15.71          	4.774
MS.91          	15.68          	4.776
MS.92          	15.648         	4.776
MS.93          	15.617         	4.822
MS.94          	15.585         	4.759
MS.95          	15.555         	4.751
MS.96          	15.523         	4.717
MS.97          	15.492         	4.776
MS.98          	15.462         	4.763
MS.99          	15.43          	4.778
MS.100         	15.4           	4.661
MS.101         	15.37          	4.755
MS.102         	15.337         	4.709
MS.103         	15.307         	4.689
MS.104         	15.277         	4.695
MS.105         	15.247         	4.675
MS.106         	15.217         	4.711
MS.107         	15.185         	4.761
MS.108         	15.155         	4.675
MS.109         	15.125         	4.703
MS.110         	15.095         	4.659
MS.111         	15.065         	4.717
MS.112         	15.035         	4.671
MS.113         	15.005         	4.693
MS.114         	14.975         	4.723
MS.115         	14.945         	4.705
MS.116         	14.915         	4.675
MS.117         	14.885         	4.679
MS.118         	14.855         	4.665
MS.119         	14.825         	4.705
MS.120         	14.795         	4.677
MS.121         	14.767         	4.697
MS.122         	14.737         	4.655
MS.123         	14.707         	4.693
MS.124         	14.677         	4.681
MS.125         	14.65          	4.653
MS.126         	14.62          	4.679
MS.127         	14.59          	4.655
MS.128         	14.562         	4.659
MS.129         	14.532         	4.673
MS.130         	14.502         	4.673
MS.131         	14.475         	4.612
MS.132         	14.445         	4.582
MS.133         	14.417         	4.596
MS.134         	14.387         	4.568
MS.135         	14.36          	4.582
MS.136         	14.33          	4.588
MS.137         	14.302         	4.576
MS.138         	14.273         	4.574
MS.139         	14.245         	4.612
MS.140         	14.215         	4.58
MS.141         	14.188         	4.584
MS.142         	14.16          	4.528
MS.143         	14.13          	4.594
MS.144         	14.102         	4.594
MS.145         	14.075         	4.506
MS.146         	14.047         	4.556
MS.147         	14.017         	4.554
MS.148         	13.99          	4.508
MS.149         	13.962         	4.484
MS.150         	13.935         	4.504
MS.151         	13.907         	4.486
MS.152         	13.88          	4.427
MS.153         	13.85          	4.498
MS.154         	13.822         	4.423
MS.155         	13.795         	4.542
MS.156         	13.767         	4.471
MS.157         	13.74          	4.528
MS.158         	13.712         	4.471
MS.159         	13.685         	4.465
MS.160         	13.657         	4.457
MS.161         	13.632         	4.455
MS.162         	13.605         	4.564
MS.163         	13.577         	4.488
MS.164         	13.55          	4.506
MS.165         	13.523         	4.449
MS.166         	13.495         	4.488
MS.167         	13.467         	4.373
MS.168         	13.443         	4.451
MS.169         	13.415         	4.389
MS.170         	13.387         	4.409
MS.171         	13.362         	4.355
MS.172         	13.335         	4.409
MS.173         	13.307         	4.423
MS.174         	13.282         	4.417
MS.175         	13.255         	4.437
MS.176         	13.227         	4.453
MS.177         	13.202         	4.391
MS.178         	13.175         	4.477
MS.179         	13.15          	4.401
MS.180         	13.122         	4.453
MS.181         	13.097         	4.401
MS.182         	13.07          	4.393
MS.183         	13.045         	4.371
MS.184         	13.017         	4.278
MS.185         	12.992         	4.343
MS.186         	12.967         	4.326
MS.187         	12.94          	4.433
MS.188         	12.915         	4.572
MS.189         	12.89          	4.427
MS.190         	12.862         	4.27
MS.191         	12.837         	4.508
MS.192         	12.812         	4.349
MS.193         	12.785         	4.423
MS.194         	12.76          	4.375
MS.195         	12.735         	4.405
MS.196         	12.71          	4.272
MS.197         	12.685         	4.381
MS.198         	12.66          	4.252
MS.199         	12.632         	4.234
MS.200         	12.608         	4.339
MS.201         	12.582         	4.28
MS.202         	12.557         	4.228
MS.203         	12.532         	4.198
MS.204         	12.507         	4.274
MS.205         	12.483         	4.193
MS.206         	12.457         	4.181
MS.207         	12.432         	4.2
MS.208         	12.407         	4.262
MS.209         	12.382         	4.183
MS.210         	12.36          	4.187
MS.211         	12.335         	4.143
MS.212         	12.31          	4.191
MS.213         	12.285         	4.133
MS.214         	12.26          	4.133
MS.215         	12.235         	4.135
MS.216         	12.212         	4.105
MS.217         	12.188         	4.103
MS.218         	12.162         	4.079
MS.219         	12.137         	4.042
MS.220         	12.115         	4.036
MS.221         	12.09          	4.071
MS.222         	12.065         	4.065
MS.223         	12.042         	4.052
MS.224         	12.017         	4.022
MS.225         	11.992         	3.996
MS.226         	11.97          	3.98
MS.227         	11.945         	4.002
MS.228         	11.922         	3.988
MS.229         	11.898         	4.067
MS.230         	11.875         	3.843
MS.231         	11.85          	4.067
MS.232         	11.827         	3.903
MS.233         	11.802         	3.93
MS.234         	11.78          	3.893
MS.235         	11.755         	3.768
MS.236         	11.733         	3.861
MS.237         	11.71          	3.718
MS.238         	11.685         	3.754
MS.239         	11.662         	3.891
MS.240         	11.64          	3.859
MS.241         	11.615         	3.744
MS.242         	11.592         	3.791
MS.243         	11.57          	3.722
MS.244         	11.547         	3.68
MS.245         	11.523         	3.805
MS.246         	11.5           	3.736
MS.247         	11.477         	3.7
MS.248         	11.455         	3.609
MS.249         	11.432         	3.68
MS.250         	11.407         	3.611
MS.251         	11.385         	3.676
MS.252         	11.363         	3.712
MS.253         	11.34          	3.489
MS.254         	11.318         	3.531
MS.255         	11.295         	3.444
MS.256         	11.273         	3.503
MS.257         	11.25          	3.525
MS.258         	11.227         	3.45
MS.259         	11.205         	3.539
MS.260         	11.182         	3.515
MS.261         	11.16          	3.46
MS.262         	11.137         	3.45
MS.263         	11.115         	3.386
MS.264         	11.092         	3.42
MS.265         	11.073         	3.4
MS.266         	11.05          	3.398
MS.267         	11.028         	3.354
MS.268         	11.005         	3.249
MS.269         	10.983         	3.245
MS.270         	10.962         	3.285
MS.271         	10.94          	3.323
MS.272         	10.917         	3.239
MS.273         	10.895         	3.203
MS.274         	10.875         	3.17
MS.275         	10.852         	3.168
MS.276         	10.83          	3.295
MS.277         	10.81          	3.09
MS.278         	10.787         	3.092
MS.279         	10.765         	3.047
MS.280         	10.745         	3.051
MS.281         	10.722         	3.108
MS.282         	10.702         	3.017
MS.283         	10.68          	3.094
MS.284         	10.657         	3.047
MS.285         	10.637         	3.031
MS.286         	10.615         	2.977
MS.287         	10.595         	3.062
MS.288         	10.573         	3.025
MS.289         	10.552         	2.965
MS.290         	10.532         	2.987
MS.291         	10.51          	3.053
MS.292         	10.49          	3.035
MS.293         	10.467         	2.917
MS.294         	10.448         	2.9
MS.295         	10.427         	2.856
MS.296         	10.405         	2.975
MS.297         	10.385         	2.818
MS.298         	10.365         	2.828
MS.299         	10.342         	2.759
MS.300         	10.323         	2.826
MS.301         	10.302         	2.828
MS.302         	10.282         	2.663
MS.303         	10.26          	2.715
MS.304         	10.24          	2.647
MS.305         	10.22          	2.498
MS.306         	10.2           	2.538
MS.307         	10.18          	2.612
MS.308         	10.16          	2.598
MS.309         	10.14          	2.645
MS.310         	10.117         	2.487
MS.311         	10.097         	2.433
MS.312         	10.077         	2.546
MS.313         	10.057         	2.487
MS.314         	10.037         	2.232
MS.315         	10.017         	2.302
MS.316         	9.997          	2.357
MS.317         	9.977          	2.292
MS.318         	9.957          	2.399
MS.319         	9.938          	2.399
MS.320         	9.917          	2.258
MS.321         	9.898          	2.274
MS.322         	9.877          	2.203
MS.323         	9.86           	2.264
MS.324         	9.84           	2.129
MS.325         	9.82           	2.332
MS.326         	9.8            	2.119
MS.327         	9.78           	2.091
MS.328         	9.76           	2
MS.329         	9.74           	2.002
MS.330         	9.722          	2.014
MS.331         	9.702          	2.044
MS.332         	9.682          	2.091
MS.333         	9.662          	1.899
MS.334         	9.645          	2.054
MS.335         	9.625          	1.809
MS.336         	9.605          	2.004
MS.337         	9.587          	1.901
MS.338         	9.568          	1.909
MS.339         	9.547          	1.853
MS.340         	9.53           	1.795
MS.341         	9.51           	1.867
MS.342         	9.49           	1.829
MS.343         	9.472          	1.744
MS.344         	9.452          	1.785
MS.345         	9.435          	1.734
MS.346         	9.415          	1.629
MS.347         	9.398          	1.625
MS.348         	9.377          	1.642
MS.349         	9.36           	1.631
MS.350         	9.34           	1.621
MS.351         	9.323          	1.533
MS.352         	9.302          	1.591
MS.353         	9.285          	1.561
MS.354         	9.265          	1.533
MS.355         	9.247          	1.531
MS.356         	9.23           	1.561
MS.357         	9.21           	1.486
MS.358         	9.193          	1.523
MS.359         	9.175          	1.426
MS.360         	9.155          	1.362
MS.361         	9.137          	1.368
MS.362         	9.12           	1.313
MS.363         	9.1            	1.327
MS.364         	9.082          	1.364
MS.365         	9.065          	1.321
MS.366         	9.047          	1.303
MS.367         	9.028          	1.341
MS.368         	9.01           	1.333
MS.369         	8.992          	1.273
MS.370         	8.975          	1.255
MS.371         	8.957          	1.247
MS.372         	8.938          	1.233
MS.373         	8.92           	1.235
MS.374         	8.903          	1.158
MS.375         	8.885          	1.194
MS.376         	8.867          	1.19
MS.377         	8.85           	1.063
MS.378         	8.832          	1.063
MS.379         	8.815          	1.094
MS.380         	8.797          	1.142
MS.381         	8.78           	1.11
MS.382         	8.762          	1.041
MS.383         	8.745          	1.055
MS.384         	8.727          	1.082
MS.385         	8.71           	1.015
MS.386         	8.693          	0.922
MS.387         	8.675          	0.961
MS.388         	8.658          	0.973
MS.389         	8.64           	1.015
MS.390         	8.622          	0.88
MS.391         	8.605          	0.9
MS.392         	8.587          	0.898
MS.393         	8.57           	0.856
MS.394         	8.552          	0.882
MS.395         	8.537          	0.912
MS.396         	8.52           	0.85
MS.397         	8.502          	0.802
MS.398         	8.485          	0.804
MS.399         	8.467          	0.717
MS.400         	8.452          	0.8
MS.401         	8.435          	0.769
MS.402         	8.417          	0.824
MS.403         	8.4            	0.737
MS.404         	8.385          	0.771
MS.405         	8.367          	0.588
MS.406         	8.35           	0.653
MS.407         	8.335          	0.624
MS.408         	8.318          	0.683
MS.409         	8.3            	0.634
MS.410         	8.285          	0.62
MS.411         	8.267          	0.651
MS.412         	8.252          	0.536
MS.413         	8.235          	0.57
MS.414         	8.217          	0.645
MS.415         	8.202          	0.52
MS.416         	8.185          	0.588
MS.417         	8.17           	0.512
MS.418         	8.153          	0.522
MS.419         	8.137          	0.546
MS.420         	8.12           	0.479
MS.421         	8.105          	0.493
MS.422         	8.087          	0.473
MS.423         	8.073          	0.473
MS.424         	8.055          	0.425
MS.425         	8.04           	0.518
MS.426         	8.023          	0.431
MS.427         	8.007          	0.403
MS.428         	7.992          	0.413
MS.429         	7.975          	0.381
MS.430         	7.96           	0.409
MS.431         	7.942          	0.326
MS.432         	7.927          	0.35
MS.433         	7.912          	0.369
MS.434         	7.895          	0.336
MS.435         	7.88           	0.276
MS.436         	7.865          	0.308
MS.437         	7.85           	0.326
MS.438         	7.832          	0.234
MS.439         	7.817          	0.34
MS.440         	7.802          	0.224
MS.441         	7.787          	0.242
MS.442         	7.77           	0.183
MS.443         	7.755          	0.191
MS.444         	7.74           	0.189
MS.445         	7.725          	0.288
MS.446         	7.71           	0.274
MS.447         	7.692          	0.232
MS.448         	7.677          	0.185
MS.449         	7.662          	0.169
MS.450         	7.648          	0.181
MS.451         	7.632          	0.155
MS.452         	7.617          	0.205
MS.453         	7.602          	0.177
MS.454         	7.587          	0.121
MS.455         	7.572          	0.091
MS.456         	7.555          	0.149
MS.457         	7.54           	0.151
MS.458         	7.525          	0.171
MS.459         	7.51           	0.081
MS.460         	7.495          	0.123
MS.461         	7.48           	0.125
MS.462         	7.465          	0.161
MS.463         	7.45           	0.181
MS.464         	7.438          	0.054
MS.465         	7.422          	0.175
MS.466         	7.407          	0.095
MS.467         	7.392          	0.141
MS.468         	7.378          	0.155
MS.469         	7.362          	0.157
MS.470         	7.347          	0.129
MS.471         	7.332          	0.155
MS.472         	7.317          	0.123
MS.473         	7.302          	0.171
MS.474         	7.29           	0.161
MS.475         	7.275          	0.143
MS.476         	7.26           	0.159
MS.477         	7.245          	0.155
MS.478         	7.23           	0.151
MS.479         	7.217          	0.171
MS.480         	7.202          	0.193
MS.481         	7.188          	0.149
MS.482         	7.172          	0.143
MS.483         	7.16           	0.147
MS.484         	7.145          	0.163
MS.485         	7.13           	0.133
MS.486         	7.115          	0.137
MS.487         	7.102          	0.149
MS.488         	7.087          	0.125
MS.489         	7.072          	0.143
MS.490         	7.06           	0.153
MS.491         	7.045          	0.099
MS.492         	7.032          	0.101
MS.493         	7.017          	0.125
MS.494         	7.003          	0.109
MS.495         	6.99           	0.111
MS.496         	6.975          	0.121
MS.497         	6.962          	0.099
MS.498         	6.947          	0.087
MS.499         	6.932          	0.103
MS.500         	6.92           	0.075
MS.501         	6.905          	0.068
MS.502         	6.892          	0.115
MS.503         	6.878          	0.103
MS.504         	6.865          	0.073
MS.505         	6.85           	0.121
MS.506         	6.837          	0.087
MS.507         	6.822          	0.083
MS.508         	6.81           	0.066
MS.509         	6.795          	0.081
MS.510         	6.782          	0.073
MS.511         	6.77           	0.083
MS.512         	6.755          	0.089
MS.513         	6.742          	0.095
MS.514         	6.727          	0.062
MS.515         	6.715          	0.079
MS.516         	6.702          	0.058
MS.517         	6.688          	0.081
MS.518         	6.675          	0.06
MS.519         	6.662          	0.04
MS.520         	6.648          	0.099
MS.521         	6.635          	0.048
MS.522         	6.622          	0.093
MS.523         	6.608          	0.089
MS.524         	6.595          	0.081
MS.525         	6.582          	0.066
MS.526         	6.57           	0.075
MS.527         	6.555          	0.04
MS.528         	6.543          	0.085
MS.529         	6.53           	0.068
MS.530         	6.517          	0.062
MS.531         	6.503          	0.068
MS.532         	6.49           	0.052
MS.533         	6.477          	0.064
MS.534         	6.465          	0.05
MS.535         	6.452          	0.097
MS.536         	6.44           	0.07
MS.537         	6.425          	0.046
MS.538         	6.412          	0.06
MS.539         	6.4            	0.091
MS.540         	6.387          	0.046
MS.541         	6.375          	0.085
MS.542         	6.362          	0.081
MS.543         	6.35           	0.079
MS.544         	6.338          	0.048
MS.545         	6.325          	0.064
MS.546         	6.312          	0.062
MS.547         	6.3            	0.083
MS.548         	6.287          	0.079
MS.549         	6.273          	0.085
MS.550         	6.26           	0.083
MS.551         	6.247          	0.075
MS.552         	6.235          	0.06
MS.553         	6.222          	0.079
MS.554         	6.213          	0.095
MS.555         	6.2            	0.089
MS.556         	6.188          	0.081
MS.557         	6.175          	0.068
MS.558         	6.162          	0.064
MS.559         	6.15           	0.083
MS.560         	6.137          	0.06
MS.561         	6.125          	0.101
MS.562         	6.112          	0.062
MS.563         	6.1            	0.103
MS.564         	6.088          	0.07
MS.565         	6.075          	0.058
MS.566         	6.065          	0.068
MS.567         	6.052          	0.073
MS.568         	6.04           	0.06
MS.569         	6.027          	0.081
MS.570         	6.015          	0.103
MS.571         	6.003          	0.083
MS.572         	5.992          	0.085
MS.573         	5.98           	0.075
MS.574         	5.967          	0.105
MS.575         	5.955          	0.097
MS.576         	5.945          	0.079
MS.577         	5.932          	0.083
MS.578         	5.92           	0.083
MS.579         	5.907          	0.07
MS.580         	5.898          	0.058
MS.581         	5.885          	0.087
MS.582         	5.872          	0.07
MS.583         	5.862          	0.091
MS.584         	5.85           	0.093
MS.585         	5.838          	0.075
MS.586         	5.825          	0.085
MS.587         	5.815          	0.091
MS.588         	5.802          	0.077
MS.589         	5.793          	0.087
MS.590         	5.78           	0.062
MS.591         	5.767          	0.058
MS.592         	5.757          	0.056
MS.593         	5.745          	0.091
MS.594         	5.733          	0.091
MS.595         	5.722          	0.081
MS.596         	5.71           	0.089
MS.597         	5.7            	0.064
MS.598         	5.688          	0.095
MS.599         	5.677          	0.103
MS.600         	5.665          	0.05
MS.601         	5.655          	0.083
MS.602         	5.642          	0.095
MS.603         	5.632          	0.077
MS.604         	5.62           	0.083
MS.605         	5.61           	0.101
MS.606         	5.597          	0.066
MS.607         	5.588          	0.095
MS.608         	5.575          	0.111
MS.609         	5.565          	0.079
MS.610         	5.552          	0.062
MS.611         	5.543          	0.054
MS.612         	5.53           	0.105
MS.613         	5.52           	0.068
MS.614         	5.51           	0.062
MS.615         	5.497          	0.097
MS.616         	5.487          	0.073
MS.617         	5.475          	0.079
MS.618         	5.465          	0.089
MS.619         	5.455          	0.079
MS.620         	5.443          	0.089
MS.621         	5.432          	0.075
MS.622         	5.422          	0.095
MS.623         	5.41           	0.095
MS.624         	5.4            	0.075
MS.625         	5.39           	0.083
MS.626         	5.378          	0.058
MS.627         	5.367          	0.073
MS.628         	5.358          	0.066
MS.629         	5.345          	0.052
MS.630         	5.335          	0.077
MS.631         	5.325          	0.075
MS.632         	5.315          	0.077
MS.633         	5.302          	0.079
MS.634         	5.293          	0.07
MS.635         	5.282          	0.097
MS.636         	5.273          	0.07
MS.637         	5.26           	0.107
MS.638         	5.25           	0.107
MS.639         	5.24           	0.093
MS.640         	5.23           	0.066
MS.641         	5.22           	0.087
MS.642         	5.21           	0.085
MS.643         	5.197          	0.068
MS.644         	5.188          	0.087
MS.645         	5.177          	0.068
MS.646         	5.168          	0.073
MS.647         	5.157          	0.093
MS.648         	5.148          	0.097
MS.649         	5.137          	0.066
MS.650         	5.125          	0.089
MS.651         	5.115          	0.056
MS.652         	5.105          	0.06
MS.653         	5.095          	0.062
MS.654         	5.085          	0.085
MS.655         	5.075          	0.093
MS.656         	5.065          	0.079
MS.657         	5.055          	0.07
MS.658         	5.045          	0.066
MS.659         	5.035          	0.115
MS.660         	5.025          	0.081
MS.661         	5.015          	0.091
MS.662         	5.005          	0.101
MS.663         	4.995          	0.079
MS.664         	4.985          	0.095
MS.665         	4.975          	0.079
MS.666         	4.965          	0.07
MS.667         	4.955          	0.075
MS.668         	4.945          	0.062
MS.669         	4.935          	0.062
MS.670         	4.925          	0.085
MS.671         	4.915          	0.083
MS.672         	4.905          	0.099
MS.673         	4.895          	0.068
MS.674         	4.885          	0.093
MS.675         	4.875          	0.073
MS.676         	4.867          	0.081
MS.677         	4.858          	0.083
MS.678         	4.847          	0.066
MS.679         	4.838          	0.07
MS.680         	4.827          	0.064
MS.681         	4.818          	0.099
MS.682         	4.807          	0.083
MS.683         	4.8            	0.058
MS.684         	4.79           	0.077
MS.685         	4.78           	0.077
MS.686         	4.77           	0.058
MS.687         	4.76           	0.068
MS.688         	4.75           	0.079
MS.689         	4.742          	0.062
MS.690         	4.733          	0.085
MS.691         	4.722          	0.056
MS.692         	4.713          	0.085
MS.693         	4.705          	0.079
MS.694         	4.695          	0.066
MS.695         	4.685          	0.081
MS.696         	4.675          	0.058
MS.697         	4.668          	0.066
MS.698         	4.657          	0.081
MS.699         	4.648          	0.058
MS.700         	4.637          	0.103
MS.701         	4.63           	0.121
MS.702         	4.62           	0.093
MS.703         	4.61           	0.103
MS.704         	4.602          	0.079
MS.705         	4.592          	0.091
MS.706         	4.582          	0.066
MS.707         	4.575          	0.085
MS.708         	4.565          	0.066
MS.709         	4.555          	0.087
MS.710         	4.548          	0.091
MS.711         	4.537          	0.075
MS.712         	4.527          	0.083
MS.713         	4.52           	0.135
MS.714         	4.51           	0.101
MS.715         	4.503          	0.087
MS.716         	4.492          	0.091
MS.717         	4.483          	0.056
MS.718         	4.475          	0.073
MS.719         	4.465          	0.079
MS.720         	4.457          	0.095
MS.721         	4.447          	0.093
MS.722         	4.438          	0.101
MS.723         	4.43           	0.087
MS.724         	4.42           	0.06
MS.725         	4.412          	0.093
MS.726         	4.402          	0.091
MS.727         	4.395          	0.073
MS.728         	4.385          	0.081
MS.729         	4.378          	0.099
MS.730         	4.367          	0.081
MS.731         	4.36           	0.058
MS.732         	4.35           	0.07
MS.733         	4.342          	0.085
MS.734         	4.332          	0.083
MS.735         	4.325          	0.085
MS.736         	4.315          	0.101
MS.737         	4.307          	0.075
MS.738         	4.3            	0.081
MS.739         	4.29           	0.062
MS.740         	4.282          	0.062
MS.741         	4.273          	0.068
MS.742         	4.265          	0.127
MS.743         	4.255          	0.077
MS.744         	4.247          	0.064
MS.745         	4.24           	0.073
MS.746         	4.23           	0.103
MS.747         	4.222          	0.095
MS.748         	4.215          	0.077
MS.749         	4.205          	0.075
MS.750         	4.197          	0.081
MS.751         	4.188          	0.083
MS.752         	4.18           	0.066
MS.753         	4.173          	0.087
MS.754         	4.162          	0.07
MS.755         	4.155          	0.099
MS.756         	4.148          	0.095
MS.757         	4.137          	0.087
MS.758         	4.13           	0.07
MS.759         	4.122          	0.085
MS.760         	4.115          	0.095
MS.761         	4.105          	0.058
MS.762         	4.097          	0.079
MS.763         	4.09           	0.137
MS.764         	4.08           	0.105
MS.765         	4.072          	0.083
MS.766         	4.065          	0.077
MS.767         	4.057          	0.091
MS.768         	4.048          	0.089
MS.769         	4.04           	0.062
MS.770         	4.032          	0.054
MS.771         	4.025          	0.085
MS.772         	4.017          	0.062
MS.773         	4.007          	0.06
MS.774         	4              	0.062
MS.775         	3.992          	0.091
MS.776         	3.985          	0.075
MS.777         	3.977          	0.068
MS.778         	3.967          	0.099
MS.779         	3.96           	0.075
MS.780         	3.952          	0.101
MS.781         	3.945          	0.06
MS.782         	3.938          	0.091
MS.783         	3.93           	0.101
MS.784         	3.92           	0.127
MS.785         	3.912          	0.062
MS.786         	3.905          	0.083
MS.787         	3.897          	0.091
MS.788         	3.89           	0.079
MS.789         	3.882          	0.077
MS.790         	3.875          	0.081
MS.791         	3.867          	0.081
MS.792         	3.86           	0.115
MS.793         	3.85           	0.091
MS.794         	3.842          	0.097
MS.795         	3.835          	0.127
MS.796         	3.827          	0.099
MS.797         	3.82           	0.077
MS.798         	3.812          	0.097
MS.799         	3.805          	0.077
MS.800         	3.797          	0.083
MS.801         	3.79           	0.095
MS.802         	3.783          	0.077
MS.803         	3.775          	0.079
MS.804         	3.767          	0.07
MS.805         	3.76           	0.087
MS.806         	3.752          	0.066
MS.807         	3.745          	0.087
MS.808         	3.737          	0.075
MS.809         	3.73           	0.095
MS.810         	3.722          	0.068
MS.811         	3.715          	0.113
MS.812         	3.707          	0.093
MS.813         	3.7            	0.101
MS.814         	3.692          	0.062
MS.815         	3.685          	0.089
MS.816         	3.678          	0.07
MS.817         	3.67           	0.056
MS.818         	3.662          	0.073
MS.819         	3.655          	0.06
MS.820         	3.647          	0.079
MS.821         	3.642          	0.091
MS.822         	3.635          	0.073
MS.823         	3.627          	0.087
MS.824         	3.62           	0.107
MS.825         	3.612          	0.081
MS.826         	3.605          	0.077
MS.827         	3.597          	0.097
MS.828         	3.59           	0.089
MS.829         	3.582          	0.101
MS.830         	3.577          	0.07
MS.831         	3.57           	0.095
MS.832         	3.562          	0.113
MS.833         	3.555          	0.111
MS.834         	3.547          	0.07
MS.835         	3.54           	0.089
MS.836         	3.535          	0.073
MS.837         	3.527          	0.091
MS.838         	3.52           	0.091
MS.839         	3.512          	0.089
MS.840         	3.505          	0.101
MS.841         	3.497          	0.113
MS.842         	3.492          	0.105
MS.843         	3.485          	0.083
MS.844         	3.477          	0.091
MS.845         	3.47           	0.093
MS.846         	3.465          	0.099
MS.847         	3.457          	0.087
MS.848         	3.45           	0.083
MS.849         	3.442          	0.064
MS.850         	3.435          	0.052
MS.851         	3.43           	0.089
MS.852         	3.422          	0.089
MS.853         	3.415          	0.091
MS.854         	3.41           	0.087
MS.855         	3.402          	0.113
MS.856         	3.395          	0.095
MS.857         	3.387          	0.066
MS.858         	3.382          	0.064
MS.859         	3.375          	0.07
MS.860         	3.367          	0.111
MS.861         	3.362          	0.062
MS.862         	3.355          	0.081
MS.863         	3.347          	0.101
MS.864         	3.342          	0.095
MS.865         	3.335          	0.068
MS.866         	3.327          	0.077
MS.867         	3.322          	0.085
MS.868         	3.315          	0.109
MS.869         	3.307          	0.089
MS.870         	3.303          	0.109
MS.871         	3.295          	0.097
MS.872         	3.287          	0.091
MS.873         	3.283          	0.083
MS.874         	3.275          	0.079
MS.875         	3.267          	0.079
MS.876         	3.262          	0.093
MS.877         	3.255          	0.099
MS.878         	3.25           	0.091
MS.879         	3.242          	0.079
MS.880         	3.235          	0.085
MS.881         	3.23           	0.093
MS.882         	3.222          	0.068
MS.883         	3.217          	0.081
MS.884         	3.21           	0.058
MS.885         	3.205          	0.079
MS.886         	3.197          	0.085
MS.887         	3.19           	0.099
MS.888         	3.185          	0.137
MS.889         	3.178          	0.089
MS.890         	3.172          	0.105
MS.891         	3.165          	0.075
MS.892         	3.16           	0.113
MS.893         	3.152          	0.07
MS.894         	3.148          	0.097
MS.895         	3.14           	0.073
MS.896         	3.135          	0.097
MS.897         	3.127          	0.087
MS.898         	3.122          	0.105
MS.899         	3.115          	0.081
MS.900         	3.11           	0.066
DERIVED EXCITABILITY VARIABLES
Program = QTracP 9/10/2021
Threshold method = 6 (optimised for CAP, using data for present condition only)
SR method = 1 (using actual data values)
6.                 	0.000               	Peak response\(mV)
9.                 	31.2                	Temperature ( C)
17.                	62                  	Age (years)
18.                	2                   	Sex (M=1, F=2)

EXTRA VARIABLES

MScPeak(mV) = 4.87
MScS5(mA) = 7.78
MScS50(mA) = 10.08
MScS95(mA) = 14.48
MScNSteps = 0
MScSteps(%) = 0.0
MScStepMax(%) = 0.0
MScD50 = 62
MScSlope = 4.03
MScDuration(min) = 8.5
MSFTraces = 578
MSFPeakAmp(mV) = 4.87
MSFNUnits = 162
MSFMeanUnitAmp(uV) = 30.1
MSFHuntTime(m) = 3.19
MSFError(%) = 1.39
MSFNLarge = 44.4
MSFMedianAmp(%) = 0.491
MSFMedianAmp(mV) = 0.0239
MSFHalfAmpAmp(%) = 0.717
MSFHalfAmpAmp(mV) = 0.0349
MSFLargestAmp(%) = 2.71
MSFLargestAmp(mV) = 0.132
MSFMeanRS(%) = 2
MSFSizeLimit(uV) = 12.2
MSFLimitType = 1
MSFSmallestAmp(uV) = 12.2
MSFOpts = 10106121

EXTRA WAVEFORMS


!MScan Model
!162
	1	6.92	0.4	2
	2	7	0.26	2
	3	7.05	0.33	2
	4	7.11	0.29	2
	5	7.6	0.33	2
	6	7.64	0.53	2
	7	7.74	0.94	2
	8	7.82	0.83	2
	9	7.84	0.36	2
	10	7.87	0.45	2
	11	7.9	0.56	2
	12	7.94	0.49	2
	13	7.95	0.29	2
	14	7.97	0.29	2
	15	7.98	0.3	2
	16	8.02	0.47	2
	17	8.03	0.28	2
	18	8.06	0.44	2
	19	8.09	0.57	2
	20	8.12	0.5	2
	21	8.16	0.48	2
	22	8.19	0.37	2
	23	8.25	1.02	2
	24	8.32	0.82	2
	25	8.36	1.1	2
	26	8.39	0.51	2
	27	8.42	0.49	2
	28	8.45	0.64	2
	29	8.47	0.48	2
	30	8.51	0.59	2
	31	8.53	0.4	2
	32	8.56	0.52	2
	33	8.58	0.62	2
	34	8.61	0.51	2
	35	8.63	0.36	2
	36	8.65	0.3	2
	37	8.67	0.29	2
	38	8.69	0.36	2
	39	8.71	0.39	2
	40	8.73	0.6	2
	41	8.76	0.37	2
	42	8.79	0.55	2
	43	8.81	0.37	2
	44	8.83	0.36	2
	45	8.85	0.5	2
	46	8.87	0.37	2
	47	8.89	0.31	2
	48	8.91	0.36	2
	49	8.93	0.44	2
	50	8.94	0.31	2
	51	8.95	0.37	2
	52	8.97	0.33	2
	53	9	0.46	2
	54	9.03	0.38	2
	55	9.06	0.37	2
	56	9.09	0.39	2
	57	9.11	0.51	2
	58	9.14	0.62	2
	59	9.16	0.52	2
	60	9.17	0.32	2
	61	9.19	0.32	2
	62	9.21	0.48	2
	63	9.22	0.28	2
	64	9.24	0.28	2
	65	9.25	0.28	2
	66	9.27	0.38	2
	67	9.28	0.38	2
	68	9.3	0.42	2
	69	9.32	0.34	2
	70	9.33	0.33	2
	71	9.35	0.39	2
	72	9.37	0.34	2
	73	9.4	0.48	2
	74	9.41	0.25	2
	75	9.42	0.25	2
	76	9.43	0.25	2
	77	9.43	0.25	2
	78	9.46	0.71	2
	79	9.49	0.71	2
	80	9.51	0.67	2
	81	9.55	0.89	2
	82	9.6	1.27	2
	83	9.67	1.21	2
	84	9.72	1.4	2
	85	9.75	0.55	2
	86	9.77	0.46	2
	87	9.8	0.62	2
	88	9.82	0.74	2
	89	9.96	2.71	2
	90	10.02	2.04	2
	91	10.07	0.91	2
	92	10.12	1.16	2
	93	10.15	0.76	2
	94	10.18	1.04	2
	95	10.19	1.99	2
	96	10.21	0.8	2
	97	10.23	0.6	2
	98	10.25	0.51	2
	99	10.29	0.6	2
	100	10.31	0.6	2
	101	10.33	0.71	2
	102	10.37	1.28	2
	103	10.41	1.13	2
	104	10.47	0.85	2
	105	10.74	0.97	2
	106	10.77	0.44	2
	107	10.79	0.32	2
	108	10.81	0.61	2
	109	10.84	0.63	2
	110	10.88	0.72	2
	111	10.92	1.06	2
	112	10.96	0.66	2
	113	10.98	0.31	2
	114	11	0.29	2
	115	11.01	0.29	2
	116	11.03	0.31	2
	117	11.05	0.35	2
	118	11.06	0.35	2
	119	11.12	1.1	2
	120	11.2	0.83	2
	121	11.27	1.24	2
	122	11.33	0.81	2
	123	11.37	0.41	2
	124	11.42	0.93	2
	125	11.46	0.93	2
	126	11.51	0.79	2
	127	11.67	1.58	2
	128	11.76	1.54	2
	129	11.82	0.39	2
	130	11.85	1.18	2
	131	12	1.83	2
	132	12.09	0.3	2
	133	12.12	0.29	2
	134	12.16	0.36	2
	135	12.19	0.28	2
	136	12.22	0.25	2
	137	12.26	0.44	2
	138	12.3	0.43	2
	139	12.34	0.37	2
	140	12.4	0.55	2
	141	12.49	0.58	2
	142	12.54	0.37	2
	143	12.59	0.5	2
	144	12.73	1.89	2
	145	13.12	1.01	2
	146	13.47	0.8	2
	147	13.86	1.08	2
	148	13.96	0.54	2
	149	14.01	0.28	2
	150	14.06	0.33	2
	151	14.27	0.76	2
	152	14.37	0.5	2
	153	14.47	0.38	2
	154	14.51	0.3	2
	155	14.68	0.82	2
	156	15.31	0.78	2
	157	15.55	0.96	2
	158	15.72	0.39	2
	159	15.82	0.45	2
	160	16.95	0.93	2
	161	17.2	0.65	2
	162	17.7	1	2

