File:              	C:\Qtrac\Data\Daniel M Sørensen\MScan multicentre study\Data from centres\Antalya\Processed data\TR.NC.ANT.1.1-NCC00207C.QZD
Name:              	TR.NC.ANT.1.1
Protocol:          	MSCAN-R2
Date:              	7/2/20
Start time:        	20:19:36
Age:               	68
Sex:               	F
Temperature:       	31.5
S/R sites:         	TA
NC/disease:        	NC
Operator:          	AB
Comments:          	LEFT TA
M-SCAN DATA (7.8-1.7m)
Scanpts: 6, 13, 642, 646
Stim. (mA)     	Amp. (mV)
MS.1           	22.5           	6.02
MS.2           	22.5           	5.998
MS.3           	22.5           	6.016
MS.4           	22.5           	5.994
MS.5           	22.5           	6.01
MS.6           	22.5           	5.994
MS.7           	22.5           	6.006
MS.8           	22.5           	6.034
MS.9           	22.5           	6.024
MS.10          	22.5           	6.01
MS.11          	22.5           	6.012
MS.12          	22.5           	6.024
MS.13          	22.5           	5.992
MS.14          	22.5           	5.998
MS.15          	22.5           	5.998
MS.16          	22.5           	6.004
MS.17          	22.5           	5.998
MS.18          	22.5           	6.002
MS.19          	22.5           	6.012
MS.20          	22.5           	6.01
MS.21          	22.5           	6.01
MS.22          	22.5           	5.99
MS.23          	22.5           	6.008
MS.24          	22.41          	5.968
MS.25          	22.365         	5.976
MS.26          	22.32          	5.986
MS.27          	22.275         	5.982
MS.28          	22.233         	5.988
MS.29          	22.188         	6.018
MS.30          	22.142         	5.964
MS.31          	22.097         	5.992
MS.32          	22.055         	5.99
MS.33          	22.01          	5.978
MS.34          	21.967         	5.988
MS.35          	21.922         	5.98
MS.36          	21.877         	5.964
MS.37          	21.835         	5.996
MS.38          	21.792         	5.98
MS.39          	21.747         	5.998
MS.40          	21.705         	5.99
MS.41          	21.66          	5.966
MS.42          	21.618         	5.978
MS.43          	21.575         	5.962
MS.44          	21.532         	5.972
MS.45          	21.487         	5.974
MS.46          	21.445         	5.976
MS.47          	21.403         	5.994
MS.48          	21.36          	5.95
MS.49          	21.317         	5.966
MS.50          	21.275         	5.982
MS.51          	21.233         	5.98
MS.52          	21.19          	5.948
MS.53          	21.147         	5.934
MS.54          	21.105         	5.952
MS.55          	21.062         	5.942
MS.56          	21.02          	5.966
MS.57          	20.98          	5.95
MS.58          	20.938         	5.944
MS.59          	20.895         	5.964
MS.60          	20.852         	5.934
MS.61          	20.812         	5.972
MS.62          	20.77          	5.946
MS.63          	20.727         	5.922
MS.64          	20.688         	5.956
MS.65          	20.645         	5.974
MS.66          	20.605         	5.932
MS.67          	20.562         	5.906
MS.68          	20.522         	5.948
MS.69          	20.483         	5.924
MS.70          	20.44          	5.891
MS.71          	20.4           	5.958
MS.72          	20.36          	5.946
MS.73          	20.317         	5.938
MS.74          	20.278         	5.948
MS.75          	20.237         	5.96
MS.76          	20.198         	5.96
MS.77          	20.155         	5.93
MS.78          	20.115         	5.94
MS.79          	20.075         	5.899
MS.80          	20.035         	5.924
MS.81          	19.995         	5.936
MS.82          	19.955         	5.847
MS.83          	19.915         	5.877
MS.84          	19.875         	5.895
MS.85          	19.837         	5.859
MS.86          	19.797         	5.785
MS.87          	19.757         	5.821
MS.88          	19.717         	5.696
MS.89          	19.677         	5.785
MS.90          	19.64          	5.74
MS.91          	19.6           	5.752
MS.92          	19.56          	5.676
MS.93          	19.522         	5.684
MS.94          	19.483         	5.76
MS.95          	19.442         	5.734
MS.96          	19.405         	5.716
MS.97          	19.365         	5.742
MS.98          	19.327         	5.708
MS.99          	19.288         	5.674
MS.100         	19.25          	5.692
MS.101         	19.212         	5.67
MS.102         	19.172         	5.692
MS.103         	19.135         	5.734
MS.104         	19.097         	5.658
MS.105         	19.057         	5.682
MS.106         	19.02          	5.7
MS.107         	18.983         	5.642
MS.108         	18.945         	5.611
MS.109         	18.907         	5.628
MS.110         	18.87          	5.615
MS.111         	18.83          	5.579
MS.112         	18.792         	5.567
MS.113         	18.755         	5.609
MS.114         	18.717         	5.521
MS.115         	18.68          	5.579
MS.116         	18.645         	5.501
MS.117         	18.608         	5.545
MS.118         	18.57          	5.567
MS.119         	18.532         	5.495
MS.120         	18.495         	5.474
MS.121         	18.458         	5.489
MS.122         	18.422         	5.481
MS.123         	18.385         	5.442
MS.124         	18.347         	5.44
MS.125         	18.31          	5.428
MS.126         	18.275         	5.464
MS.127         	18.237         	5.428
MS.128         	18.202         	5.41
MS.129         	18.165         	5.366
MS.130         	18.13          	5.388
MS.131         	18.092         	5.396
MS.132         	18.057         	5.394
MS.133         	18.02          	5.34
MS.134         	17.985         	5.305
MS.135         	17.948         	5.38
MS.136         	17.913         	5.319
MS.137         	17.878         	5.313
MS.138         	17.84          	5.259
MS.139         	17.805         	5.219
MS.140         	17.77          	5.289
MS.141         	17.735         	5.259
MS.142         	17.7           	5.235
MS.143         	17.663         	5.249
MS.144         	17.628         	5.227
MS.145         	17.592         	5.225
MS.146         	17.557         	5.257
MS.147         	17.522         	5.211
MS.148         	17.487         	5.197
MS.149         	17.452         	5.062
MS.150         	17.417         	5.074
MS.151         	17.382         	5.049
MS.152         	17.347         	5.074
MS.153         	17.315         	5.001
MS.154         	17.28          	5.015
MS.155         	17.245         	5.003
MS.156         	17.21          	4.983
MS.157         	17.175         	4.957
MS.158         	17.142         	4.961
MS.159         	17.108         	5.005
MS.160         	17.073         	4.951
MS.161         	17.04          	4.955
MS.162         	17.005         	4.896
MS.163         	16.97          	5.019
MS.164         	16.938         	4.838
MS.165         	16.903         	4.854
MS.166         	16.87          	4.721
MS.167         	16.835         	4.713
MS.168         	16.802         	4.772
MS.169         	16.767         	4.759
MS.170         	16.735         	4.828
MS.171         	16.702         	4.546
MS.172         	16.667         	4.651
MS.173         	16.635         	4.508
MS.174         	16.602         	4.54
MS.175         	16.567         	4.55
MS.176         	16.535         	4.484
MS.177         	16.503         	4.421
MS.178         	16.47          	4.399
MS.179         	16.438         	4.365
MS.180         	16.405         	4.33
MS.181         	16.37          	4.228
MS.182         	16.337         	4.272
MS.183         	16.305         	4.202
MS.184         	16.272         	4.141
MS.185         	16.24          	4.165
MS.186         	16.208         	4.157
MS.187         	16.175         	4.03
MS.188         	16.142         	4.012
MS.189         	16.11          	4.071
MS.190         	16.08          	3.942
MS.191         	16.047         	3.944
MS.192         	16.015         	3.891
MS.193         	15.983         	3.984
MS.194         	15.95          	3.853
MS.195         	15.92          	3.946
MS.196         	15.887         	3.809
MS.197         	15.855         	3.758
MS.198         	15.822         	3.799
MS.199         	15.792         	3.73
MS.200         	15.76          	3.738
MS.201         	15.73          	3.611
MS.202         	15.697         	3.603
MS.203         	15.667         	3.666
MS.204         	15.635         	3.573
MS.205         	15.602         	3.535
MS.206         	15.572         	3.45
MS.207         	15.542         	3.535
MS.208         	15.51          	3.414
MS.209         	15.48          	3.472
MS.210         	15.447         	3.422
MS.211         	15.417         	3.348
MS.212         	15.387         	3.269
MS.213         	15.355         	3.287
MS.214         	15.325         	3.221
MS.215         	15.295         	3.235
MS.216         	15.265         	3.194
MS.217         	15.233         	3.188
MS.218         	15.202         	3.092
MS.219         	15.172         	3.229
MS.220         	15.142         	2.979
MS.221         	15.112         	3.174
MS.222         	15.082         	3.09
MS.223         	15.052         	3.074
MS.224         	15.023         	2.975
MS.225         	14.992         	2.937
MS.226         	14.962         	2.933
MS.227         	14.932         	2.977
MS.228         	14.902         	2.854
MS.229         	14.872         	2.866
MS.230         	14.842         	2.808
MS.231         	14.812         	2.81
MS.232         	14.782         	2.806
MS.233         	14.755         	2.717
MS.234         	14.725         	2.643
MS.235         	14.695         	2.552
MS.236         	14.665         	2.63
MS.237         	14.637         	2.455
MS.238         	14.608         	2.546
MS.239         	14.577         	2.546
MS.240         	14.55          	2.407
MS.241         	14.52          	2.455
MS.242         	14.49          	2.34
MS.243         	14.462         	2.389
MS.244         	14.432         	2.318
MS.245         	14.405         	2.272
MS.246         	14.375         	2.367
MS.247         	14.347         	2.296
MS.248         	14.318         	2.278
MS.249         	14.29          	2.163
MS.250         	14.26          	2.218
MS.251         	14.233         	2.193
MS.252         	14.205         	2.175
MS.253         	14.175         	2.119
MS.254         	14.148         	2.141
MS.255         	14.12          	2.036
MS.256         	14.09          	2.038
MS.257         	14.062         	2.065
MS.258         	14.035         	2.014
MS.259         	14.007         	2.036
MS.260         	13.977         	1.962
MS.261         	13.95          	1.966
MS.262         	13.922         	1.926
MS.263         	13.895         	1.831
MS.264         	13.867         	1.853
MS.265         	13.84          	1.776
MS.266         	13.812         	1.728
MS.267         	13.785         	1.684
MS.268         	13.757         	1.728
MS.269         	13.73          	1.595
MS.270         	13.702         	1.549
MS.271         	13.675         	1.539
MS.272         	13.648         	1.507
MS.273         	13.62          	1.633
MS.274         	13.592         	1.488
MS.275         	13.565         	1.482
MS.276         	13.537         	1.569
MS.277         	13.51          	1.486
MS.278         	13.485         	1.331
MS.279         	13.457         	1.402
MS.280         	13.43          	1.335
MS.281         	13.403         	1.321
MS.282         	13.377         	1.313
MS.283         	13.35          	1.281
MS.284         	13.322         	1.255
MS.285         	13.297         	1.287
MS.286         	13.27          	1.225
MS.287         	13.242         	1.184
MS.288         	13.217         	1.291
MS.289         	13.19          	1.2
MS.290         	13.165         	1.221
MS.291         	13.137         	1.158
MS.292         	13.112         	1.148
MS.293         	13.085         	1.19
MS.294         	13.06          	1.126
MS.295         	13.032         	1.078
MS.296         	13.007         	1.055
MS.297         	12.983         	0.987
MS.298         	12.955         	1.076
MS.299         	12.93          	0.927
MS.300         	12.903         	1.001
MS.301         	12.877         	0.997
MS.302         	12.852         	0.959
MS.303         	12.827         	0.945
MS.304         	12.8           	0.884
MS.305         	12.775         	0.876
MS.306         	12.75          	0.86
MS.307         	12.725         	0.894
MS.308         	12.7           	0.943
MS.309         	12.672         	0.755
MS.310         	12.648         	0.743
MS.311         	12.622         	0.703
MS.312         	12.597         	0.709
MS.313         	12.572         	0.679
MS.314         	12.547         	0.701
MS.315         	12.523         	0.679
MS.316         	12.497         	0.669
MS.317         	12.472         	0.624
MS.318         	12.447         	0.669
MS.319         	12.422         	0.578
MS.320         	12.398         	0.576
MS.321         	12.372         	0.536
MS.322         	12.347         	0.542
MS.323         	12.322         	0.546
MS.324         	12.3           	0.54
MS.325         	12.275         	0.53
MS.326         	12.25          	0.522
MS.327         	12.225         	0.471
MS.328         	12.2           	0.481
MS.329         	12.177         	0.475
MS.330         	12.153         	0.457
MS.331         	12.127         	0.439
MS.332         	12.102         	0.419
MS.333         	12.08          	0.449
MS.334         	12.055         	0.405
MS.335         	12.032         	0.381
MS.336         	12.007         	0.407
MS.337         	11.983         	0.397
MS.338         	11.96          	0.381
MS.339         	11.935         	0.375
MS.340         	11.912         	0.381
MS.341         	11.887         	0.354
MS.342         	11.865         	0.357
MS.343         	11.84          	0.354
MS.344         	11.818         	0.393
MS.345         	11.792         	0.324
MS.346         	11.77          	0.324
MS.347         	11.745         	0.332
MS.348         	11.722         	0.32
MS.349         	11.7           	0.316
MS.350         	11.675         	0.306
MS.351         	11.653         	0.296
MS.352         	11.63          	0.286
MS.353         	11.605         	0.304
MS.354         	11.582         	0.278
MS.355         	11.56          	0.254
MS.356         	11.537         	0.258
MS.357         	11.512         	0.242
MS.358         	11.49          	0.258
MS.359         	11.467         	0.274
MS.360         	11.445         	0.242
MS.361         	11.422         	0.236
MS.362         	11.4           	0.224
MS.363         	11.375         	0.23
MS.364         	11.352         	0.216
MS.365         	11.33          	0.226
MS.366         	11.307         	0.234
MS.367         	11.285         	0.242
MS.368         	11.262         	0.211
MS.369         	11.24          	0.214
MS.370         	11.217         	0.205
MS.371         	11.195         	0.205
MS.372         	11.172         	0.185
MS.373         	11.15          	0.207
MS.374         	11.127         	0.201
MS.375         	11.108         	0.189
MS.376         	11.085         	0.127
MS.377         	11.062         	0.169
MS.378         	11.04          	0.175
MS.379         	11.017         	0.179
MS.380         	10.995         	0.163
MS.381         	10.975         	0.157
MS.382         	10.952         	0.175
MS.383         	10.93          	0.137
MS.384         	10.907         	0.165
MS.385         	10.887         	0.171
MS.386         	10.865         	0.155
MS.387         	10.842         	0.143
MS.388         	10.82          	0.129
MS.389         	10.8           	0.129
MS.390         	10.778         	0.123
MS.391         	10.757         	0.105
MS.392         	10.735         	0.119
MS.393         	10.712         	0.091
MS.394         	10.693         	0.095
MS.395         	10.67          	0.115
MS.396         	10.65          	0.097
MS.397         	10.627         	0.103
MS.398         	10.608         	0.089
MS.399         	10.585         	0.093
MS.400         	10.565         	0.091
MS.401         	10.542         	0.093
MS.402         	10.523         	0.097
MS.403         	10.502         	0.081
MS.404         	10.48          	0.093
MS.405         	10.46          	0.093
MS.406         	10.438         	0.077
MS.407         	10.417         	0.079
MS.408         	10.398         	0.081
MS.409         	10.375         	0.073
MS.410         	10.355         	0.066
MS.411         	10.335         	0.062
MS.412         	10.315         	0.07
MS.413         	10.292         	0.075
MS.414         	10.273         	0.077
MS.415         	10.252         	0.058
MS.416         	10.233         	0.064
MS.417         	10.212         	0.073
MS.418         	10.19          	0.075
MS.419         	10.17          	0.064
MS.420         	10.15          	0.079
MS.421         	10.13          	0.056
MS.422         	10.11          	0.054
MS.423         	10.09          	0.06
MS.424         	10.07          	0.058
MS.425         	10.05          	0.064
MS.426         	10.03          	0.056
MS.427         	10.01          	0.054
MS.428         	9.99           	0.064
MS.429         	9.97           	0.06
MS.430         	9.95           	0.06
MS.431         	9.93           	0.064
MS.432         	9.91           	0.056
MS.433         	9.89           	0.054
MS.434         	9.87           	0.058
MS.435         	9.85           	0.052
MS.436         	9.83           	0.064
MS.437         	9.81           	0.052
MS.438         	9.792          	0.046
MS.439         	9.773          	0.064
MS.440         	9.752          	0.058
MS.441         	9.733          	0.064
MS.442         	9.712          	0.06
MS.443         	9.695          	0.058
MS.444         	9.675          	0.052
MS.445         	9.655          	0.056
MS.446         	9.635          	0.062
MS.447         	9.617          	0.056
MS.448         	9.597          	0.056
MS.449         	9.577          	0.06
MS.450         	9.56           	0.064
MS.451         	9.54           	0.066
MS.452         	9.52           	0.05
MS.453         	9.502          	0.064
MS.454         	9.483          	0.054
MS.455         	9.465          	0.056
MS.456         	9.445          	0.06
MS.457         	9.427          	0.05
MS.458         	9.407          	0.06
MS.459         	9.387          	0.06
MS.460         	9.37           	0.056
MS.461         	9.352          	0.06
MS.462         	9.332          	0.044
MS.463         	9.315          	0.056
MS.464         	9.295          	0.056
MS.465         	9.278          	0.054
MS.466         	9.257          	0.066
MS.467         	9.24           	0.056
MS.468         	9.222          	0.058
MS.469         	9.202          	0.058
MS.470         	9.185          	0.056
MS.471         	9.165          	0.052
MS.472         	9.148          	0.079
MS.473         	9.13           	0.056
MS.474         	9.113          	0.058
MS.475         	9.092          	0.052
MS.476         	9.075          	0.054
MS.477         	9.057          	0.058
MS.478         	9.037          	0.056
MS.479         	9.02           	0.054
MS.480         	9.002          	0.056
MS.481         	8.985          	0.054
MS.482         	8.967          	0.062
MS.483         	8.948          	0.052
MS.484         	8.93           	0.052
MS.485         	8.912          	0.058
MS.486         	8.895          	0.048
MS.487         	8.877          	0.056
MS.488         	8.86           	0.06
MS.489         	8.842          	0.054
MS.490         	8.825          	0.054
MS.491         	8.807          	0.06
MS.492         	8.79           	0.048
MS.493         	8.773          	0.05
MS.494         	8.755          	0.066
MS.495         	8.738          	0.077
MS.496         	8.72           	0.026
MS.497         	8.702          	0.06
MS.498         	8.685          	0.054
MS.499         	8.667          	0.06
MS.500         	8.65           	0.042
MS.501         	8.632          	0.054
MS.502         	8.615          	0.052
MS.503         	8.597          	0.058
MS.504         	8.58           	0.054
MS.505         	8.562          	0.056
MS.506         	8.547          	0.058
MS.507         	8.53           	0.05
MS.508         	8.512          	0.05
MS.509         	8.495          	0.052
MS.510         	8.477          	0.054
MS.511         	8.462          	0.05
MS.512         	8.445          	0.054
MS.513         	8.427          	0.052
MS.514         	8.41           	0.054
MS.515         	8.395          	0.054
MS.516         	8.377          	0.05
MS.517         	8.36           	0.046
MS.518         	8.342          	0.064
MS.519         	8.327          	0.052
MS.520         	8.31           	0.05
MS.521         	8.295          	0.05
MS.522         	8.278          	0.048
MS.523         	8.26           	0.048
MS.524         	8.245          	0.054
MS.525         	8.227          	0.056
MS.526         	8.212          	0.048
MS.527         	8.195          	0.048
MS.528         	8.177          	0.048
MS.529         	8.162          	0.052
MS.530         	8.145          	0.046
MS.531         	8.13           	0.05
MS.532         	8.113          	0.046
MS.533         	8.097          	0.05
MS.534         	8.08           	0.056
MS.535         	8.065          	0.052
MS.536         	8.047          	0.05
MS.537         	8.033          	0.044
MS.538         	8.017          	0.058
MS.539         	8              	0.052
MS.540         	7.985          	0.05
MS.541         	7.967          	0.05
MS.542         	7.952          	0.046
MS.543         	7.938          	0.05
MS.544         	7.92           	0.05
MS.545         	7.905          	0.044
MS.546         	7.89           	0.04
MS.547         	7.872          	0.048
MS.548         	7.857          	0.048
MS.549         	7.842          	0.042
MS.550         	7.827          	0.048
MS.551         	7.81           	0.046
MS.552         	7.795          	0.044
MS.553         	7.78           	0.052
MS.554         	7.765          	0.05
MS.555         	7.747          	0.046
MS.556         	7.732          	0.046
MS.557         	7.717          	0.036
MS.558         	7.702          	0.048
MS.559         	7.688          	0.048
MS.560         	7.672          	0.048
MS.561         	7.655          	0.044
MS.562         	7.64           	0.048
MS.563         	7.625          	0.048
MS.564         	7.61           	0.046
MS.565         	7.595          	0.04
MS.566         	7.58           	0.044
MS.567         	7.565          	0.03
MS.568         	7.55           	0.048
MS.569         	7.535          	0.046
MS.570         	7.52           	0.042
MS.571         	7.505          	0.054
MS.572         	7.49           	0.044
MS.573         	7.475          	0.048
MS.574         	7.46           	0.046
MS.575         	7.445          	0.05
MS.576         	7.43           	0.044
MS.577         	7.415          	0.046
MS.578         	7.4            	0.046
MS.579         	7.385          	0.044
MS.580         	7.37           	0.048
MS.581         	7.355          	0.042
MS.582         	7.342          	0.046
MS.583         	7.327          	0.046
MS.584         	7.312          	0.044
MS.585         	7.297          	0.046
MS.586         	7.282          	0.048
MS.587         	7.267          	0.044
MS.588         	7.253          	0.046
MS.589         	7.24           	0.044
MS.590         	7.225          	0.048
MS.591         	7.21           	0.046
MS.592         	7.195          	0.042
MS.593         	7.182          	0.044
MS.594         	7.168          	0.044
MS.595         	7.152          	0.048
MS.596         	7.137          	0.046
MS.597         	7.125          	0.046
MS.598         	7.11           	0.044
MS.599         	7.095          	0.04
MS.600         	7.082          	0.044
MS.601         	7.067          	0.044
MS.602         	7.052          	0.044
MS.603         	7.04           	0.046
MS.604         	7.025          	0.042
MS.605         	7.01           	0.042
MS.606         	6.997          	0.046
MS.607         	6.983          	0.046
MS.608         	6.97           	0.044
MS.609         	6.955          	0.044
MS.610         	6.942          	0.046
MS.611         	6.927          	0.034
MS.612         	6.912          	0.038
MS.613         	6.9            	0.024
MS.614         	6.885          	0.042
MS.615         	6.872          	0.038
MS.616         	6.858          	0.036
MS.617         	6.845          	0.038
MS.618         	6.832          	0.044
MS.619         	6.817          	0.04
MS.620         	6.805          	0.026
MS.621         	6.79           	0.026
MS.622         	6.777          	0.022
MS.623         	6.762          	0.032
MS.624         	6.75           	0.028
MS.625         	6.737          	0.028
MS.626         	6.722          	0.024
MS.627         	6.71           	0.026
MS.628         	6.695          	0.022
MS.629         	6.682          	0.024
MS.630         	6.67           	0.034
MS.631         	6.655          	0.036
MS.632         	6.642          	0.024
MS.633         	6.63           	0.04
MS.634         	6.615          	0.028
MS.635         	6.602          	0.024
MS.636         	6.59           	0.028
MS.637         	6.577          	0.024
MS.638         	6.562          	0.026
MS.639         	6.55           	0.024
MS.640         	6.537          	0.022
MS.641         	6.525          	0.012
MS.642         	6.51           	0.028
MS.643         	6.497          	0.02
MS.644         	6.485          	0.022
MS.645         	6.472          	0.026
MS.646         	6.46           	0.024
MS.647         	6.447          	0.024
MS.648         	6.432          	0.022
MS.649         	6.42           	0.03
DERIVED EXCITABILITY VARIABLES
Program = QTracP 3/4/2020
Threshold method = 6 (optimised for CAP, using data for present condition only)
SR method = 1 (using actual data values)
6.                 	0.000               	Peak response\(mV)
9.                 	31.5                	Temperature ( C)
17.                	68                  	Age (years)
18.                	2                   	Sex (M=1, F=2)

EXTRA VARIABLES

MScPeak(mV) = 5.98
MScS5(mA) = 11.62
MScS50(mA) = 15.1
MScS95(mA) = 19.25
MScNSteps = 1
MScSteps(%) = 2.1
MScStepMax(%) = 2.1
MScD50 = 52
MScSlope = 5.07
MSFPeakAmp(mV) = 5.99
MSFNUnits = 174
MSFMeanUnitAmp(uV) = 34.4
MSFHuntTime(m) = 3.57
MSFError(%) = 1.27
MSFNLarge = 57.57
MSFMedianAmp(%) = 0.486
MSFMedianAmp(mV) = 0.0291
MSFHalfAmpAmp(%) = 0.608
MSFHalfAmpAmp(mV) = 0.0364
MSFLargestAmp(%) = 1.74
MSFLargestAmp(mV) = 0.104
MSFMeanRS(%) = 2
MSFOpts = 10106121
MScDuration(min) = 6.1
MSFTraces = 641
MSFSizeLimit(uV) = 15
MSFLimitType = 1
MSFSmallestAmp(uV) = 15.5

EXTRA WAVEFORMS


!MScan Model
!174
	1	7.04	0.62	2
	2	10.53	0.48	2
	3	10.68	0.31	2
	4	10.84	0.54	2
	5	11.07	0.65	2
	6	11.19	0.38	2
	7	11.32	0.42	2
	8	11.47	0.57	2
	9	11.6	0.42	2
	10	11.69	0.41	2
	11	11.77	0.44	2
	12	11.86	0.45	2
	13	11.94	0.32	2
	14	12.03	0.48	2
	15	12.07	0.31	2
	16	12.13	0.33	2
	17	12.18	0.39	2
	18	12.23	0.38	2
	19	12.28	0.47	2
	20	12.33	0.48	2
	21	12.37	0.38	2
	22	12.41	0.39	2
	23	12.45	0.42	2
	24	12.49	0.47	2
	25	12.54	0.69	2
	26	12.58	0.63	2
	27	12.62	0.49	2
	28	12.66	0.51	2
	29	12.72	0.89	2
	30	12.79	0.87	2
	31	12.84	0.72	2
	32	12.88	0.46	2
	33	12.91	0.48	2
	34	12.95	0.58	2
	35	13.01	0.75	2
	36	13.06	0.69	2
	37	13.12	0.73	2
	38	13.18	0.67	2
	39	13.24	0.65	2
	40	13.31	0.89	2
	41	13.37	0.81	2
	42	13.43	0.61	2
	43	13.49	0.94	2
	44	13.56	0.97	2
	45	13.62	0.99	2
	46	13.67	0.72	2
	47	13.71	0.91	2
	48	13.74	0.58	2
	49	13.75	0.32	2
	50	13.77	0.32	2
	51	13.79	0.3	2
	52	13.82	0.49	2
	53	13.84	0.29	2
	54	13.86	0.37	2
	55	13.87	0.38	2
	56	13.89	0.38	2
	57	13.91	0.37	2
	58	13.92	0.37	2
	59	13.94	0.35	2
	60	13.95	0.33	2
	61	13.97	0.26	2
	62	13.99	0.27	2
	63	14	0.28	2
	64	14.03	0.46	2
	65	14.06	0.51	2
	66	14.09	0.57	2
	67	14.12	0.49	2
	68	14.15	0.44	2
	69	14.18	0.45	2
	70	14.22	0.44	2
	71	14.25	0.34	2
	72	14.28	0.44	2
	73	14.33	0.64	2
	74	14.37	0.71	2
	75	14.42	0.75	2
	76	14.47	0.69	2
	77	14.5	0.52	2
	78	14.54	0.59	2
	79	14.57	0.66	2
	80	14.6	0.49	2
	81	14.62	0.45	2
	82	14.64	0.44	2
	83	14.67	0.42	2
	84	14.69	0.47	2
	85	14.71	0.49	2
	86	14.74	0.49	2
	87	14.76	0.49	2
	88	14.78	0.48	2
	89	14.8	0.46	2
	90	14.83	0.44	2
	91	14.85	0.44	2
	92	14.87	0.48	2
	93	14.93	1.2	2
	94	14.99	0.88	2
	95	15.05	0.91	2
	96	15.12	1.03	2
	97	15.19	0.93	2
	98	15.25	0.91	2
	99	15.32	1.06	2
	100	15.36	0.75	2
	101	15.39	0.38	2
	102	15.41	0.36	2
	103	15.44	0.38	2
	104	15.46	0.41	2
	105	15.49	0.43	2
	106	15.51	0.45	2
	107	15.54	0.45	2
	108	15.57	0.53	2
	109	15.59	0.52	2
	110	15.62	0.45	2
	111	15.65	0.42	2
	112	15.67	0.44	2
	113	15.7	0.49	2
	114	15.74	0.48	2
	115	15.77	0.5	2
	116	15.8	0.56	2
	117	15.84	0.72	2
	118	15.88	0.71	2
	119	15.93	0.63	2
	120	15.97	0.64	2
	121	16.01	0.65	2
	122	16.06	0.72	2
	123	16.1	0.67	2
	124	16.14	0.54	2
	125	16.16	0.53	2
	126	16.21	0.52	2
	127	16.22	0.26	2
	128	16.24	0.26	2
	129	16.25	0.26	2
	130	16.27	0.26	2
	131	16.28	0.26	2
	132	16.29	0.26	2
	133	16.31	0.31	2
	134	16.33	0.42	2
	135	16.36	0.44	2
	136	16.38	0.43	2
	137	16.4	0.41	2
	138	16.43	0.39	2
	139	16.46	0.6	2
	140	16.51	0.81	2
	141	16.55	0.91	2
	142	16.6	0.85	2
	143	16.66	0.97	2
	144	16.73	1.44	2
	145	16.84	1.74	2
	146	16.98	1.32	2
	147	17.13	1.34	2
	148	17.21	0.99	2
	149	17.29	0.77	2
	150	17.35	0.54	2
	151	17.45	0.46	2
	152	17.56	1.05	2
	153	17.68	0.79	2
	154	17.82	1.06	2
	155	17.91	0.38	2
	156	17.99	0.44	2
	157	18.07	0.51	2
	158	18.09	0.31	2
	159	18.16	0.43	2
	160	18.24	0.38	2
	161	18.31	0.38	2
	162	18.39	0.39	2
	163	18.5	0.55	2
	164	18.6	0.46	2
	165	18.69	0.51	2
	166	18.78	0.5	2
	167	18.88	0.43	2
	168	19.03	0.75	2
	169	19.57	1.24	2.17
	170	19.76	1.3	2
	171	19.85	0.48	2
	172	19.97	1.04	2
	173	22.12	0.67	2
	174	22.12	0.45	2

