File:              	C:\Qtrac\Data\Daniel M Sørensen\MScan multicentre study\Data from centres\Oxford\Raw data (sorted for use)\ATC01207I.QZD
Name:              	UK.OXF.NC.5.1
Protocol:          	MSCAN-R2
Date:              	7/12/20
Start time:        	15:17:26
Age:               	48
Sex:               	F
Temperature:       	34.2
S/R sites:         	APB
NC/disease:        	NC
Operator:          	AT
Comments:          	HC Median N ABP Trial 1
M-SCAN DATA (9-1.8m)
Scanpts: 315, 322, 739, 761
Stim. (mA)     	Amp. (mV)
MS.1           	16.5           	4.625
MS.2           	16.5           	4.566
MS.3           	16.5           	4.659
MS.4           	16.5           	4.725
MS.5           	16.5           	4.659
MS.6           	16.5           	4.729
MS.7           	16.5           	4.739
MS.8           	16.5           	4.89
MS.9           	16.5           	4.596
MS.10          	16.5           	4.665
MS.11          	16.5           	4.699
MS.12          	16.5           	4.709
MS.13          	16.5           	4.669
MS.14          	16.5           	4.723
MS.15          	16.5           	4.725
MS.16          	16.5           	4.667
MS.17          	16.5           	4.655
MS.18          	16.5           	4.699
MS.19          	16.5           	4.723
MS.20          	16.5           	4.705
MS.21          	16.5           	4.675
MS.22          	16.5           	4.669
MS.23          	16.5           	4.677
MS.24          	16.435         	4.661
MS.25          	16.4           	4.661
MS.26          	16.368         	4.6
MS.27          	16.335         	4.669
MS.28          	16.302         	4.705
MS.29          	16.27          	4.633
MS.30          	16.237         	4.627
MS.31          	16.205         	4.61
MS.32          	16.172         	4.635
MS.33          	16.14          	4.717
MS.34          	16.108         	4.679
MS.35          	16.077         	4.608
MS.36          	16.045         	4.653
MS.37          	16.012         	4.667
MS.38          	15.98          	4.643
MS.39          	15.947         	4.524
MS.40          	15.917         	4.614
MS.41          	15.885         	4.618
MS.42          	15.852         	4.614
MS.43          	15.822         	4.608
MS.44          	15.79          	4.572
MS.45          	15.757         	4.49
MS.46          	15.727         	4.572
MS.47          	15.695         	4.604
MS.48          	15.665         	4.504
MS.49          	15.632         	4.562
MS.50          	15.602         	4.669
MS.51          	15.57          	4.707
MS.52          	15.54          	4.584
MS.53          	15.507         	4.643
MS.54          	15.477         	4.673
MS.55          	15.445         	4.612
MS.56          	15.415         	4.631
MS.57          	15.385         	4.608
MS.58          	15.352         	4.592
MS.59          	15.322         	4.643
MS.60          	15.292         	4.633
MS.61          	15.262         	4.649
MS.62          	15.233         	4.572
MS.63          	15.2           	4.602
MS.64          	15.17          	4.631
MS.65          	15.14          	4.647
MS.66          	15.11          	4.625
MS.67          	15.08          	4.627
MS.68          	15.05          	4.574
MS.69          	15.02          	4.612
MS.70          	14.99          	4.655
MS.71          	14.96          	4.608
MS.72          	14.93          	4.627
MS.73          	14.9           	4.618
MS.74          	14.87          	4.622
MS.75          	14.84          	4.637
MS.76          	14.81          	4.709
MS.77          	14.78          	4.721
MS.78          	14.752         	4.58
MS.79          	14.722         	4.614
MS.80          	14.693         	4.677
MS.81          	14.662         	4.661
MS.82          	14.635         	4.633
MS.83          	14.605         	4.578
MS.84          	14.575         	4.556
MS.85          	14.547         	4.612
MS.86          	14.517         	4.568
MS.87          	14.487         	4.542
MS.88          	14.46          	4.608
MS.89          	14.43          	4.655
MS.90          	14.403         	4.556
MS.91          	14.372         	4.528
MS.92          	14.345         	4.512
MS.93          	14.315         	4.58
MS.94          	14.287         	4.558
MS.95          	14.257         	4.52
MS.96          	14.23          	4.508
MS.97          	14.202         	4.536
MS.98          	14.172         	4.548
MS.99          	14.145         	4.447
MS.100         	14.117         	4.53
MS.101         	14.087         	4.586
MS.102         	14.06          	4.536
MS.103         	14.032         	4.518
MS.104         	14.005         	4.479
MS.105         	13.975         	4.504
MS.106         	13.947         	4.532
MS.107         	13.92          	4.524
MS.108         	13.892         	4.516
MS.109         	13.865         	4.395
MS.110         	13.837         	4.524
MS.111         	13.81          	4.5
MS.112         	13.782         	4.475
MS.113         	13.755         	4.453
MS.114         	13.727         	4.496
MS.115         	13.7           	4.568
MS.116         	13.672         	4.528
MS.117         	13.645         	4.52
MS.118         	13.617         	4.49
MS.119         	13.59          	4.473
MS.120         	13.562         	4.508
MS.121         	13.535         	4.498
MS.122         	13.51          	4.486
MS.123         	13.483         	4.439
MS.124         	13.455         	4.484
MS.125         	13.427         	4.473
MS.126         	13.403         	4.409
MS.127         	13.375         	4.467
MS.128         	13.347         	4.467
MS.129         	13.32          	4.433
MS.130         	13.295         	4.477
MS.131         	13.267         	4.479
MS.132         	13.242         	4.455
MS.133         	13.215         	4.473
MS.134         	13.188         	4.482
MS.135         	13.162         	4.427
MS.136         	13.135         	4.415
MS.137         	13.11          	4.465
MS.138         	13.082         	4.524
MS.139         	13.057         	4.411
MS.140         	13.032         	4.479
MS.141         	13.005         	4.488
MS.142         	12.98          	4.453
MS.143         	12.952         	4.447
MS.144         	12.927         	4.463
MS.145         	12.903         	4.467
MS.146         	12.875         	4.391
MS.147         	12.85          	4.477
MS.148         	12.825         	4.514
MS.149         	12.8           	4.471
MS.150         	12.773         	4.477
MS.151         	12.747         	4.419
MS.152         	12.722         	4.475
MS.153         	12.697         	4.504
MS.154         	12.672         	4.494
MS.155         	12.645         	4.496
MS.156         	12.62          	4.477
MS.157         	12.595         	4.441
MS.158         	12.57          	4.455
MS.159         	12.545         	4.367
MS.160         	12.52          	4.437
MS.161         	12.495         	4.49
MS.162         	12.47          	4.479
MS.163         	12.445         	4.447
MS.164         	12.42          	4.411
MS.165         	12.395         	4.425
MS.166         	12.37          	4.451
MS.167         	12.347         	4.463
MS.168         	12.322         	4.322
MS.169         	12.297         	4.383
MS.170         	12.273         	4.449
MS.171         	12.247         	4.516
MS.172         	12.222         	4.469
MS.173         	12.2           	4.443
MS.174         	12.175         	4.415
MS.175         	12.15          	4.367
MS.176         	12.125         	4.334
MS.177         	12.102         	4.449
MS.178         	12.077         	4.447
MS.179         	12.052         	4.443
MS.180         	12.03          	4.453
MS.181         	12.005         	4.435
MS.182         	11.983         	4.407
MS.183         	11.957         	4.431
MS.184         	11.932         	4.433
MS.185         	11.91          	4.447
MS.186         	11.885         	4.3
MS.187         	11.863         	4.389
MS.188         	11.837         	4.447
MS.189         	11.815         	4.409
MS.190         	11.79          	4.421
MS.191         	11.767         	4.417
MS.192         	11.745         	4.401
MS.193         	11.72          	4.383
MS.194         	11.697         	4.339
MS.195         	11.675         	4.409
MS.196         	11.65          	4.419
MS.197         	11.627         	4.387
MS.198         	11.605         	4.28
MS.199         	11.58          	4.369
MS.200         	11.557         	4.413
MS.201         	11.535         	4.425
MS.202         	11.512         	4.381
MS.203         	11.488         	4.306
MS.204         	11.465         	4.431
MS.205         	11.443         	4.397
MS.206         	11.42          	4.387
MS.207         	11.398         	4.375
MS.208         	11.375         	4.365
MS.209         	11.352         	4.377
MS.210         	11.33          	4.381
MS.211         	11.307         	4.381
MS.212         	11.282         	4.397
MS.213         	11.26          	4.336
MS.214         	11.238         	4.304
MS.215         	11.215         	4.353
MS.216         	11.195         	4.32
MS.217         	11.172         	4.409
MS.218         	11.15          	4.407
MS.219         	11.127         	4.379
MS.220         	11.105         	4.369
MS.221         	11.082         	4.397
MS.222         	11.06          	4.381
MS.223         	11.037         	4.377
MS.224         	11.015         	4.393
MS.225         	10.995         	4.385
MS.226         	10.972         	4.367
MS.227         	10.95          	4.367
MS.228         	10.927         	4.367
MS.229         	10.907         	4.401
MS.230         	10.885         	4.393
MS.231         	10.863         	4.363
MS.232         	10.84          	4.381
MS.233         	10.82          	4.258
MS.234         	10.797         	4.292
MS.235         	10.778         	4.318
MS.236         	10.755         	4.413
MS.237         	10.733         	4.409
MS.238         	10.712         	4.328
MS.239         	10.69          	4.353
MS.240         	10.67          	4.391
MS.241         	10.648         	4.33
MS.242         	10.627         	4.383
MS.243         	10.605         	4.371
MS.244         	10.585         	4.365
MS.245         	10.562         	4.363
MS.246         	10.542         	4.359
MS.247         	10.52          	4.347
MS.248         	10.5           	4.371
MS.249         	10.48          	4.357
MS.250         	10.457         	4.349
MS.251         	10.438         	4.28
MS.252         	10.415         	4.367
MS.253         	10.395         	4.405
MS.254         	10.375         	4.367
MS.255         	10.355         	4.385
MS.256         	10.332         	4.373
MS.257         	10.312         	4.232
MS.258         	10.292         	4.326
MS.259         	10.273         	4.385
MS.260         	10.25          	4.373
MS.261         	10.23          	4.284
MS.262         	10.21          	4.363
MS.263         	10.19          	4.449
MS.264         	10.17          	4.419
MS.265         	10.15          	4.409
MS.266         	10.127         	4.393
MS.267         	10.108         	4.377
MS.268         	10.087         	4.377
MS.269         	10.068         	4.324
MS.270         	10.047         	4.349
MS.271         	10.028         	4.332
MS.272         	10.007         	4.379
MS.273         	9.988          	4.417
MS.274         	9.967          	4.375
MS.275         	9.948          	4.361
MS.276         	9.927          	4.264
MS.277         	9.907          	4.363
MS.278         	9.887          	4.425
MS.279         	9.867          	4.405
MS.280         	9.85           	4.389
MS.281         	9.83           	4.375
MS.282         	9.81           	4.385
MS.283         	9.79           	4.371
MS.284         	9.77           	4.377
MS.285         	9.75           	4.381
MS.286         	9.733          	4.361
MS.287         	9.712          	4.206
MS.288         	9.693          	4.339
MS.289         	9.672          	4.347
MS.290         	9.655          	4.469
MS.291         	9.635          	4.423
MS.292         	9.615          	4.399
MS.293         	9.595          	4.304
MS.294         	9.577          	4.467
MS.295         	9.557          	4.355
MS.296         	9.537          	4.343
MS.297         	9.52           	4.349
MS.298         	9.5            	4.465
MS.299         	9.483          	4.437
MS.300         	9.462          	4.443
MS.301         	9.445          	4.427
MS.302         	9.425          	4.433
MS.303         	9.405          	4.437
MS.304         	9.387          	4.391
MS.305         	9.367          	4.421
MS.306         	9.35           	4.401
MS.307         	9.33           	4.528
MS.308         	9.312          	4.455
MS.309         	9.295          	4.461
MS.310         	9.275          	4.413
MS.311         	9.257          	4.494
MS.312         	9.238          	4.52
MS.313         	9.22           	4.502
MS.314         	9.202          	4.467
MS.315         	9.182          	4.427
MS.316         	9.165          	4.435
MS.317         	9.148          	4.453
MS.318         	9.127          	4.49
MS.319         	9.11           	4.459
MS.320         	9.092          	4.488
MS.321         	9.073          	4.449
MS.322         	9.055          	4.451
MS.323         	9.037          	4.417
MS.324         	9.02           	4.425
MS.325         	9              	4.421
MS.326         	8.983          	4.486
MS.327         	8.965          	4.49
MS.328         	8.948          	4.427
MS.329         	8.93           	4.484
MS.330         	8.912          	4.5
MS.331         	8.895          	4.518
MS.332         	8.875          	4.488
MS.333         	8.858          	4.439
MS.334         	8.84           	4.453
MS.335         	8.823          	4.369
MS.336         	8.805          	4.339
MS.337         	8.787          	4.419
MS.338         	8.77           	4.465
MS.339         	8.752          	4.403
MS.340         	8.735          	4.347
MS.341         	8.717          	4.391
MS.342         	8.7            	4.32
MS.343         	8.682          	4.312
MS.344         	8.665          	4.3
MS.345         	8.648          	4.318
MS.346         	8.63           	4.316
MS.347         	8.613          	4.32
MS.348         	8.597          	4.332
MS.349         	8.58           	4.246
MS.350         	8.562          	4.202
MS.351         	8.545          	4.353
MS.352         	8.528          	4.355
MS.353         	8.51           	4.339
MS.354         	8.495          	4.304
MS.355         	8.477          	4.349
MS.356         	8.46           	4.407
MS.357         	8.443          	4.369
MS.358         	8.427          	4.296
MS.359         	8.41           	4.32
MS.360         	8.392          	4.302
MS.361         	8.375          	4.328
MS.362         	8.36           	4.24
MS.363         	8.342          	4.296
MS.364         	8.325          	4.218
MS.365         	8.31           	4.236
MS.366         	8.292          	4.324
MS.367         	8.275          	4.286
MS.368         	8.26           	4.137
MS.369         	8.242          	4.262
MS.370         	8.227          	4.252
MS.371         	8.21           	4.226
MS.372         	8.193          	4.29
MS.373         	8.177          	4.318
MS.374         	8.16           	4.296
MS.375         	8.145          	4.278
MS.376         	8.127          	4.341
MS.377         	8.113          	4.298
MS.378         	8.095          	4.359
MS.379         	8.08           	4.312
MS.380         	8.062          	4.302
MS.381         	8.047          	4.328
MS.382         	8.033          	4.339
MS.383         	8.015          	4.304
MS.384         	8              	4.345
MS.385         	7.982          	4.324
MS.386         	7.967          	4.31
MS.387         	7.952          	4.324
MS.388         	7.935          	4.318
MS.389         	7.92           	4.165
MS.390         	7.905          	4.322
MS.391         	7.887          	4.339
MS.392         	7.872          	4.212
MS.393         	7.857          	4.236
MS.394         	7.84           	4.137
MS.395         	7.825          	4.165
MS.396         	7.81           	4.079
MS.397         	7.795          	3.873
MS.398         	7.777          	3.69
MS.399         	7.762          	3.901
MS.400         	7.747          	4.117
MS.401         	7.732          	3.754
MS.402         	7.717          	3.865
MS.403         	7.7            	3.811
MS.404         	7.685          	3.785
MS.405         	7.67           	3.813
MS.406         	7.655          	3.768
MS.407         	7.64           	3.766
MS.408         	7.625          	3.779
MS.409         	7.61           	3.781
MS.410         	7.595          	3.722
MS.411         	7.58           	3.75
MS.412         	7.562          	3.589
MS.413         	7.547          	3.678
MS.414         	7.532          	3.664
MS.415         	7.517          	3.613
MS.416         	7.503          	3.664
MS.417         	7.487          	3.487
MS.418         	7.472          	3.64
MS.419         	7.457          	3.654
MS.420         	7.442          	3.672
MS.421         	7.427          	3.619
MS.422         	7.415          	3.593
MS.423         	7.4            	3.438
MS.424         	7.385          	3.472
MS.425         	7.37           	3.464
MS.426         	7.355          	3.482
MS.427         	7.34           	3.535
MS.428         	7.325          	3.406
MS.429         	7.31           	3.495
MS.430         	7.295          	3.482
MS.431         	7.282          	3.529
MS.432         	7.267          	3.384
MS.433         	7.253          	3.428
MS.434         	7.237          	3.43
MS.435         	7.222          	3.456
MS.436         	7.21           	3.39
MS.437         	7.195          	3.45
MS.438         	7.18           	3.368
MS.439         	7.165          	3.305
MS.440         	7.152          	3.297
MS.441         	7.137          	3.434
MS.442         	7.122          	3.44
MS.443         	7.11           	3.42
MS.444         	7.095          	3.378
MS.445         	7.08           	3.251
MS.446         	7.067          	3.319
MS.447         	7.052          	3.201
MS.448         	7.037          	3.346
MS.449         	7.025          	3.235
MS.450         	7.01           	3.269
MS.451         	6.995          	3.237
MS.452         	6.983          	3.172
MS.453         	6.967          	3.251
MS.454         	6.955          	3.277
MS.455         	6.94           	3.154
MS.456         	6.927          	3.267
MS.457         	6.912          	3.102
MS.458         	6.9            	3.172
MS.459         	6.885          	3.06
MS.460         	6.872          	2.87
MS.461         	6.858          	3.076
MS.462         	6.845          	2.949
MS.463         	6.83           	2.975
MS.464         	6.817          	2.892
MS.465         	6.802          	3.023
MS.466         	6.79           	2.78
MS.467         	6.775          	2.949
MS.468         	6.762          	3.09
MS.469         	6.747          	2.669
MS.470         	6.735          	2.959
MS.471         	6.722          	2.8
MS.472         	6.707          	2.763
MS.473         	6.695          	2.731
MS.474         	6.682          	2.594
MS.475         	6.668          	2.687
MS.476         	6.655          	2.677
MS.477         	6.642          	2.721
MS.478         	6.628          	2.733
MS.479         	6.615          	2.633
MS.480         	6.602          	2.707
MS.481         	6.587          	2.661
MS.482         	6.575          	2.614
MS.483         	6.562          	2.532
MS.484         	6.55           	2.459
MS.485         	6.535          	2.506
MS.486         	6.523          	2.496
MS.487         	6.51           	2.351
MS.488         	6.497          	2.409
MS.489         	6.485          	2.302
MS.490         	6.47           	2.206
MS.491         	6.457          	2.181
MS.492         	6.445          	2.135
MS.493         	6.432          	2.167
MS.494         	6.42           	1.964
MS.495         	6.407          	2.149
MS.496         	6.395          	2.089
MS.497         	6.38           	2.016
MS.498         	6.367          	2.012
MS.499         	6.355          	1.887
MS.500         	6.342          	1.835
MS.501         	6.33           	1.762
MS.502         	6.317          	1.724
MS.503         	6.305          	1.805
MS.504         	6.293          	1.779
MS.505         	6.28           	1.797
MS.506         	6.267          	1.859
MS.507         	6.255          	1.746
MS.508         	6.242          	1.688
MS.509         	6.23           	1.692
MS.510         	6.217          	1.821
MS.511         	6.205          	1.658
MS.512         	6.192          	1.547
MS.513         	6.18           	1.736
MS.514         	6.168          	1.525
MS.515         	6.155          	1.505
MS.516         	6.142          	1.569
MS.517         	6.13           	1.603
MS.518         	6.117          	1.509
MS.519         	6.108          	1.42
MS.520         	6.095          	1.545
MS.521         	6.082          	1.182
MS.522         	6.07           	1.313
MS.523         	6.057          	1.235
MS.524         	6.045          	1.347
MS.525         	6.032          	1.227
MS.526         	6.023          	1.072
MS.527         	6.01           	1.291
MS.528         	5.997          	1.092
MS.529         	5.985          	1.229
MS.530         	5.972          	0.951
MS.531         	5.963          	0.963
MS.532         	5.95           	1.011
MS.533         	5.938          	1.065
MS.534         	5.925          	0.91
MS.535         	5.915          	0.914
MS.536         	5.902          	0.84
MS.537         	5.89           	0.965
MS.538         	5.88           	0.902
MS.539         	5.867          	0.971
MS.540         	5.855          	0.862
MS.541         	5.842          	0.79
MS.542         	5.832          	0.868
MS.543         	5.82           	0.81
MS.544         	5.807          	0.753
MS.545         	5.797          	0.786
MS.546         	5.785          	0.854
MS.547         	5.775          	0.842
MS.548         	5.762          	0.781
MS.549         	5.75           	0.79
MS.550         	5.74           	0.711
MS.551         	5.727          	0.596
MS.552         	5.717          	0.701
MS.553         	5.705          	0.693
MS.554         	5.692          	0.568
MS.555         	5.682          	0.576
MS.556         	5.67           	0.612
MS.557         	5.66           	0.497
MS.558         	5.648          	0.594
MS.559         	5.637          	0.636
MS.560         	5.625          	0.616
MS.561         	5.615          	0.56
MS.562         	5.602          	0.566
MS.563         	5.592          	0.574
MS.564         	5.58           	0.55
MS.565         	5.57           	0.594
MS.566         	5.557          	0.536
MS.567         	5.547          	0.546
MS.568         	5.537          	0.5
MS.569         	5.525          	0.568
MS.570         	5.515          	0.536
MS.571         	5.503          	0.518
MS.572         	5.492          	0.493
MS.573         	5.483          	0.477
MS.574         	5.47           	0.504
MS.575         	5.46           	0.471
MS.576         	5.447          	0.544
MS.577         	5.438          	0.52
MS.578         	5.427          	0.451
MS.579         	5.415          	0.536
MS.580         	5.405          	0.443
MS.581         	5.395          	0.453
MS.582         	5.382          	0.506
MS.583         	5.372          	0.429
MS.584         	5.362          	0.516
MS.585         	5.352          	0.449
MS.586         	5.34           	0.409
MS.587         	5.33           	0.405
MS.588         	5.32           	0.401
MS.589         	5.307          	0.391
MS.590         	5.297          	0.401
MS.591         	5.287          	0.489
MS.592         	5.277          	0.417
MS.593         	5.267          	0.417
MS.594         	5.255          	0.342
MS.595         	5.245          	0.363
MS.596         	5.235          	0.336
MS.597         	5.225          	0.417
MS.598         	5.215          	0.312
MS.599         	5.202          	0.399
MS.600         	5.193          	0.338
MS.601         	5.182          	0.449
MS.602         	5.172          	0.338
MS.603         	5.162          	0.292
MS.604         	5.152          	0.344
MS.605         	5.142          	0.334
MS.606         	5.132          	0.3
MS.607         	5.12           	0.26
MS.608         	5.11           	0.338
MS.609         	5.1            	0.316
MS.610         	5.09           	0.298
MS.611         	5.08           	0.322
MS.612         	5.07           	0.29
MS.613         	5.06           	0.236
MS.614         	5.05           	0.228
MS.615         	5.04           	0.264
MS.616         	5.03           	0.226
MS.617         	5.02           	0.286
MS.618         	5.01           	0.25
MS.619         	5              	0.256
MS.620         	4.99           	0.236
MS.621         	4.98           	0.236
MS.622         	4.97           	0.211
MS.623         	4.96           	0.258
MS.624         	4.95           	0.234
MS.625         	4.94           	0.232
MS.626         	4.93           	0.058
MS.627         	4.92           	0.238
MS.628         	4.91           	0.222
MS.629         	4.9            	0.236
MS.630         	4.89           	0.228
MS.631         	4.88           	0.234
MS.632         	4.872          	0.232
MS.633         	4.862          	0.052
MS.634         	4.852          	0.242
MS.635         	4.842          	0.06
MS.636         	4.832          	0.238
MS.637         	4.822          	0.062
MS.638         	4.812          	0.236
MS.639         	4.802          	0.06
MS.640         	4.795          	0.24
MS.641         	4.785          	0.238
MS.642         	4.775          	0.236
MS.643         	4.765          	0.062
MS.644         	4.755          	0.232
MS.645         	4.747          	0.064
MS.646         	4.737          	0.062
MS.647         	4.727          	0.056
MS.648         	4.717          	0.062
MS.649         	4.707          	0.066
MS.650         	4.7            	0.246
MS.651         	4.69           	0.062
MS.652         	4.68           	0.054
MS.653         	4.67           	0.06
MS.654         	4.662          	0.064
MS.655         	4.652          	0.058
MS.656         	4.642          	0.064
MS.657         	4.632          	0.06
MS.658         	4.625          	0.064
MS.659         	4.615          	0.062
MS.660         	4.605          	0.064
MS.661         	4.597          	0.062
MS.662         	4.588          	0.064
MS.663         	4.577          	0.066
MS.664         	4.57           	0.064
MS.665         	4.56           	0.06
MS.666         	4.55           	0.062
MS.667         	4.543          	0.062
MS.668         	4.532          	0.06
MS.669         	4.525          	0.062
MS.670         	4.515          	0.062
MS.671         	4.505          	0.064
MS.672         	4.497          	0.068
MS.673         	4.487          	0.062
MS.674         	4.48           	0.06
MS.675         	4.47           	0.058
MS.676         	4.46           	0.062
MS.677         	4.452          	0.066
MS.678         	4.443          	0.062
MS.679         	4.435          	0.064
MS.680         	4.425          	0.062
MS.681         	4.418          	0.068
MS.682         	4.407          	0.066
MS.683         	4.4            	0.068
MS.684         	4.39           	0.068
MS.685         	4.382          	0.06
MS.686         	4.372          	0.07
MS.687         	4.365          	0.062
MS.688         	4.355          	0.073
MS.689         	4.347          	-0.004
MS.690         	4.338          	0.064
MS.691         	4.33           	0.07
MS.692         	4.32           	0.064
MS.693         	4.312          	0.066
MS.694         	4.302          	0.066
MS.695         	4.295          	0.064
MS.696         	4.285          	0.064
MS.697         	4.277          	0.064
MS.698         	4.27           	0.062
MS.699         	4.26           	-0.006
MS.700         	4.253          	0.06
MS.701         	4.242          	0.052
MS.702         	4.235          	0.002
MS.703         	4.227          	0.066
MS.704         	4.217          	0.064
MS.705         	4.21           	0.000
MS.706         	4.2            	0.066
MS.707         	4.193          	0.000
MS.708         	4.185          	0.000
MS.709         	4.175          	0.064
MS.710         	4.168          	0.002
MS.711         	4.16           	0.064
MS.712         	4.15           	0.062
MS.713         	4.142          	0.004
MS.714         	4.135          	0.002
MS.715         	4.125          	0.002
MS.716         	4.117          	0.068
MS.717         	4.11           	0.004
MS.718         	4.102          	0.068
MS.719         	4.092          	0.002
MS.720         	4.085          	0.000
MS.721         	4.077          	0.000
MS.722         	4.07           	0.000
MS.723         	4.06           	0.06
MS.724         	4.052          	0.004
MS.725         	4.045          	0.002
MS.726         	4.037          	-0.002
MS.727         	4.027          	-0.004
MS.728         	4.02           	0.004
MS.729         	4.012          	0.000
MS.730         	4.005          	0.002
MS.731         	3.995          	0.002
MS.732         	3.987          	0.008
MS.733         	3.98           	0.004
MS.734         	3.972          	0.004
MS.735         	3.965          	0.002
MS.736         	3.957          	0.000
MS.737         	3.947          	0.002
MS.738         	3.94           	0.002
MS.739         	3.932          	0.002
MS.740         	3.925          	0.002
MS.741         	3.918          	0.006
MS.742         	3.91           	0.006
MS.743         	3.902          	0.006
MS.744         	3.892          	0.000
MS.745         	3.885          	0.002
MS.746         	3.877          	0.000
MS.747         	3.87           	-0.002
MS.748         	3.862          	0.000
MS.749         	3.855          	-0.002
MS.750         	3.847          	0.000
MS.751         	3.84           	0.004
MS.752         	3.832          	0.004
MS.753         	3.825          	0.002
MS.754         	3.817          	0.002
MS.755         	3.81           	0.002
MS.756         	3.803          	0.004
MS.757         	3.795          	0.002
MS.758         	3.785          	0.002
MS.759         	3.777          	-0.002
MS.760         	3.77           	0.002
MS.761         	3.762          	0.004
DERIVED EXCITABILITY VARIABLES
Program = QTracP 3/4/2020
Threshold method = 6 (optimised for CAP, using data for present condition only)
SR method = 1 (using actual data values)
6.                 	0.000               	Peak response\(mV)
9.                 	34.2                	Temperature ( C)
17.                	48                  	Age (years)
18.                	2                   	Sex (M=1, F=2)

EXTRA VARIABLES

MScPeak(mV) = 4.69
MScS5(mA) = 4.89
MScS50(mA) = 6.49
MScS95(mA) = 11.48
MScNSteps = 2
MScSteps(%) = 6.7
MScStepMax(%) = 3.8
MScD50 = 42
MScSlope = 4.73
MSFPeakAmp(mV) = 4.45
MSFNUnits = 106
MSFMeanUnitAmp(uV) = 42
MSFHuntTime(m) = 2.45
MSFError(%) = 3.23
MSFNLarge = 27.49
MSFMedianAmp(%) = 0.765
MSFMedianAmp(mV) = 0.0341
MSFHalfAmpAmp(%) = 1.19
MSFHalfAmpAmp(mV) = 0.0528
MSFLargestAmp(%) = 4.91
MSFLargestAmp(mV) = 0.219
MSFMeanRS(%) = 2
MSFOpts = 10106121
MScDuration(min) = 7.2
MSFTraces = 447
MSFSizeLimit(uV) = 11.1
MSFLimitType = 1
MSFSmallestAmp(uV) = 11.8

EXTRA WAVEFORMS


!MScan Model
!106
	1	4.2	1.33	2.4
	2	4.84	4.46	2
	3	5.06	0.28	2
	4	5.1	0.59	2
	5	5.25	2.23	2
	6	5.36	1.2	2
	7	5.46	1.08	2
	8	5.5	0.55	2
	9	5.54	0.48	2
	10	5.66	1.32	2
	11	5.69	0.53	2
	12	5.7	0.36	2
	13	5.71	0.44	2
	14	5.72	0.47	2
	15	5.73	0.51	2
	16	5.74	0.59	2
	17	5.77	0.86	2
	18	5.82	1.16	2
	19	5.86	1.26	2
	20	5.91	1.24	2
	21	5.93	0.48	2
	22	5.94	0.85	2
	23	5.96	1.03	2
	24	5.98	1.22	2
	25	6.01	1.23	2
	26	6.03	1.27	2
	27	6.04	0.81	2
	28	6.05	0.77	2
	29	6.06	0.69	2
	30	6.07	0.76	2
	31	6.09	0.93	2
	32	6.1	1.17	2
	33	6.12	1.35	2
	34	6.14	1.23	2
	35	6.16	1.26	2
	36	6.19	0.74	2
	37	6.21	0.86	2
	38	6.27	2.15	2
	39	6.3	0.66	2
	40	6.31	0.9	2
	41	6.33	0.84	2
	42	6.34	0.81	2
	43	6.35	0.64	2
	44	6.36	0.45	2
	45	6.37	0.36	2
	46	6.38	0.5	2
	47	6.4	0.69	2
	48	6.4	0.39	2
	49	6.41	0.39	2
	50	6.41	0.39	2
	51	6.42	0.39	2
	52	6.43	0.5	2
	53	6.43	0.51	2
	54	6.44	0.48	2
	55	6.44	0.47	2
	56	6.45	0.46	2
	57	6.46	0.45	2
	58	6.46	0.45	2
	59	6.47	0.45	2
	60	6.48	0.58	2
	61	6.48	0.5	2
	62	6.49	0.47	2
	63	6.5	0.45	2
	64	6.5	0.42	2
	65	6.51	0.53	2
	66	6.52	0.39	2
	67	6.52	0.26	2
	68	6.52	0.26	2
	69	6.53	0.83	2
	70	6.55	0.97	2
	71	6.56	0.8	2
	72	6.57	0.66	2
	73	6.58	0.55	2
	74	6.59	0.48	2
	75	6.62	1.12	2
	76	6.67	1.48	2
	77	6.71	0.73	2
	78	6.79	3.42	2
	79	6.81	0.41	2
	80	6.84	0.77	2
	81	6.86	0.96	2
	82	6.88	1.21	2
	83	6.91	1.12	2
	84	7.02	3.2	2
	85	7.06	1.17	2
	86	7.17	1.83	2
	87	7.25	1.09	2
	88	7.35	1.63	2
	89	7.42	0.86	2
	90	7.51	2.22	2
	91	7.54	0.47	2
	92	7.56	0.39	2
	93	7.57	0.39	2
	94	7.59	0.4	2
	95	7.63	1.19	2
	96	7.7	1.56	2
	97	7.75	1.49	2
	98	7.77	0.79	2
	99	7.79	1.22	2
	100	7.82	1.22	2
	101	7.87	4.91	1.9
	102	8.32	0.34	2
	103	8.37	0.75	2
	104	8.64	0.34	2
	105	8.72	0.96	2
	106	8.79	1.26	2

