File:              	C:\Qtrac\Data\Daniel M Sørensen\MScan multicentre study\Data from centres\Oxford\Processed data\ATC01210D.QZD
Name:              	UK.OXF.NC.4.2
Protocol:          	MSCAN-R2
Date:              	10/12/20
Start time:        	15:55:57
Age:               	38
Sex:               	F
Temperature:       	34.7
S/R sites:         	APB
NC/disease:        	NC
Operator:          	AT
Comments:          	Repeat 2nd Median
M-SCAN DATA (4.3-0.9m)
Scanpts: 68, 73, 338, 346
Stim. (mA)     	Amp. (mV)
MS.1           	16.5           	3.589
MS.2           	16.5           	3.609
MS.3           	16.5           	3.589
MS.4           	16.5           	3.615
MS.5           	16.5           	3.611
MS.6           	16.5           	3.609
MS.7           	16.5           	3.615
MS.8           	16.5           	3.617
MS.9           	16.5           	3.63
MS.10          	16.5           	3.621
MS.11          	16.5           	3.611
MS.12          	16.5           	3.634
MS.13          	16.5           	3.658
MS.14          	16.5           	3.66
MS.15          	16.5           	3.664
MS.16          	16.5           	3.64
MS.17          	16.5           	3.652
MS.18          	16.5           	3.638
MS.19          	16.5           	3.638
MS.20          	16.5           	3.595
MS.21          	16.5           	3.623
MS.22          	16.5           	3.648
MS.23          	16.5           	3.63
MS.24          	16.435         	3.652
MS.25          	16.4           	3.648
MS.26          	16.368         	3.656
MS.27          	16.335         	3.646
MS.28          	16.302         	3.648
MS.29          	16.27          	3.63
MS.30          	16.237         	3.634
MS.31          	16.205         	3.636
MS.32          	16.172         	3.648
MS.33          	16.14          	3.684
MS.34          	16.108         	3.668
MS.35          	16.077         	3.686
MS.36          	16.045         	3.674
MS.37          	16.012         	3.654
MS.38          	15.98          	3.69
MS.39          	15.947         	3.662
MS.40          	15.917         	3.666
MS.41          	15.885         	3.65
MS.42          	15.852         	3.658
MS.43          	15.822         	3.684
MS.44          	15.79          	3.658
MS.45          	15.757         	3.67
MS.46          	15.727         	3.666
MS.47          	15.695         	3.68
MS.48          	15.665         	3.676
MS.49          	15.632         	3.668
MS.50          	15.602         	3.694
MS.51          	15.57          	3.686
MS.52          	15.54          	3.68
MS.53          	15.507         	3.708
MS.54          	15.477         	3.668
MS.55          	15.445         	3.674
MS.56          	15.415         	3.704
MS.57          	15.385         	3.682
MS.58          	15.352         	3.702
MS.59          	15.322         	3.69
MS.60          	15.292         	3.686
MS.61          	15.262         	3.696
MS.62          	15.233         	3.662
MS.63          	15.2           	3.71
MS.64          	15.17          	3.704
MS.65          	15.14          	3.676
MS.66          	15.11          	3.732
MS.67          	15.08          	3.71
MS.68          	15.05          	3.71
MS.69          	15.02          	3.706
MS.70          	14.99          	3.738
MS.71          	14.96          	3.712
MS.72          	14.93          	3.72
MS.73          	14.9           	3.702
MS.74          	14.87          	3.716
MS.75          	14.84          	3.736
MS.76          	14.81          	3.7
MS.77          	14.78          	3.718
MS.78          	14.752         	3.722
MS.79          	14.722         	3.736
MS.80          	14.693         	3.728
MS.81          	14.662         	3.724
MS.82          	14.635         	3.672
MS.83          	14.605         	3.732
MS.84          	14.575         	3.71
MS.85          	14.547         	3.738
MS.86          	14.517         	3.736
MS.87          	14.487         	3.636
MS.88          	14.46          	3.712
MS.89          	14.43          	3.728
MS.90          	14.403         	3.74
MS.91          	14.372         	3.736
MS.92          	14.345         	3.732
MS.93          	14.315         	3.688
MS.94          	14.287         	3.7
MS.95          	14.257         	3.72
MS.96          	14.23          	3.732
MS.97          	14.202         	3.734
MS.98          	14.172         	3.738
MS.99          	14.145         	3.63
MS.100         	14.117         	3.704
MS.101         	14.087         	3.64
MS.102         	14.06          	3.72
MS.103         	14.032         	3.704
MS.104         	14.005         	3.579
MS.105         	13.975         	3.664
MS.106         	13.947         	3.634
MS.107         	13.92          	3.63
MS.108         	13.892         	3.599
MS.109         	13.865         	3.593
MS.110         	13.837         	3.531
MS.111         	13.81          	3.579
MS.112         	13.782         	3.533
MS.113         	13.755         	3.547
MS.114         	13.727         	3.464
MS.115         	13.7           	3.47
MS.116         	13.672         	3.543
MS.117         	13.645         	3.525
MS.118         	13.617         	3.444
MS.119         	13.59          	3.489
MS.120         	13.562         	3.448
MS.121         	13.535         	3.43
MS.122         	13.51          	3.4
MS.123         	13.483         	3.448
MS.124         	13.455         	3.412
MS.125         	13.427         	3.444
MS.126         	13.403         	3.428
MS.127         	13.375         	3.394
MS.128         	13.347         	3.418
MS.129         	13.32          	3.36
MS.130         	13.295         	3.346
MS.131         	13.267         	3.382
MS.132         	13.242         	3.327
MS.133         	13.215         	3.333
MS.134         	13.188         	3.346
MS.135         	13.162         	3.295
MS.136         	13.135         	3.317
MS.137         	13.11          	3.344
MS.138         	13.082         	3.225
MS.139         	13.057         	3.253
MS.140         	13.032         	3.255
MS.141         	13.005         	3.327
MS.142         	12.98          	3.263
MS.143         	12.952         	3.128
MS.144         	12.927         	3.235
MS.145         	12.903         	3.188
MS.146         	12.875         	3.225
MS.147         	12.85          	3.12
MS.148         	12.825         	3.092
MS.149         	12.8           	3.15
MS.150         	12.773         	3.178
MS.151         	12.747         	3.088
MS.152         	12.722         	3.092
MS.153         	12.697         	3.136
MS.154         	12.672         	3.027
MS.155         	12.645         	3.041
MS.156         	12.62          	3.037
MS.157         	12.595         	3.043
MS.158         	12.57          	3.003
MS.159         	12.545         	2.836
MS.160         	12.52          	2.931
MS.161         	12.495         	2.914
MS.162         	12.47          	2.935
MS.163         	12.445         	2.858
MS.164         	12.42          	2.844
MS.165         	12.395         	2.82
MS.166         	12.37          	2.747
MS.167         	12.347         	2.701
MS.168         	12.322         	2.703
MS.169         	12.297         	2.711
MS.170         	12.273         	2.765
MS.171         	12.247         	2.594
MS.172         	12.222         	2.679
MS.173         	12.2           	2.536
MS.174         	12.175         	2.606
MS.175         	12.15          	2.534
MS.176         	12.125         	2.459
MS.177         	12.102         	2.471
MS.178         	12.077         	2.272
MS.179         	12.052         	2.258
MS.180         	12.03          	2.185
MS.181         	12.005         	2.191
MS.182         	11.983         	2.117
MS.183         	11.957         	2.095
MS.184         	11.932         	2.024
MS.185         	11.91          	2.006
MS.186         	11.885         	1.926
MS.187         	11.863         	1.944
MS.188         	11.837         	2.008
MS.189         	11.815         	1.958
MS.190         	11.79          	1.867
MS.191         	11.767         	1.791
MS.192         	11.745         	1.942
MS.193         	11.72          	1.891
MS.194         	11.697         	1.885
MS.195         	11.675         	1.809
MS.196         	11.65          	1.883
MS.197         	11.627         	1.781
MS.198         	11.605         	1.813
MS.199         	11.58          	1.704
MS.200         	11.557         	1.644
MS.201         	11.535         	1.797
MS.202         	11.512         	1.791
MS.203         	11.488         	1.688
MS.204         	11.465         	1.696
MS.205         	11.443         	1.565
MS.206         	11.42          	1.619
MS.207         	11.398         	1.595
MS.208         	11.375         	1.563
MS.209         	11.352         	1.646
MS.210         	11.33          	1.553
MS.211         	11.307         	1.406
MS.212         	11.282         	1.605
MS.213         	11.26          	1.382
MS.214         	11.238         	1.358
MS.215         	11.215         	1.545
MS.216         	11.195         	1.488
MS.217         	11.172         	1.273
MS.218         	11.15          	1.303
MS.219         	11.127         	1.331
MS.220         	11.105         	1.303
MS.221         	11.082         	1.315
MS.222         	11.06          	1.273
MS.223         	11.037         	1.138
MS.224         	11.015         	1.184
MS.225         	10.995         	1.178
MS.226         	10.972         	1.074
MS.227         	10.95          	0.985
MS.228         	10.927         	1.025
MS.229         	10.907         	1.017
MS.230         	10.885         	0.985
MS.231         	10.863         	0.983
MS.232         	10.84          	1.025
MS.233         	10.82          	1.019
MS.234         	10.797         	0.947
MS.235         	10.778         	0.822
MS.236         	10.755         	0.826
MS.237         	10.733         	0.892
MS.238         	10.712         	0.844
MS.239         	10.69          	0.983
MS.240         	10.67          	0.929
MS.241         	10.648         	0.763
MS.242         	10.627         	0.638
MS.243         	10.605         	0.828
MS.244         	10.585         	0.594
MS.245         	10.562         	0.526
MS.246         	10.542         	0.663
MS.247         	10.52          	0.81
MS.248         	10.5           	0.616
MS.249         	10.48          	0.53
MS.250         	10.457         	0.211
MS.251         	10.438         	0.306
MS.252         	10.415         	0.266
MS.253         	10.395         	0.284
MS.254         	10.375         	0.197
MS.255         	10.355         	0.312
MS.256         	10.332         	0.296
MS.257         	10.312         	0.518
MS.258         	10.292         	0.302
MS.259         	10.273         	0.55
MS.260         	10.25          	0.163
MS.261         	10.23          	0.224
MS.262         	10.21          	0.252
MS.263         	10.19          	0.29
MS.264         	10.17          	0.203
MS.265         	10.15          	0.214
MS.266         	10.127         	0.232
MS.267         	10.108         	0.207
MS.268         	10.087         	0.262
MS.269         	10.068         	0.191
MS.270         	10.047         	0.147
MS.271         	10.028         	0.171
MS.272         	10.007         	0.203
MS.273         	9.988          	0.234
MS.274         	9.967          	0.107
MS.275         	9.948          	0.127
MS.276         	9.927          	0.117
MS.277         	9.907          	0.077
MS.278         	9.887          	0.129
MS.279         	9.867          	0.099
MS.280         	9.85           	0.099
MS.281         	9.83           	0.147
MS.282         	9.81           	0.097
MS.283         	9.79           	0.149
MS.284         	9.77           	0.125
MS.285         	9.75           	0.093
MS.286         	9.733          	0.091
MS.287         	9.712          	0.068
MS.288         	9.693          	0.079
MS.289         	9.672          	0.056
MS.290         	9.655          	0.083
MS.291         	9.635          	0.105
MS.292         	9.615          	0.077
MS.293         	9.595          	0.04
MS.294         	9.577          	0.083
MS.295         	9.557          	0.079
MS.296         	9.537          	0.06
MS.297         	9.52           	0.062
MS.298         	9.5            	0.085
MS.299         	9.483          	0.087
MS.300         	9.462          	0.042
MS.301         	9.445          	0.034
MS.302         	9.425          	0.012
MS.303         	9.405          	0.042
MS.304         	9.387          	0.044
MS.305         	9.367          	0.068
MS.306         	9.35           	0.016
MS.307         	9.33           	0.038
MS.308         	9.312          	0.014
MS.309         	9.295          	0.036
MS.310         	9.275          	0.048
MS.311         	9.257          	0.075
MS.312         	9.238          	0.018
MS.313         	9.22           	0.014
MS.314         	9.202          	0.008
MS.315         	9.182          	0.042
MS.316         	9.165          	0.018
MS.317         	9.148          	0.036
MS.318         	9.127          	0.014
MS.319         	9.11           	0.03
MS.320         	9.092          	0.034
MS.321         	9.073          	0.008
MS.322         	9.055          	0.01
MS.323         	9.037          	0.01
MS.324         	9.02           	0.01
MS.325         	9              	0.012
MS.326         	8.983          	0.01
MS.327         	8.965          	0.01
MS.328         	8.948          	0.008
MS.329         	8.93           	0.01
MS.330         	8.912          	0.014
MS.331         	8.895          	0.012
MS.332         	8.875          	0.016
MS.333         	8.858          	0.012
MS.334         	8.84           	0.008
MS.335         	8.823          	0.01
MS.336         	8.805          	0.012
MS.337         	8.787          	0.012
MS.338         	8.77           	0.012
MS.339         	8.752          	0.01
MS.340         	8.735          	0.012
MS.341         	8.717          	0.014
MS.342         	8.7            	0.01
MS.343         	8.682          	0.012
MS.344         	8.665          	0.012
MS.345         	8.648          	0.01
MS.346         	8.63           	0.008
MS.347         	8.613          	0.012
MS.348         	8.597          	0.01
MS.349         	8.58           	0.01
MS.350         	8.562          	0.014
MS.351         	8.545          	0.01
MS.352         	8.528          	0.008
MS.353         	8.51           	0.012
MS.354         	8.495          	0.014
MS.355         	8.477          	0.012
MS.356         	8.46           	0.012
MS.357         	8.443          	0.012
MS.358         	8.427          	0.016
MS.359         	8.41           	0.008
MS.360         	8.392          	0.016
MS.361         	8.375          	0.01
MS.362         	8.36           	0.008
MS.363         	8.342          	0.004
MS.364         	8.325          	0.012
MS.365         	8.31           	0.016
MS.366         	8.292          	0.01
MS.367         	8.275          	0.012
MS.368         	8.26           	0.006
MS.369         	8.242          	0.016
MS.370         	8.227          	0.01
MS.371         	8.21           	0.012
MS.372         	8.193          	0.008
MS.373         	8.177          	0.008
MS.374         	8.16           	0.014
MS.375         	8.145          	0.008
MS.376         	8.127          	0.008
MS.377         	8.113          	0.014
MS.378         	8.095          	0.014
MS.379         	8.08           	0.008
MS.380         	8.062          	0.01
MS.381         	8.047          	0.004
MS.382         	8.033          	0.006
MS.383         	8.015          	0.01
MS.384         	8              	0.016
DERIVED EXCITABILITY VARIABLES
Program = QTracP 3/4/2020
Threshold method = 6 (optimised for CAP, using data for present condition only)
SR method = 1 (using actual data values)
6.                 	0.000               	Peak response\(mV)
9.                 	34.7                	Temperature ( C)
17.                	38                  	Age (years)
18.                	2                   	Sex (M=1, F=2)

EXTRA VARIABLES

MScPeak(mV) = 3.62
MScS5(mA) = 10.11
MScS50(mA) = 11.68
MScS95(mA) = 13.47
MScNSteps = 7
MScSteps(%) = 22.5
MScStepMax(%) = 5.7
MScD50 = 27
MScSlope = 7.37
MSFPeakAmp(mV) = 3.7
MSFNUnits = 135
MSFMeanUnitAmp(uV) = 27.4
MSFHuntTime(m) = 1.49
MSFError(%) = 3.97
MSFNLarge = 32.28
MSFMedianAmp(%) = 0.521
MSFMedianAmp(mV) = 0.0193
MSFHalfAmpAmp(%) = 0.914
MSFHalfAmpAmp(mV) = 0.0338
MSFLargestAmp(%) = 5.81
MSFLargestAmp(mV) = 0.215
MSFMeanRS(%) = 2
MSFOpts = 10106121
MScDuration(min) = 3.4
MSFTraces = 279
MSFSizeLimit(uV) = 9.3
MSFLimitType = 1
MSFSmallestAmp(uV) = 9.46

EXTRA WAVEFORMS


!MScan Model
!135
	1	9.16	0.44	2
	2	9.42	0.65	2
	3	9.58	0.56	2
	4	9.73	0.66	2
	5	9.93	1.1	2
	6	10.02	1.02	2
	7	10.14	1.64	2
	8	10.38	2.47	2
	9	10.43	1.25	2
	10	10.5	5.81	2
	11	10.57	2.39	2
	12	10.63	1.77	2
	13	10.69	2.18	2
	14	10.78	3.16	2
	15	10.81	0.44	2
	16	10.85	0.66	2
	17	10.88	0.7	2
	18	10.9	0.67	2
	19	10.92	0.6	2
	20	10.94	0.43	2
	21	10.95	0.3	2
	22	10.96	0.26	2
	23	10.96	0.27	2
	24	10.97	0.27	2
	25	10.98	0.27	2
	26	10.98	0.27	2
	27	10.99	0.27	2
	28	11	0.32	2
	29	11.02	0.98	2
	30	11.04	0.93	2
	31	11.07	0.83	2
	32	11.09	0.84	2
	33	11.13	1.28	2
	34	11.18	1.7	2
	35	11.24	1.92	2
	36	11.33	2.49	2
	37	11.38	1.16	2
	38	11.43	1.52	2
	39	11.48	0.98	2
	40	11.52	0.85	2
	41	11.56	0.95	2
	42	11.59	0.93	2
	43	11.67	1.08	2
	44	11.7	0.91	2
	45	11.74	0.92	2
	46	11.78	0.59	2
	47	11.81	0.77	2
	48	11.83	0.29	2
	49	11.85	0.36	2
	50	11.87	0.37	2
	51	11.88	0.31	2
	52	11.89	0.31	2
	53	11.9	0.31	2
	54	11.91	0.31	2
	55	11.92	0.28	2
	56	11.93	0.37	2
	57	11.94	0.38	2
	58	11.95	0.3	2
	59	11.95	0.3	2
	60	11.96	0.3	1.6
	61	11.97	0.3	2
	62	11.98	0.46	2
	63	11.98	0.41	2
	64	11.99	0.26	2
	65	11.99	0.26	2
	66	12	0.26	2
	67	12	0.26	2
	68	12	0.26	2
	69	12.01	0.49	2
	70	12.02	0.61	2
	71	12.03	0.61	2
	72	12.04	0.49	2
	73	12.05	0.49	2
	74	12.05	0.33	2
	75	12.06	0.5	2
	76	12.07	0.5	2
	77	12.08	0.5	2
	78	12.09	0.5	2
	79	12.1	0.5	2
	80	12.11	0.44	2
	81	12.11	0.36	2
	82	12.12	0.36	2
	83	12.13	0.41	2
	84	12.14	0.42	2
	85	12.15	0.42	2
	86	12.16	0.42	2
	87	12.17	0.42	2
	88	12.17	0.42	2
	89	12.19	0.92	2
	90	12.21	1	2
	91	12.23	0.94	2
	92	12.25	0.8	2
	93	12.27	0.56	2
	94	12.29	0.56	2
	95	12.32	0.7	2
	96	12.34	0.74	2
	97	12.37	0.94	2
	98	12.4	0.65	2
	99	12.42	0.63	2
	100	12.44	0.5	2
	101	12.46	0.5	2
	102	12.48	0.72	2
	103	12.5	0.71	2
	104	12.52	0.52	2
	105	12.55	0.52	2
	106	12.58	0.78	2
	107	12.61	0.59	2
	108	12.64	0.52	2
	109	12.67	0.66	2
	110	12.74	1.39	2
	111	12.81	0.97	2
	112	12.9	1.54	2
	113	12.97	0.87	2
	114	13.04	1	2
	115	13.08	0.52	2
	116	13.11	0.38	2
	117	13.16	0.52	2
	118	13.19	0.45	2
	119	13.25	0.55	2
	120	13.28	0.38	2
	121	13.32	0.43	2
	122	13.37	0.56	2
	123	13.42	0.27	2
	124	13.47	0.44	2
	125	13.55	0.78	2
	126	13.61	0.54	2
	127	13.66	0.49	2
	128	13.71	0.55	2
	129	13.74	0.39	2
	130	13.77	0.29	2
	131	13.82	0.47	2
	132	13.85	0.42	2
	133	13.89	0.68	2
	134	13.96	0.83	2
	135	14.09	1.43	2

