File:              	C:\Qtrac\Data\Daniel M Sørensen\MScan multicentre study\Data from centres\Oxford\Raw data (sorted for use)\ATC01207A.QZD
Name:              	UK.OXF.NC.7.1
Protocol:          	MSCAN-R2
Date:              	7/12/20
Start time:        	11:14:30
Age:               	33
Sex:               	M
Temperature:       	35.6
S/R sites:         	APB
NC/disease:        	NC
Operator:          	AT
Comments:          	First trial Median N
M-SCAN DATA (5.1-1m)
Scanpts: 12, 19, 439, 461
Stim. (mA)     	Amp. (mV)
MS.1           	21.5           	6.862
MS.2           	21.5           	6.808
MS.3           	21.5           	6.808
MS.4           	21.5           	6.806
MS.5           	21.5           	6.8
MS.6           	21.5           	6.79
MS.7           	21.5           	6.76
MS.8           	21.5           	6.812
MS.9           	21.5           	6.788
MS.10          	21.5           	6.792
MS.11          	21.5           	6.762
MS.12          	21.5           	6.816
MS.13          	21.5           	6.804
MS.14          	21.5           	6.824
MS.15          	21.5           	6.78
MS.16          	21.5           	6.79
MS.17          	21.5           	6.802
MS.18          	21.5           	6.794
MS.19          	21.5           	6.798
MS.20          	21.5           	6.798
MS.21          	21.5           	6.792
MS.22          	21.5           	6.8
MS.23          	21.5           	6.816
MS.24          	21.415         	6.784
MS.25          	21.372         	6.77
MS.26          	21.327         	6.723
MS.27          	21.285         	6.76
MS.28          	21.243         	6.745
MS.29          	21.2           	6.745
MS.30          	21.157         	6.76
MS.31          	21.118         	6.77
MS.32          	21.075         	6.719
MS.33          	21.032         	6.729
MS.34          	20.99          	6.705
MS.35          	20.948         	6.715
MS.36          	20.907         	6.717
MS.37          	20.865         	6.687
MS.38          	20.823         	6.675
MS.39          	20.78          	6.701
MS.40          	20.74          	6.699
MS.41          	20.698         	6.685
MS.42          	20.657         	6.707
MS.43          	20.615         	6.701
MS.44          	20.575         	6.713
MS.45          	20.532         	6.701
MS.46          	20.493         	6.717
MS.47          	20.452         	6.651
MS.48          	20.41          	6.657
MS.49          	20.37          	6.683
MS.50          	20.33          	6.663
MS.51          	20.288         	6.637
MS.52          	20.247         	6.655
MS.53          	20.208         	6.679
MS.54          	20.167         	6.665
MS.55          	20.127         	6.667
MS.56          	20.087         	6.651
MS.57          	20.047         	6.663
MS.58          	20.007         	6.653
MS.59          	19.967         	6.645
MS.60          	19.927         	6.681
MS.61          	19.887         	6.663
MS.62          	19.847         	6.663
MS.63          	19.807         	6.681
MS.64          	19.767         	6.645
MS.65          	19.727         	6.647
MS.66          	19.69          	6.629
MS.67          	19.65          	6.586
MS.68          	19.61          	6.659
MS.69          	19.57          	6.59
MS.70          	19.532         	6.592
MS.71          	19.493         	6.647
MS.72          	19.455         	6.602
MS.73          	19.415         	6.592
MS.74          	19.377         	6.612
MS.75          	19.337         	6.61
MS.76          	19.3           	6.538
MS.77          	19.26          	6.566
MS.78          	19.222         	6.532
MS.79          	19.182         	6.534
MS.80          	19.145         	6.52
MS.81          	19.108         	6.623
MS.82          	19.067         	6.518
MS.83          	19.03          	6.463
MS.84          	18.993         	6.478
MS.85          	18.955         	6.469
MS.86          	18.917         	6.484
MS.87          	18.88          	6.492
MS.88          	18.842         	6.463
MS.89          	18.802         	6.302
MS.90          	18.765         	6.514
MS.91          	18.727         	5.95
MS.92          	18.69          	6.32
MS.93          	18.655         	6.457
MS.94          	18.618         	6.258
MS.95          	18.58          	5.96
MS.96          	18.542         	6.294
MS.97          	18.505         	5.974
MS.98          	18.467         	5.956
MS.99          	18.432         	6.242
MS.100         	18.395         	6.214
MS.101         	18.358         	5.76
MS.102         	18.32          	5.95
MS.103         	18.285         	5.849
MS.104         	18.247         	5.771
MS.105         	18.212         	5.712
MS.106         	18.175         	5.825
MS.107         	18.137         	5.779
MS.108         	18.102         	5.815
MS.109         	18.067         	5.676
MS.110         	18.03          	5.843
MS.111         	17.995         	5.571
MS.112         	17.958         	5.841
MS.113         	17.922         	5.724
MS.114         	17.887         	5.656
MS.115         	17.85          	5.642
MS.116         	17.815         	5.68
MS.117         	17.78          	5.605
MS.118         	17.745         	5.446
MS.119         	17.708         	5.579
MS.120         	17.672         	5.587
MS.121         	17.637         	5.555
MS.122         	17.602         	5.636
MS.123         	17.567         	5.553
MS.124         	17.532         	5.479
MS.125         	17.497         	5.43
MS.126         	17.462         	5.364
MS.127         	17.427         	5.297
MS.128         	17.392         	5.573
MS.129         	17.358         	5.221
MS.130         	17.323         	5.386
MS.131         	17.288         	5.12
MS.132         	17.255         	5.041
MS.133         	17.22          	5.356
MS.134         	17.185         	5.235
MS.135         	17.15          	5.098
MS.136         	17.118         	5.096
MS.137         	17.083         	4.985
MS.138         	17.047         	4.906
MS.139         	17.015         	4.937
MS.140         	16.98          	4.808
MS.141         	16.948         	4.794
MS.142         	16.913         	4.687
MS.143         	16.878         	4.473
MS.144         	16.845         	4.528
MS.145         	16.812         	4.608
MS.146         	16.778         	4.574
MS.147         	16.745         	4.667
MS.148         	16.71          	4.419
MS.149         	16.677         	4.286
MS.150         	16.645         	4.341
MS.151         	16.61          	4.306
MS.152         	16.577         	4.341
MS.153         	16.545         	4.296
MS.154         	16.512         	4.294
MS.155         	16.477         	4.226
MS.156         	16.445         	4.059
MS.157         	16.413         	4.212
MS.158         	16.38          	4.016
MS.159         	16.347         	4.111
MS.160         	16.315         	4.024
MS.161         	16.282         	4.075
MS.162         	16.25          	3.801
MS.163         	16.217         	3.94
MS.164         	16.185         	4.071
MS.165         	16.153         	3.738
MS.166         	16.12          	3.71
MS.167         	16.087         	3.565
MS.168         	16.055         	3.865
MS.169         	16.022         	3.702
MS.170         	15.992         	3.307
MS.171         	15.96          	3.321
MS.172         	15.927         	3.271
MS.173         	15.895         	3.523
MS.174         	15.865         	3.579
MS.175         	15.832         	3.084
MS.176         	15.8           	3.066
MS.177         	15.77          	3.066
MS.178         	15.737         	2.844
MS.179         	15.705         	2.882
MS.180         	15.675         	2.953
MS.181         	15.642         	2.943
MS.182         	15.612         	2.677
MS.183         	15.58          	2.806
MS.184         	15.55          	2.745
MS.185         	15.52          	2.657
MS.186         	15.487         	2.429
MS.187         	15.457         	2.445
MS.188         	15.425         	2.502
MS.189         	15.395         	2.518
MS.190         	15.365         	2.31
MS.191         	15.332         	2.238
MS.192         	15.302         	2.25
MS.193         	15.273         	2.079
MS.194         	15.242         	2.119
MS.195         	15.212         	2.258
MS.196         	15.18          	2.103
MS.197         	15.15          	2.107
MS.198         	15.12          	2.143
MS.199         	15.09          	2.131
MS.200         	15.06          	1.966
MS.201         	15.03          	1.895
MS.202         	15             	1.583
MS.203         	14.97          	1.776
MS.204         	14.94          	1.75
MS.205         	14.91          	1.744
MS.206         	14.88          	1.73
MS.207         	14.85          	1.573
MS.208         	14.82          	1.629
MS.209         	14.792         	1.581
MS.210         	14.762         	1.615
MS.211         	14.733         	1.221
MS.212         	14.702         	1.545
MS.213         	14.672         	1.499
MS.214         	14.645         	1.499
MS.215         	14.615         	1.444
MS.216         	14.585         	1.456
MS.217         	14.557         	1.18
MS.218         	14.527         	1.327
MS.219         	14.497         	1.273
MS.220         	14.47          	1.452
MS.221         	14.44          	1.154
MS.222         	14.412         	1.37
MS.223         	14.382         	1.356
MS.224         	14.355         	1.299
MS.225         	14.325         	1.281
MS.226         	14.297         	1.206
MS.227         	14.267         	0.995
MS.228         	14.24          	1.168
MS.229         	14.212         	1.051
MS.230         	14.182         	1.08
MS.231         	14.155         	1.11
MS.232         	14.127         	1.039
MS.233         	14.097         	0.979
MS.234         	14.07          	0.993
MS.235         	14.042         	0.935
MS.236         	14.015         	0.896
MS.237         	13.985         	1.029
MS.238         	13.957         	0.866
MS.239         	13.93          	0.844
MS.240         	13.903         	0.898
MS.241         	13.875         	0.659
MS.242         	13.847         	0.874
MS.243         	13.82          	0.882
MS.244         	13.792         	0.894
MS.245         	13.765         	0.753
MS.246         	13.737         	0.779
MS.247         	13.71          	0.792
MS.248         	13.682         	0.578
MS.249         	13.655         	0.846
MS.250         	13.627         	0.622
MS.251         	13.6           	0.703
MS.252         	13.572         	0.667
MS.253         	13.545         	0.51
MS.254         	13.517         	0.767
MS.255         	13.492         	0.653
MS.256         	13.465         	0.582
MS.257         	13.438         	0.407
MS.258         	13.41          	0.548
MS.259         	13.385         	0.667
MS.260         	13.358         	0.455
MS.261         	13.33          	0.58
MS.262         	13.305         	0.487
MS.263         	13.278         	0.449
MS.264         	13.25          	0.447
MS.265         	13.225         	0.342
MS.266         	13.197         	0.367
MS.267         	13.172         	0.455
MS.268         	13.145         	0.431
MS.269         	13.12          	0.427
MS.270         	13.092         	0.455
MS.271         	13.068         	0.302
MS.272         	13.04          	0.276
MS.273         	13.015         	0.455
MS.274         	12.987         	0.151
MS.275         	12.962         	0.409
MS.276         	12.938         	0.379
MS.277         	12.91          	0.292
MS.278         	12.885         	0.302
MS.279         	12.86          	0.286
MS.280         	12.832         	0.447
MS.281         	12.807         	0.189
MS.282         	12.782         	0.443
MS.283         	12.757         	0.286
MS.284         	12.73          	0.157
MS.285         	12.705         	0.163
MS.286         	12.68          	0.157
MS.287         	12.655         	0.254
MS.288         	12.63          	0.357
MS.289         	12.605         	0.165
MS.290         	12.58          	0.143
MS.291         	12.555         	0.187
MS.292         	12.53          	0.159
MS.293         	12.505         	0.143
MS.294         	12.48          	0.199
MS.295         	12.455         	0.268
MS.296         	12.43          	0.157
MS.297         	12.405         	0.173
MS.298         	12.38          	0.151
MS.299         	12.355         	0.165
MS.300         	12.33          	0.153
MS.301         	12.305         	0.157
MS.302         	12.28          	0.145
MS.303         	12.257         	0.161
MS.304         	12.233         	0.163
MS.305         	12.207         	0.171
MS.306         	12.182         	0.173
MS.307         	12.157         	0.173
MS.308         	12.135         	0.151
MS.309         	12.11          	0.159
MS.310         	12.085         	0.155
MS.311         	12.062         	0.151
MS.312         	12.037         	0.161
MS.313         	12.012         	0.183
MS.314         	11.99          	0.163
MS.315         	11.965         	0.151
MS.316         	11.943         	0.135
MS.317         	11.917         	0.167
MS.318         	11.895         	0.173
MS.319         	11.87          	0.157
MS.320         	11.847         	0.141
MS.321         	11.822         	0.159
MS.322         	11.8           	0.135
MS.323         	11.775         	0.133
MS.324         	11.752         	0.145
MS.325         	11.73          	0.147
MS.326         	11.705         	0.145
MS.327         	11.682         	0.145
MS.328         	11.657         	0.139
MS.329         	11.635         	0.125
MS.330         	11.613         	0.157
MS.331         	11.59          	0.137
MS.332         	11.565         	0.135
MS.333         	11.542         	0.135
MS.334         	11.52          	0.137
MS.335         	11.497         	0.135
MS.336         	11.472         	0.133
MS.337         	11.45          	0.139
MS.338         	11.427         	0.133
MS.339         	11.405         	0.161
MS.340         	11.382         	0.135
MS.341         	11.36          	0.169
MS.342         	11.337         	0.131
MS.343         	11.315         	0.111
MS.344         	11.292         	0.137
MS.345         	11.27          	0.137
MS.346         	11.247         	0.159
MS.347         	11.225         	0.139
MS.348         	11.202         	0.145
MS.349         	11.18          	0.137
MS.350         	11.157         	0.139
MS.351         	11.135         	0.147
MS.352         	11.113         	0.085
MS.353         	11.09          	0.097
MS.354         	11.068         	0.173
MS.355         	11.045         	0.149
MS.356         	11.023         	0.145
MS.357         	11.002         	0.151
MS.358         	10.98          	0.139
MS.359         	10.957         	0.139
MS.360         	10.935         	0.151
MS.361         	10.915         	0.143
MS.362         	10.892         	0.157
MS.363         	10.87          	0.137
MS.364         	10.847         	0.139
MS.365         	10.827         	0.141
MS.366         	10.805         	0.127
MS.367         	10.785         	0.133
MS.368         	10.762         	0.137
MS.369         	10.74          	0.173
MS.370         	10.72          	0.103
MS.371         	10.698         	0.103
MS.372         	10.677         	0.127
MS.373         	10.655         	0.097
MS.374         	10.635         	0.101
MS.375         	10.613         	0.093
MS.376         	10.592         	0.123
MS.377         	10.57          	0.119
MS.378         	10.55          	0.093
MS.379         	10.528         	0.119
MS.380         	10.507         	0.133
MS.381         	10.485         	0.085
MS.382         	10.465         	0.121
MS.383         	10.445         	0.089
MS.384         	10.422         	0.137
MS.385         	10.403         	0.068
MS.386         	10.382         	0.097
MS.387         	10.36          	0.095
MS.388         	10.34          	0.087
MS.389         	10.32          	0.083
MS.390         	10.3           	0.117
MS.391         	10.278         	0.079
MS.392         	10.257         	0.083
MS.393         	10.238         	0.046
MS.394         	10.217         	0.04
MS.395         	10.198         	0.034
MS.396         	10.175         	0.048
MS.397         	10.155         	0.077
MS.398         	10.135         	0.038
MS.399         	10.115         	0.038
MS.400         	10.095         	0.04
MS.401         	10.075         	0.052
MS.402         	10.055         	0.046
MS.403         	10.035         	0.012
MS.404         	10.015         	0.04
MS.405         	9.995          	0.034
MS.406         	9.975          	0.034
MS.407         	9.955          	0.079
MS.408         	9.935          	0.042
MS.409         	9.915          	0.014
MS.410         	9.895          	0.042
MS.411         	9.875          	0.016
MS.412         	9.855          	0.01
MS.413         	9.835          	0.042
MS.414         	9.818          	0.016
MS.415         	9.797          	0.016
MS.416         	9.778          	0.018
MS.417         	9.757          	0.012
MS.418         	9.738          	0.016
MS.419         	9.717          	0.038
MS.420         	9.7            	0.022
MS.421         	9.68           	0.04
MS.422         	9.66           	0.014
MS.423         	9.64           	0.016
MS.424         	9.622          	0.016
MS.425         	9.602          	0.018
MS.426         	9.582          	0.018
MS.427         	9.565          	0.016
MS.428         	9.545          	0.016
MS.429         	9.525          	-0.006
MS.430         	9.507          	-0.006
MS.431         	9.488          	-0.002
MS.432         	9.47           	0.012
MS.433         	9.45           	0.012
MS.434         	9.432          	0.02
MS.435         	9.412          	0.014
MS.436         	9.395          	0.016
MS.437         	9.375          	0.02
MS.438         	9.358          	-0.004
MS.439         	9.337          	-0.004
MS.440         	9.32           	-0.004
MS.441         	9.3            	-0.004
MS.442         	9.283          	0.014
MS.443         	9.262          	-0.004
MS.444         	9.245          	-0.004
MS.445         	9.225          	-0.004
MS.446         	9.207          	0.016
MS.447         	9.19           	-0.004
MS.448         	9.17           	-0.004
MS.449         	9.153          	-0.004
MS.450         	9.135          	-0.004
MS.451         	9.115          	-0.004
MS.452         	9.097          	-0.002
MS.453         	9.08           	-0.004
MS.454         	9.062          	-0.006
MS.455         	9.042          	-0.004
MS.456         	9.025          	-0.006
MS.457         	9.007          	-0.002
MS.458         	8.99           	-0.004
MS.459         	8.972          	-0.006
MS.460         	8.952          	-0.004
MS.461         	8.935          	-0.006
DERIVED EXCITABILITY VARIABLES
Program = QTracP 3/4/2020
Threshold method = 6 (optimised for CAP, using data for present condition only)
SR method = 1 (using actual data values)
6.                 	0.000               	Peak response\(mV)
9.                 	35.6                	Temperature ( C)
17.                	33                  	Age (years)
18.                	1                   	Sex (M=1, F=2)

EXTRA VARIABLES

MScPeak(mV) = 6.8
MScS5(mA) = 12.86
MScS50(mA) = 15.92
MScS95(mA) = 18.79
MScNSteps = 5
MScSteps(%) = 13.3
MScStepMax(%) = 3.5
MScD50 = 37
MScSlope = 7.01
MSFPeakAmp(mV) = 6.8
MSFNUnits = 117
MSFMeanUnitAmp(uV) = 58.1
MSFHuntTime(m) = 2.35
MSFError(%) = 2.65
MSFNLarge = 37.17
MSFMedianAmp(%) = 0.778
MSFMedianAmp(mV) = 0.0529
MSFHalfAmpAmp(%) = 0.935
MSFHalfAmpAmp(mV) = 0.0636
MSFLargestAmp(%) = 2.48
MSFLargestAmp(mV) = 0.169
MSFMeanRS(%) = 1.98
MSFOpts = 10106121
MScDuration(min) = 4.1
MSFTraces = 450
MSFSizeLimit(uV) = 17
MSFLimitType = 1
MSFSmallestAmp(uV) = 18.7

EXTRA WAVEFORMS


!MScan Model
!117
	1	9.85	0.43	2
	2	10.13	0.29	2
	3	10.3	0.43	2
	4	10.63	0.56	2
	5	10.84	0.41	2
	6	12.63	1.33	2
	7	13.06	2.3	2
	8	13.22	0.88	2
	9	13.39	1.29	2
	10	13.52	1.29	2
	11	13.69	1.71	2
	12	13.84	1.31	2
	13	13.91	0.59	2
	14	13.97	0.84	2
	15	14.02	0.55	2
	16	14.06	0.39	2
	17	14.1	0.47	2
	18	14.14	0.54	2
	19	14.2	0.8	2
	20	14.25	0.5	2
	21	14.32	0.95	2
	22	14.43	1.16	2
	23	14.61	2.07	2
	24	14.69	1	2
	25	14.75	0.82	2
	26	14.8	0.8	2
	27	14.85	0.99	2
	28	14.9	0.88	2
	29	14.94	0.7	2
	30	14.97	0.72	2
	31	15.01	0.74	2
	32	15.05	0.74	2
	33	15.08	0.65	2
	34	15.12	0.67	2
	35	15.15	0.78	2
	36	15.19	0.74	2
	37	15.22	0.7	2
	38	15.25	0.83	2
	39	15.28	0.77	2
	40	15.31	0.59	2
	41	15.33	0.5	2
	42	15.36	0.65	2
	43	15.4	0.64	2
	44	15.43	0.44	2
	45	15.45	0.66	2
	46	15.48	0.6	2
	47	15.5	0.62	2
	48	15.53	0.68	2
	49	15.55	0.78	2
	50	15.58	0.87	2
	51	15.61	0.76	2
	52	15.64	0.99	2
	53	15.68	1.13	2
	54	15.71	0.78	2
	55	15.75	0.9	2
	56	15.78	1.11	2
	57	15.82	1.03	2
	58	15.86	0.88	2
	59	15.89	0.82	2
	60	15.93	1.05	2
	61	15.98	1.64	2
	62	16.04	1.6	2
	63	16.1	1.39	2
	64	16.15	1.19	2
	65	16.19	1.07	2
	66	16.24	0.93	2
	67	16.27	0.77	2
	68	16.29	0.97	2
	69	16.34	1.03	2
	70	16.39	0.84	2
	71	16.48	0.67	2
	72	16.53	0.79	2
	73	16.57	0.72	2
	74	16.6	0.44	2
	75	16.63	0.35	2
	76	16.66	0.44	2
	77	16.68	0.67	2
	78	16.71	0.79	2
	79	16.74	0.33	2
	80	16.76	0.44	2
	81	16.79	0.42	2
	82	16.81	0.36	2
	83	16.83	0.36	2
	84	16.85	0.39	2
	85	16.87	0.49	2
	86	16.89	0.5	2
	87	16.91	0.5	2
	88	16.94	0.73	2
	89	16.97	1	2
	90	17.06	1.07	2
	91	17.1	0.91	2
	92	17.13	0.83	2
	93	17.18	1.13	2
	94	17.23	0.81	2
	95	17.32	1.53	2
	96	17.46	1.81	2
	97	17.56	1.14	2
	98	17.66	1.14	2
	99	17.82	1.37	2
	100	17.98	0.86	2
	101	18.16	1.78	2
	102	18.23	1.42	2
	103	18.26	1.02	2
	104	18.35	0.84	2
	105	18.46	1.78	2
	106	18.62	2.48	1.28
	107	18.64	1.59	2
	108	19.09	0.72	2
	109	19.21	0.58	2
	110	19.34	0.4	2
	111	19.44	0.27	2
	112	19.54	0.29	2
	113	19.83	0.48	2
	114	20.26	0.38	2
	115	20.74	0.53	2
	116	21.15	0.52	2
	117	21.37	0.42	2

