File:              	C:\Qtrac\Data\Daniel M Sørensen\MScan multicentre study\Data from centres\Roskilde\Folders with NC-examinations\ROS_N4b\MBC00408A.QZD
Name:              	DK.ROS.NC.4.2
Protocol:          	MSCAN-R2
Date:              	8/4/20
Start time:        	10:01:21
Age:               	41
Sex:               	f
Temperature:       	34.9
S/R sites:         	Median Wr-APB
NC/disease:        	NC
Operator:          	MB
Comments:
M-SCAN DATA (8-1.3m)
Scanpts: 224, 232, 686, 708
Stim. (mA)     	Amp. (mV)
MS.1           	16.5           	5.936
MS.2           	16.5           	5.948
MS.3           	16.5           	5.94
MS.4           	16.5           	5.97
MS.5           	16.5           	5.972
MS.6           	16.5           	5.982
MS.7           	16.5           	5.998
MS.8           	16.5           	6.004
MS.9           	16.5           	5.986
MS.10          	16.5           	5.96
MS.11          	16.5           	5.946
MS.12          	16.5           	5.956
MS.13          	16.5           	5.956
MS.14          	16.5           	5.944
MS.15          	16.5           	5.964
MS.16          	16.5           	5.964
MS.17          	16.5           	5.958
MS.18          	16.5           	5.952
MS.19          	16.5           	5.956
MS.20          	16.5           	5.954
MS.21          	16.5           	5.964
MS.22          	16.5           	5.948
MS.23          	16.5           	5.948
MS.24          	16.435         	5.962
MS.25          	16.4           	5.974
MS.26          	16.368         	5.956
MS.27          	16.335         	5.956
MS.28          	16.302         	5.948
MS.29          	16.27          	5.956
MS.30          	16.237         	5.966
MS.31          	16.205         	5.96
MS.32          	16.172         	5.966
MS.33          	16.14          	5.962
MS.34          	16.108         	5.964
MS.35          	16.077         	5.984
MS.36          	16.045         	5.976
MS.37          	16.012         	5.98
MS.38          	15.98          	5.992
MS.39          	15.947         	5.966
MS.40          	15.917         	5.964
MS.41          	15.885         	5.95
MS.42          	15.852         	5.964
MS.43          	15.822         	5.962
MS.44          	15.79          	5.956
MS.45          	15.757         	5.962
MS.46          	15.727         	5.966
MS.47          	15.695         	5.976
MS.48          	15.665         	5.978
MS.49          	15.632         	5.972
MS.50          	15.602         	5.972
MS.51          	15.57          	5.97
MS.52          	15.54          	5.98
MS.53          	15.507         	5.978
MS.54          	15.477         	5.984
MS.55          	15.445         	5.994
MS.56          	15.415         	5.998
MS.57          	15.385         	5.99
MS.58          	15.352         	6.01
MS.59          	15.322         	5.998
MS.60          	15.292         	5.976
MS.61          	15.262         	6
MS.62          	15.233         	6.002
MS.63          	15.2           	5.974
MS.64          	15.17          	5.986
MS.65          	15.14          	5.972
MS.66          	15.11          	5.968
MS.67          	15.08          	5.96
MS.68          	15.05          	5.96
MS.69          	15.02          	5.96
MS.70          	14.99          	5.946
MS.71          	14.96          	5.954
MS.72          	14.93          	5.946
MS.73          	14.9           	5.948
MS.74          	14.87          	5.954
MS.75          	14.84          	5.948
MS.76          	14.81          	5.946
MS.77          	14.78          	5.954
MS.78          	14.752         	5.936
MS.79          	14.722         	5.932
MS.80          	14.693         	5.948
MS.81          	14.662         	5.944
MS.82          	14.635         	5.93
MS.83          	14.605         	5.952
MS.84          	14.575         	5.95
MS.85          	14.547         	5.948
MS.86          	14.517         	5.942
MS.87          	14.487         	5.954
MS.88          	14.46          	5.958
MS.89          	14.43          	5.952
MS.90          	14.403         	5.95
MS.91          	14.372         	5.944
MS.92          	14.345         	5.95
MS.93          	14.315         	5.964
MS.94          	14.287         	5.968
MS.95          	14.257         	5.94
MS.96          	14.23          	5.95
MS.97          	14.202         	5.958
MS.98          	14.172         	5.95
MS.99          	14.145         	5.958
MS.100         	14.117         	5.928
MS.101         	14.087         	5.956
MS.102         	14.06          	5.97
MS.103         	14.032         	5.96
MS.104         	14.005         	5.962
MS.105         	13.975         	5.958
MS.106         	13.947         	5.964
MS.107         	13.92          	5.962
MS.108         	13.892         	5.95
MS.109         	13.865         	5.948
MS.110         	13.837         	5.938
MS.111         	13.81          	5.952
MS.112         	13.782         	5.96
MS.113         	13.755         	5.952
MS.114         	13.727         	5.958
MS.115         	13.7           	5.956
MS.116         	13.672         	5.968
MS.117         	13.645         	5.964
MS.118         	13.617         	5.966
MS.119         	13.59          	5.974
MS.120         	13.562         	5.98
MS.121         	13.535         	5.976
MS.122         	13.51          	5.974
MS.123         	13.483         	5.968
MS.124         	13.455         	5.978
MS.125         	13.427         	5.984
MS.126         	13.403         	5.98
MS.127         	13.375         	5.99
MS.128         	13.347         	5.992
MS.129         	13.32          	5.994
MS.130         	13.295         	5.996
MS.131         	13.267         	6.002
MS.132         	13.242         	5.996
MS.133         	13.215         	6
MS.134         	13.188         	6
MS.135         	13.162         	6
MS.136         	13.135         	5.99
MS.137         	13.11          	5.984
MS.138         	13.082         	5.984
MS.139         	13.057         	5.994
MS.140         	13.032         	5.992
MS.141         	13.005         	6.008
MS.142         	12.98          	6.01
MS.143         	12.952         	6.006
MS.144         	12.927         	6.01
MS.145         	12.903         	6.02
MS.146         	12.875         	6.002
MS.147         	12.85          	6.002
MS.148         	12.825         	6.006
MS.149         	12.8           	6.014
MS.150         	12.773         	6.002
MS.151         	12.747         	6.002
MS.152         	12.722         	6
MS.153         	12.697         	5.994
MS.154         	12.672         	6.004
MS.155         	12.645         	6.004
MS.156         	12.62          	6
MS.157         	12.595         	6.026
MS.158         	12.57          	6.018
MS.159         	12.545         	6.008
MS.160         	12.52          	6.02
MS.161         	12.495         	6.032
MS.162         	12.47          	6.022
MS.163         	12.445         	6.024
MS.164         	12.42          	6.04
MS.165         	12.395         	6.044
MS.166         	12.37          	6.03
MS.167         	12.347         	6.038
MS.168         	12.322         	6.047
MS.169         	12.297         	6.053
MS.170         	12.273         	6.047
MS.171         	12.247         	6.065
MS.172         	12.222         	6.024
MS.173         	12.2           	6.051
MS.174         	12.175         	6.063
MS.175         	12.15          	6.051
MS.176         	12.125         	6.053
MS.177         	12.102         	6.061
MS.178         	12.077         	6.051
MS.179         	12.052         	6.047
MS.180         	12.03          	6.042
MS.181         	12.005         	6.051
MS.182         	11.983         	6.053
MS.183         	11.957         	6.063
MS.184         	11.932         	6.073
MS.185         	11.91          	6.101
MS.186         	11.885         	6.049
MS.187         	11.863         	6.057
MS.188         	11.837         	6.067
MS.189         	11.815         	6.055
MS.190         	11.79          	6.069
MS.191         	11.767         	6.065
MS.192         	11.745         	6.055
MS.193         	11.72          	6.075
MS.194         	11.697         	6.067
MS.195         	11.675         	6.067
MS.196         	11.65          	6.057
MS.197         	11.627         	6.061
MS.198         	11.605         	6.073
MS.199         	11.58          	6.083
MS.200         	11.557         	6.067
MS.201         	11.535         	6.075
MS.202         	11.512         	6.087
MS.203         	11.488         	6.089
MS.204         	11.465         	6.097
MS.205         	11.443         	6.079
MS.206         	11.42          	6.077
MS.207         	11.398         	6.059
MS.208         	11.375         	6.083
MS.209         	11.352         	6.065
MS.210         	11.33          	6.079
MS.211         	11.307         	6.075
MS.212         	11.282         	6.103
MS.213         	11.26          	6.093
MS.214         	11.238         	6.099
MS.215         	11.215         	6.113
MS.216         	11.195         	6.107
MS.217         	11.172         	6.115
MS.218         	11.15          	6.101
MS.219         	11.127         	6.109
MS.220         	11.105         	6.119
MS.221         	11.082         	6.117
MS.222         	11.06          	6.101
MS.223         	11.037         	6.099
MS.224         	11.015         	6.107
MS.225         	10.995         	6.105
MS.226         	10.972         	6.093
MS.227         	10.95          	6.097
MS.228         	10.927         	6.107
MS.229         	10.907         	6.093
MS.230         	10.885         	6.103
MS.231         	10.863         	6.097
MS.232         	10.84          	6.103
MS.233         	10.82          	6.101
MS.234         	10.797         	6.101
MS.235         	10.778         	6.105
MS.236         	10.755         	6.097
MS.237         	10.733         	6.105
MS.238         	10.712         	6.107
MS.239         	10.69          	6.095
MS.240         	10.67          	6.095
MS.241         	10.648         	6.107
MS.242         	10.627         	6.103
MS.243         	10.605         	6.091
MS.244         	10.585         	6.103
MS.245         	10.562         	6.089
MS.246         	10.542         	6.093
MS.247         	10.52          	6.117
MS.248         	10.5           	6.109
MS.249         	10.48          	5.891
MS.250         	10.457         	5.895
MS.251         	10.438         	6.109
MS.252         	10.415         	5.895
MS.253         	10.395         	5.889
MS.254         	10.375         	5.895
MS.255         	10.355         	6.101
MS.256         	10.332         	5.891
MS.257         	10.312         	5.887
MS.258         	10.292         	5.889
MS.259         	10.273         	5.895
MS.260         	10.25          	5.897
MS.261         	10.23          	5.914
MS.262         	10.21          	5.918
MS.263         	10.19          	5.912
MS.264         	10.17          	5.924
MS.265         	10.15          	5.926
MS.266         	10.127         	5.924
MS.267         	10.108         	5.934
MS.268         	10.087         	5.912
MS.269         	10.068         	5.934
MS.270         	10.047         	5.93
MS.271         	10.028         	5.94
MS.272         	10.007         	5.922
MS.273         	9.988          	5.93
MS.274         	9.967          	5.912
MS.275         	9.948          	5.92
MS.276         	9.927          	5.92
MS.277         	9.907          	5.92
MS.278         	9.887          	5.936
MS.279         	9.867          	5.912
MS.280         	9.85           	5.93
MS.281         	9.83           	5.922
MS.282         	9.81           	5.93
MS.283         	9.79           	5.914
MS.284         	9.77           	5.893
MS.285         	9.75           	5.938
MS.286         	9.733          	5.897
MS.287         	9.712          	5.899
MS.288         	9.693          	5.883
MS.289         	9.672          	5.904
MS.290         	9.655          	5.895
MS.291         	9.635          	5.891
MS.292         	9.615          	5.873
MS.293         	9.595          	5.883
MS.294         	9.577          	5.881
MS.295         	9.557          	5.853
MS.296         	9.537          	5.853
MS.297         	9.52           	5.887
MS.298         	9.5            	5.793
MS.299         	9.483          	5.813
MS.300         	9.462          	5.773
MS.301         	9.445          	5.873
MS.302         	9.425          	5.851
MS.303         	9.405          	5.839
MS.304         	9.387          	5.801
MS.305         	9.367          	5.7
MS.306         	9.35           	5.799
MS.307         	9.33           	5.779
MS.308         	9.312          	5.573
MS.309         	9.295          	5.758
MS.310         	9.275          	5.779
MS.311         	9.257          	5.803
MS.312         	9.238          	5.666
MS.313         	9.22           	5.678
MS.314         	9.202          	5.793
MS.315         	9.182          	5.652
MS.316         	9.165          	5.523
MS.317         	9.148          	5.507
MS.318         	9.127          	5.642
MS.319         	9.11           	5.533
MS.320         	9.092          	5.529
MS.321         	9.073          	5.531
MS.322         	9.055          	5.646
MS.323         	9.037          	5.527
MS.324         	9.02           	5.434
MS.325         	9              	5.444
MS.326         	8.983          	5.458
MS.327         	8.965          	5.376
MS.328         	8.948          	5.333
MS.329         	8.93           	5.225
MS.330         	8.912          	5.275
MS.331         	8.895          	5.219
MS.332         	8.875          	5.154
MS.333         	8.858          	5.136
MS.334         	8.84           	4.967
MS.335         	8.823          	5.307
MS.336         	8.805          	5.116
MS.337         	8.787          	5.166
MS.338         	8.77           	5.005
MS.339         	8.752          	4.927
MS.340         	8.735          	4.772
MS.341         	8.717          	5.084
MS.342         	8.7            	4.711
MS.343         	8.682          	4.792
MS.344         	8.665          	4.729
MS.345         	8.648          	4.622
MS.346         	8.63           	4.747
MS.347         	8.613          	4.713
MS.348         	8.597          	4.399
MS.349         	8.58           	4.556
MS.350         	8.562          	4.465
MS.351         	8.545          	4.22
MS.352         	8.528          	4.107
MS.353         	8.51           	4.099
MS.354         	8.495          	4.081
MS.355         	8.477          	4.069
MS.356         	8.46           	3.837
MS.357         	8.443          	3.877
MS.358         	8.427          	4.473
MS.359         	8.41           	3.799
MS.360         	8.392          	3.69
MS.361         	8.375          	3.803
MS.362         	8.36           	3.887
MS.363         	8.342          	3.732
MS.364         	8.325          	3.702
MS.365         	8.31           	3.597
MS.366         	8.292          	3.678
MS.367         	8.275          	3.628
MS.368         	8.26           	3.605
MS.369         	8.242          	3.583
MS.370         	8.227          	3.317
MS.371         	8.21           	3.493
MS.372         	8.193          	3.454
MS.373         	8.177          	3.406
MS.374         	8.16           	3.333
MS.375         	8.145          	3.489
MS.376         	8.127          	3.241
MS.377         	8.113          	3.203
MS.378         	8.095          	3.287
MS.379         	8.08           	3.335
MS.380         	8.062          	3.356
MS.381         	8.047          	3.031
MS.382         	8.033          	3.011
MS.383         	8.015          	3.078
MS.384         	8              	2.82
MS.385         	7.982          	2.767
MS.386         	7.967          	3.402
MS.387         	7.952          	2.91
MS.388         	7.935          	3.049
MS.389         	7.92           	2.977
MS.390         	7.905          	2.806
MS.391         	7.887          	2.84
MS.392         	7.872          	2.878
MS.393         	7.857          	2.667
MS.394         	7.84           	2.727
MS.395         	7.825          	2.707
MS.396         	7.81           	2.624
MS.397         	7.795          	2.588
MS.398         	7.777          	2.594
MS.399         	7.762          	2.598
MS.400         	7.747          	2.639
MS.401         	7.732          	2.685
MS.402         	7.717          	2.393
MS.403         	7.7            	2.395
MS.404         	7.685          	2.401
MS.405         	7.67           	2.494
MS.406         	7.655          	2.445
MS.407         	7.64           	2.212
MS.408         	7.625          	2.284
MS.409         	7.61           	2.04
MS.410         	7.595          	2.25
MS.411         	7.58           	2.208
MS.412         	7.562          	1.96
MS.413         	7.547          	2.119
MS.414         	7.532          	1.97
MS.415         	7.517          	2.153
MS.416         	7.503          	1.972
MS.417         	7.487          	2.097
MS.418         	7.472          	1.891
MS.419         	7.457          	1.851
MS.420         	7.442          	1.714
MS.421         	7.427          	1.893
MS.422         	7.415          	1.849
MS.423         	7.4            	1.805
MS.424         	7.385          	1.781
MS.425         	7.37           	1.625
MS.426         	7.355          	1.642
MS.427         	7.34           	1.789
MS.428         	7.325          	1.668
MS.429         	7.31           	1.482
MS.430         	7.295          	1.478
MS.431         	7.282          	1.591
MS.432         	7.267          	1.414
MS.433         	7.253          	1.221
MS.434         	7.237          	1.418
MS.435         	7.222          	1.372
MS.436         	7.21           	1.347
MS.437         	7.195          	1.241
MS.438         	7.18           	1.341
MS.439         	7.165          	1.287
MS.440         	7.152          	1.108
MS.441         	7.137          	1.313
MS.442         	7.122          	1.293
MS.443         	7.11           	1.279
MS.444         	7.095          	1.055
MS.445         	7.08           	1.1
MS.446         	7.067          	1.126
MS.447         	7.052          	1.142
MS.448         	7.037          	1.001
MS.449         	7.025          	0.927
MS.450         	7.01           	0.967
MS.451         	6.995          	0.884
MS.452         	6.983          	0.969
MS.453         	6.967          	0.961
MS.454         	6.955          	0.993
MS.455         	6.94           	1.027
MS.456         	6.927          	0.939
MS.457         	6.912          	0.922
MS.458         	6.9            	0.967
MS.459         	6.885          	0.935
MS.460         	6.872          	0.836
MS.461         	6.858          	0.943
MS.462         	6.845          	0.685
MS.463         	6.83           	0.701
MS.464         	6.817          	0.711
MS.465         	6.802          	0.898
MS.466         	6.79           	0.715
MS.467         	6.775          	0.784
MS.468         	6.762          	0.761
MS.469         	6.747          	0.765
MS.470         	6.735          	0.608
MS.471         	6.722          	0.761
MS.472         	6.707          	0.564
MS.473         	6.695          	0.542
MS.474         	6.682          	0.685
MS.475         	6.668          	0.608
MS.476         	6.655          	0.554
MS.477         	6.642          	0.562
MS.478         	6.628          	0.695
MS.479         	6.615          	0.53
MS.480         	6.602          	0.56
MS.481         	6.587          	0.574
MS.482         	6.575          	0.53
MS.483         	6.562          	0.534
MS.484         	6.55           	0.477
MS.485         	6.535          	0.435
MS.486         	6.523          	0.425
MS.487         	6.51           	0.417
MS.488         	6.497          	0.405
MS.489         	6.485          	0.284
MS.490         	6.47           	0.401
MS.491         	6.457          	0.383
MS.492         	6.445          	0.435
MS.493         	6.432          	0.377
MS.494         	6.42           	0.405
MS.495         	6.407          	0.357
MS.496         	6.395          	0.216
MS.497         	6.38           	0.357
MS.498         	6.367          	0.113
MS.499         	6.355          	0.214
MS.500         	6.342          	0.205
MS.501         	6.33           	0.226
MS.502         	6.317          	0.081
MS.503         	6.305          	0.109
MS.504         	6.293          	0.111
MS.505         	6.28           	0.185
MS.506         	6.267          	0.234
MS.507         	6.255          	0.191
MS.508         	6.242          	0.079
MS.509         	6.23           	0.085
MS.510         	6.217          	0.075
MS.511         	6.205          	0.077
MS.512         	6.192          	0.077
MS.513         	6.18           	0.183
MS.514         	6.168          	0.081
MS.515         	6.155          	0.077
MS.516         	6.142          	0.077
MS.517         	6.13           	0.077
MS.518         	6.117          	0.077
MS.519         	6.108          	0.083
MS.520         	6.095          	0.079
MS.521         	6.082          	0.058
MS.522         	6.07           	0.083
MS.523         	6.057          	0.077
MS.524         	6.045          	0.06
MS.525         	6.032          	0.06
MS.526         	6.023          	0.085
MS.527         	6.01           	0.087
MS.528         	5.997          	0.085
MS.529         	5.985          	0.085
MS.530         	5.972          	0.085
MS.531         	5.963          	0.081
MS.532         	5.95           	0.083
MS.533         	5.938          	0.083
MS.534         	5.925          	0.081
MS.535         	5.915          	0.054
MS.536         	5.902          	0.077
MS.537         	5.89           	0.062
MS.538         	5.88           	0.058
MS.539         	5.867          	0.056
MS.540         	5.855          	0.054
MS.541         	5.842          	0.083
MS.542         	5.832          	0.081
MS.543         	5.82           	0.085
MS.544         	5.807          	0.073
MS.545         	5.797          	0.083
MS.546         	5.785          	0.054
MS.547         	5.775          	0.054
MS.548         	5.762          	0.058
MS.549         	5.75           	0.052
MS.550         	5.74           	0.056
MS.551         	5.727          	0.056
MS.552         	5.717          	0.048
MS.553         	5.705          	0.056
MS.554         	5.692          	0.054
MS.555         	5.682          	0.054
MS.556         	5.67           	0.016
MS.557         	5.66           	0.052
MS.558         	5.648          	0.052
MS.559         	5.637          	0.05
MS.560         	5.625          	0.048
MS.561         	5.615          	0.05
MS.562         	5.602          	0.048
MS.563         	5.592          	0.022
MS.564         	5.58           	0.02
MS.565         	5.57           	0.05
MS.566         	5.557          	0.052
MS.567         	5.547          	0.05
MS.568         	5.537          	0.014
MS.569         	5.525          	0.048
MS.570         	5.515          	0.022
MS.571         	5.503          	0.046
MS.572         	5.492          	0.014
MS.573         	5.483          	0.01
MS.574         	5.47           	0.05
MS.575         	5.46           	0.04
MS.576         	5.447          	0.042
MS.577         	5.438          	0.006
MS.578         	5.427          	0.042
MS.579         	5.415          	0.04
MS.580         	5.405          	0.004
MS.581         	5.395          	0.014
MS.582         	5.382          	0.006
MS.583         	5.372          	0.04
MS.584         	5.362          	0.01
MS.585         	5.352          	0.006
MS.586         	5.34           	0.012
MS.587         	5.33           	0.008
MS.588         	5.32           	0.004
MS.589         	5.307          	0.01
MS.590         	5.297          	0.008
MS.591         	5.287          	0.012
MS.592         	5.277          	0.006
MS.593         	5.267          	-0.01
MS.594         	5.255          	0.002
MS.595         	5.245          	0.01
MS.596         	5.235          	0.006
MS.597         	5.225          	0.006
MS.598         	5.215          	0.002
MS.599         	5.202          	0.008
MS.600         	5.193          	0.000
MS.601         	5.182          	0.006
MS.602         	5.172          	0.01
MS.603         	5.162          	0.02
MS.604         	5.152          	0.004
MS.605         	5.142          	0.006
MS.606         	5.132          	0.006
MS.607         	5.12           	0.002
MS.608         	5.11           	0.004
MS.609         	5.1            	0.008
MS.610         	5.09           	0.008
MS.611         	5.08           	-0.002
MS.612         	5.07           	0.004
MS.613         	5.06           	-0.004
MS.614         	5.05           	-0.006
MS.615         	5.04           	-0.006
MS.616         	5.03           	0.004
MS.617         	5.02           	0.006
MS.618         	5.01           	-0.002
MS.619         	5              	0.01
MS.620         	4.99           	-0.002
MS.621         	4.98           	0.008
MS.622         	4.97           	-0.006
MS.623         	4.96           	-0.006
MS.624         	4.95           	-0.004
MS.625         	4.94           	0.008
MS.626         	4.93           	0.002
MS.627         	4.92           	0.004
MS.628         	4.91           	0.004
MS.629         	4.9            	-0.004
MS.630         	4.89           	0.002
MS.631         	4.88           	-0.004
MS.632         	4.872          	-0.006
MS.633         	4.862          	-0.006
MS.634         	4.852          	-0.006
MS.635         	4.842          	-0.006
MS.636         	4.832          	0.002
MS.637         	4.822          	-0.002
MS.638         	4.812          	-0.004
MS.639         	4.802          	-0.006
MS.640         	4.795          	0.000
MS.641         	4.785          	-0.004
MS.642         	4.775          	-0.002
MS.643         	4.765          	-0.006
MS.644         	4.755          	-0.002
MS.645         	4.747          	-0.004
MS.646         	4.737          	-0.004
MS.647         	4.727          	-0.006
MS.648         	4.717          	-0.004
MS.649         	4.707          	0.000
MS.650         	4.7            	0.000
MS.651         	4.69           	-0.004
MS.652         	4.68           	0.006
MS.653         	4.67           	0.002
MS.654         	4.662          	-0.004
MS.655         	4.652          	0.000
MS.656         	4.642          	-0.002
MS.657         	4.632          	0.000
MS.658         	4.625          	-0.004
MS.659         	4.615          	0.000
MS.660         	4.605          	0.002
MS.661         	4.597          	0.000
MS.662         	4.588          	0.000
MS.663         	4.577          	0.01
MS.664         	4.57           	0.000
MS.665         	4.56           	0.000
MS.666         	4.55           	0.000
MS.667         	4.543          	-0.002
MS.668         	4.532          	-0.002
MS.669         	4.525          	-0.004
MS.670         	4.515          	0.002
MS.671         	4.505          	-0.002
MS.672         	4.497          	-0.004
MS.673         	4.487          	0.004
MS.674         	4.48           	-0.002
MS.675         	4.47           	0.002
MS.676         	4.46           	0.01
MS.677         	4.452          	0.000
MS.678         	4.443          	0.01
MS.679         	4.435          	-0.004
MS.680         	4.425          	0.002
MS.681         	4.418          	-0.004
MS.682         	4.407          	0.000
MS.683         	4.4            	0.000
MS.684         	4.39           	-0.002
MS.685         	4.382          	0.004
MS.686         	4.372          	0.000
MS.687         	4.365          	-0.006
MS.688         	4.355          	0.000
MS.689         	4.347          	-0.004
MS.690         	4.338          	-0.004
MS.691         	4.33           	-0.002
MS.692         	4.32           	0.002
MS.693         	4.312          	0.004
MS.694         	4.302          	0.002
MS.695         	4.295          	0.004
MS.696         	4.285          	-0.002
MS.697         	4.277          	0.000
MS.698         	4.27           	0.000
MS.699         	4.26           	0.004
MS.700         	4.253          	-0.002
MS.701         	4.242          	-0.004
MS.702         	4.235          	-0.004
MS.703         	4.227          	0.000
MS.704         	4.217          	0.01
MS.705         	4.21           	0.014
MS.706         	4.2            	0.006
MS.707         	4.193          	-0.004
MS.708         	4.185          	0.008
DERIVED EXCITABILITY VARIABLES
Program = QTracP 3/4/2020
Threshold method = 6 (optimised for CAP, using data for present condition only)
SR method = 1 (using actual data values)
6.                 	0.000               	Peak response\(mV)
9.                 	34.9                	Temperature ( C)
17.                	41                  	Age (years)
18.                	2                   	Sex (M=1, F=2)

EXTRA VARIABLES

MScPeak(mV) = 5.96
MScS5(mA) = 6.43
MScS50(mA) = 7.96
MScS95(mA) = 9.27
MScNSteps = 3
MScSteps(%) = 7.4
MScStepMax(%) = 3
MScD50 = 41
MScSlope = 6.48
MSFPeakAmp(mV) = 6.1
MSFNUnits = 102
MSFMeanUnitAmp(uV) = 59.8
MSFHuntTime(m) = 2.41
MSFError(%) = 2.27
MSFNLarge = 29.16
MSFMedianAmp(%) = 0.797
MSFMedianAmp(mV) = 0.0486
MSFHalfAmpAmp(%) = 1.21
MSFHalfAmpAmp(mV) = 0.0737
MSFLargestAmp(%) = 3.78
MSFLargestAmp(mV) = 0.231
MSFMeanRS(%) = 1.99
MSFOpts = 10106121
MScDuration(min) = 6.7
MSFTraces = 485
MSFSizeLimit(uV) = 15.2
MSFLimitType = 1
MSFSmallestAmp(uV) = 16.8

EXTRA WAVEFORMS


!MScan Model
!102
	1	5.53	0.54	2
	2	5.9	0.66	2
	3	6.25	1.01	2
	4	6.32	0.94	2
	5	6.35	0.59	2
	6	6.39	0.63	2
	7	6.43	1.21	2
	8	6.47	0.71	2
	9	6.49	0.62	2
	10	6.52	0.49	2
	11	6.54	0.33	2
	12	6.55	0.3	2
	13	6.57	0.34	2
	14	6.58	0.33	2
	15	6.65	1.31	2
	16	6.72	1.27	2
	17	6.78	0.89	2
	18	6.83	1.21	2
	19	6.89	1.13	2
	20	6.99	1.21	2
	21	7.02	1.02	2
	22	7.04	0.44	2
	23	7.06	0.73	2
	24	7.09	0.81	2
	25	7.11	0.8	2
	26	7.14	0.86	2
	27	7.21	1.78	2
	28	7.23	0.45	2
	29	7.25	0.54	2
	30	7.26	0.78	2
	31	7.28	0.75	2
	32	7.3	0.73	2
	33	7.32	0.59	2
	34	7.34	0.8	2
	35	7.37	0.97	2
	36	7.39	1.29	2
	37	7.42	1.32	2
	38	7.46	1.25	2
	39	7.5	1.23	2
	40	7.53	0.79	2
	41	7.56	1.29	2
	42	7.58	1.02	2
	43	7.6	0.61	2
	44	7.62	0.52	2
	45	7.63	0.65	2
	46	7.65	0.8	2
	47	7.67	0.88	2
	48	7.69	0.87	2
	49	7.71	0.66	2
	50	7.73	0.63	2
	51	7.75	0.59	2
	52	7.76	0.58	2
	53	7.78	0.58	2
	54	7.8	0.59	2
	55	7.84	1.27	2
	56	7.91	2.49	2
	57	8	3.15	2
	58	8.07	1.99	2
	59	8.1	1.08	2
	60	8.13	0.97	2
	61	8.15	0.56	2
	62	8.17	0.57	2
	63	8.18	0.59	2
	64	8.2	0.6	2
	65	8.22	0.68	2
	66	8.25	0.48	2
	67	8.25	0.32	2
	68	8.27	0.71	2
	69	8.28	0.85	2
	70	8.3	0.83	2
	71	8.37	2.9	2
	72	8.42	1.9	2
	73	8.48	3.78	1.6
	74	8.53	2.28	2
	75	8.55	1.24	2
	76	8.57	0.74	2.4
	77	8.58	0.66	2
	78	8.6	0.71	2
	79	8.61	0.85	2
	80	8.66	1.53	2
	81	8.68	1.53	2
	82	8.71	1.34	2
	83	8.75	1.56	2
	84	8.79	1.34	2
	85	8.83	1.11	2
	86	8.86	1.22	2
	87	8.89	1.13	2
	88	8.91	0.52	2
	89	8.93	0.44	2
	90	8.95	0.45	2
	91	8.96	0.28	2
	92	8.97	0.28	2
	93	8.98	0.28	2
	94	8.99	0.48	2
	95	9.03	1.15	2
	96	9.07	0.88	2
	97	9.13	1.29	2
	98	9.22	1.28	2
	99	9.37	1.57	2
	100	9.46	0.72	2
	101	9.57	0.54	2
	102	10.39	2.96	2

