File:              	C:\Qtrac\Data\Daniel M Sørensen\MScan multicentre study\Data from centres\Roskilde\Folders with NC-examinations\ROS_N7b\MBC00505A.QZD
Name:              	DK.ROS.NC.7.2
Protocol:          	MSCAN-R2
Date:              	5/5/20
Start time:        	13:35:42
Age:               	66
Sex:               	m
Temperature:       	40.0
S/R sites:         	Median Wr-APB
NC/disease:        	NC
Operator:          	MB
Comments:
M-SCAN DATA (6.2-1.6m)
Scanpts: 66, 70, 478, 500
Stim. (mA)     	Amp. (mV)
MS.1           	21             	7.035
MS.2           	21             	7.072
MS.3           	21             	7.106
MS.4           	21             	7.078
MS.5           	21             	7.09
MS.6           	21             	7.076
MS.7           	21             	7.078
MS.8           	21             	7.072
MS.9           	21             	7.06
MS.10          	21             	7.07
MS.11          	21             	7.054
MS.12          	21             	7.064
MS.13          	21             	7.039
MS.14          	21             	7.035
MS.15          	21             	7.06
MS.16          	21             	7.054
MS.17          	21             	7.056
MS.18          	21             	7.078
MS.19          	21             	7.096
MS.20          	21             	7.09
MS.21          	21             	7.102
MS.22          	21             	7.11
MS.23          	21             	7.124
MS.24          	20.915         	7.124
MS.25          	20.875         	7.104
MS.26          	20.833         	7.128
MS.27          	20.79          	7.108
MS.28          	20.75          	7.116
MS.29          	20.708         	7.106
MS.30          	20.667         	7.104
MS.31          	20.625         	7.088
MS.32          	20.585         	7.07
MS.33          	20.542         	7.082
MS.34          	20.502         	7.08
MS.35          	20.46          	7.096
MS.36          	20.42          	7.112
MS.37          	20.38          	7.118
MS.38          	20.337         	7.112
MS.39          	20.297         	7.112
MS.40          	20.257         	7.142
MS.41          	20.217         	7.104
MS.42          	20.177         	7.14
MS.43          	20.135         	7.114
MS.44          	20.095         	7.106
MS.45          	20.055         	7.106
MS.46          	20.015         	7.124
MS.47          	19.975         	7.096
MS.48          	19.935         	7.132
MS.49          	19.895         	7.118
MS.50          	19.855         	7.14
MS.51          	19.817         	7.124
MS.52          	19.778         	7.122
MS.53          	19.737         	7.138
MS.54          	19.698         	7.116
MS.55          	19.657         	7.112
MS.56          	19.62          	7.124
MS.57          	19.58          	7.088
MS.58          	19.54          	7.098
MS.59          	19.502         	7.092
MS.60          	19.462         	7.092
MS.61          	19.425         	7.102
MS.62          	19.385         	7.088
MS.63          	19.347         	7.1
MS.64          	19.307         	7.096
MS.65          	19.27          	7.134
MS.66          	19.23          	7.114
MS.67          	19.192         	7.11
MS.68          	19.155         	7.112
MS.69          	19.115         	7.1
MS.70          	19.077         	7.102
MS.71          	19.04          	7.09
MS.72          	19.002         	7.094
MS.73          	18.962         	7.086
MS.74          	18.925         	7.106
MS.75          	18.887         	7.092
MS.76          	18.85          	7.096
MS.77          	18.812         	7.102
MS.78          	18.775         	7.09
MS.79          	18.737         	7.108
MS.80          	18.7           	7.09
MS.81          	18.663         	7.084
MS.82          	18.625         	7.106
MS.83          	18.587         	6.971
MS.84          	18.55          	7.114
MS.85          	18.515         	7.102
MS.86          	18.477         	7.116
MS.87          	18.44          	7.1
MS.88          	18.403         	7.096
MS.89          	18.368         	7.082
MS.90          	18.33          	7.096
MS.91          	18.292         	6.953
MS.92          	18.257         	6.937
MS.93          	18.22          	6.941
MS.94          	18.182         	6.937
MS.95          	18.147         	6.937
MS.96          	18.11          	6.931
MS.97          	18.075         	6.937
MS.98          	18.038         	6.933
MS.99          	18.003         	6.941
MS.100         	17.967         	6.943
MS.101         	17.93          	6.943
MS.102         	17.895         	6.816
MS.103         	17.86          	6.943
MS.104         	17.823         	6.935
MS.105         	17.788         	6.953
MS.106         	17.753         	6.939
MS.107         	17.717         	6.939
MS.108         	17.682         	6.951
MS.109         	17.645         	6.828
MS.110         	17.61          	6.822
MS.111         	17.575         	6.826
MS.112         	17.54          	6.818
MS.113         	17.505         	6.929
MS.114         	17.47          	6.808
MS.115         	17.435         	6.802
MS.116         	17.4           	6.735
MS.117         	17.365         	6.822
MS.118         	17.333         	6.846
MS.119         	17.297         	6.8
MS.120         	17.262         	6.729
MS.121         	17.227         	6.725
MS.122         	17.192         	6.729
MS.123         	17.16          	6.721
MS.124         	17.125         	6.802
MS.125         	17.09          	6.725
MS.126         	17.057         	6.717
MS.127         	17.022         	6.739
MS.128         	16.987         	6.711
MS.129         	16.955         	6.717
MS.130         	16.92          	6.741
MS.131         	16.887         	6.723
MS.132         	16.852         	6.667
MS.133         	16.82          	6.745
MS.134         	16.785         	6.731
MS.135         	16.753         	6.731
MS.136         	16.717         	6.669
MS.137         	16.685         	6.721
MS.138         	16.653         	6.651
MS.139         	16.618         	6.667
MS.140         	16.585         	6.665
MS.141         	16.552         	6.657
MS.142         	16.52          	6.657
MS.143         	16.485         	6.715
MS.144         	16.452         	6.709
MS.145         	16.42          	6.639
MS.146         	16.387         	6.621
MS.147         	16.355         	6.612
MS.148         	16.323         	6.55
MS.149         	16.29          	6.554
MS.150         	16.257         	6.383
MS.151         	16.225         	6.433
MS.152         	16.192         	6.385
MS.153         	16.16          	6.429
MS.154         	16.128         	6.194
MS.155         	16.095         	6.226
MS.156         	16.062         	6.526
MS.157         	16.03          	6.032
MS.158         	16             	6.038
MS.159         	15.967         	6.053
MS.160         	15.935         	5.972
MS.161         	15.902         	6.026
MS.162         	15.872         	5.875
MS.163         	15.84          	5.843
MS.164         	15.807         	5.885
MS.165         	15.777         	5.843
MS.166         	15.745         	5.795
MS.167         	15.712         	5.773
MS.168         	15.682         	5.793
MS.169         	15.65          	5.845
MS.170         	15.62          	5.857
MS.171         	15.587         	5.767
MS.172         	15.557         	5.765
MS.173         	15.525         	5.783
MS.174         	15.495         	5.678
MS.175         	15.465         	5.754
MS.176         	15.432         	5.632
MS.177         	15.402         	5.634
MS.178         	15.372         	5.609
MS.179         	15.34          	5.646
MS.180         	15.31          	5.462
MS.181         	15.28          	5.474
MS.182         	15.25          	5.513
MS.183         	15.217         	5.481
MS.184         	15.188         	5.716
MS.185         	15.157         	5.472
MS.186         	15.127         	5.519
MS.187         	15.097         	5.402
MS.188         	15.068         	5.281
MS.189         	15.037         	5.267
MS.190         	15.007         	5.209
MS.191         	14.977         	4.82
MS.192         	14.947         	4.929
MS.193         	14.917         	4.886
MS.194         	14.887         	4.852
MS.195         	14.858         	4.792
MS.196         	14.827         	5.013
MS.197         	14.797         	4.772
MS.198         	14.77          	4.79
MS.199         	14.74          	4.735
MS.200         	14.71          	4.739
MS.201         	14.68          	4.755
MS.202         	14.65          	4.749
MS.203         	14.622         	4.753
MS.204         	14.592         	4.78
MS.205         	14.562         	4.683
MS.206         	14.535         	4.778
MS.207         	14.505         	4.49
MS.208         	14.477         	4.766
MS.209         	14.447         	4.409
MS.210         	14.417         	4.461
MS.211         	14.39          	4.405
MS.212         	14.36          	4.685
MS.213         	14.332         	4.439
MS.214         	14.302         	4.127
MS.215         	14.275         	4.163
MS.216         	14.247         	4.401
MS.217         	14.217         	4.411
MS.218         	14.19          	4.103
MS.219         	14.162         	4.322
MS.220         	14.132         	4.401
MS.221         	14.105         	4.127
MS.222         	14.077         	4.119
MS.223         	14.047         	4.405
MS.224         	14.02          	4.103
MS.225         	13.992         	4.292
MS.226         	13.965         	4.397
MS.227         	13.938         	3.889
MS.228         	13.91          	3.922
MS.229         	13.88          	3.948
MS.230         	13.852         	4.002
MS.231         	13.825         	3.982
MS.232         	13.797         	4.006
MS.233         	13.77          	3.881
MS.234         	13.742         	3.978
MS.235         	13.715         	3.662
MS.236         	13.688         	3.702
MS.237         	13.66          	3.581
MS.238         	13.632         	3.642
MS.239         	13.605         	3.557
MS.240         	13.58          	3.785
MS.241         	13.552         	3.551
MS.242         	13.525         	3.382
MS.243         	13.497         	3.686
MS.244         	13.47          	3.43
MS.245         	13.445         	3.337
MS.246         	13.417         	3.414
MS.247         	13.39          	3.241
MS.248         	13.362         	3.219
MS.249         	13.337         	3.047
MS.250         	13.31          	3.154
MS.251         	13.282         	3.198
MS.252         	13.257         	3.186
MS.253         	13.23          	3.021
MS.254         	13.205         	3.128
MS.255         	13.177         	3.039
MS.256         	13.153         	2.967
MS.257         	13.125         	2.906
MS.258         	13.1           	2.923
MS.259         	13.072         	2.953
MS.260         	13.047         	2.401
MS.261         	13.02          	2.796
MS.262         	12.995         	2.308
MS.263         	12.967         	2.492
MS.264         	12.943         	2.715
MS.265         	12.917         	2.189
MS.266         	12.89          	2.441
MS.267         	12.865         	2.483
MS.268         	12.84          	2.355
MS.269         	12.812         	2.131
MS.270         	12.787         	2.181
MS.271         	12.762         	2.056
MS.272         	12.738         	2.113
MS.273         	12.712         	2.099
MS.274         	12.685         	2.161
MS.275         	12.66          	1.982
MS.276         	12.635         	1.95
MS.277         	12.61          	2.119
MS.278         	12.585         	1.944
MS.279         	12.56          	1.922
MS.280         	12.535         	1.841
MS.281         	12.51          	1.827
MS.282         	12.485         	1.984
MS.283         	12.46          	1.936
MS.284         	12.435         	1.855
MS.285         	12.41          	1.772
MS.286         	12.385         	1.704
MS.287         	12.36          	1.724
MS.288         	12.335         	1.825
MS.289         	12.312         	1.698
MS.290         	12.287         	1.793
MS.291         	12.262         	1.696
MS.292         	12.238         	1.734
MS.293         	12.212         	1.652
MS.294         	12.19          	1.678
MS.295         	12.165         	1.712
MS.296         	12.14          	1.7
MS.297         	12.115         	1.563
MS.298         	12.092         	1.438
MS.299         	12.068         	1.497
MS.300         	12.042         	1.527
MS.301         	12.02          	1.418
MS.302         	11.995         	1.251
MS.303         	11.972         	1.414
MS.304         	11.947         	1.255
MS.305         	11.922         	1.358
MS.306         	11.9           	1.362
MS.307         	11.875         	1.376
MS.308         	11.852         	1.563
MS.309         	11.827         	1.4
MS.310         	11.805         	1.168
MS.311         	11.782         	1.084
MS.312         	11.757         	1.408
MS.313         	11.735         	1.311
MS.314         	11.71          	1.396
MS.315         	11.688         	1.033
MS.316         	11.665         	1.208
MS.317         	11.64          	0.991
MS.318         	11.617         	1.09
MS.319         	11.595         	1.017
MS.320         	11.57          	0.931
MS.321         	11.547         	0.902
MS.322         	11.525         	0.918
MS.323         	11.502         	0.852
MS.324         	11.48          	0.92
MS.325         	11.455         	0.773
MS.326         	11.432         	0.784
MS.327         	11.41          	0.838
MS.328         	11.387         	0.663
MS.329         	11.365         	0.689
MS.330         	11.342         	0.751
MS.331         	11.32          	0.717
MS.332         	11.297         	0.693
MS.333         	11.275         	0.689
MS.334         	11.252         	0.657
MS.335         	11.23          	0.568
MS.336         	11.207         	0.665
MS.337         	11.185         	0.665
MS.338         	11.162         	0.56
MS.339         	11.14          	0.518
MS.340         	11.117         	0.522
MS.341         	11.095         	0.659
MS.342         	11.073         	0.491
MS.343         	11.05          	0.548
MS.344         	11.03          	0.572
MS.345         	11.007         	0.471
MS.346         	10.985         	0.393
MS.347         	10.962         	0.405
MS.348         	10.94          	0.357
MS.349         	10.92          	0.491
MS.350         	10.898         	0.272
MS.351         	10.875         	0.268
MS.352         	10.855         	0.117
MS.353         	10.832         	0.272
MS.354         	10.81          	0.258
MS.355         	10.79          	0.242
MS.356         	10.767         	0.228
MS.357         	10.745         	0.191
MS.358         	10.725         	0.207
MS.359         	10.702         	0.123
MS.360         	10.682         	0.167
MS.361         	10.66          	0.135
MS.362         	10.64          	0.117
MS.363         	10.617         	0.113
MS.364         	10.597         	0.169
MS.365         	10.575         	0.151
MS.366         	10.555         	0.119
MS.367         	10.532         	0.115
MS.368         	10.512         	0.117
MS.369         	10.49          	0.117
MS.370         	10.47          	0.111
MS.371         	10.45          	0.107
MS.372         	10.427         	0.115
MS.373         	10.407         	0.111
MS.374         	10.387         	0.115
MS.375         	10.365         	0.117
MS.376         	10.345         	0.113
MS.377         	10.325         	0.099
MS.378         	10.305         	0.113
MS.379         	10.282         	0.109
MS.380         	10.262         	0.117
MS.381         	10.242         	0.113
MS.382         	10.222         	0.115
MS.383         	10.202         	0.111
MS.384         	10.18          	0.097
MS.385         	10.16          	0.105
MS.386         	10.14          	0.099
MS.387         	10.12          	0.099
MS.388         	10.1           	0.097
MS.389         	10.08          	0.048
MS.390         	10.06          	0.097
MS.391         	10.04          	0.054
MS.392         	10.02          	0.05
MS.393         	10             	0.054
MS.394         	9.98           	0.097
MS.395         	9.96           	0.058
MS.396         	9.94           	0.052
MS.397         	9.92           	0.056
MS.398         	9.9            	0.052
MS.399         	9.88           	0.046
MS.400         	9.86           	0.052
MS.401         	9.84           	0.05
MS.402         	9.82           	0.046
MS.403         	9.802          	0.052
MS.404         	9.782          	0.046
MS.405         	9.762          	0.046
MS.406         	9.742          	0.054
MS.407         	9.722          	0.052
MS.408         	9.705          	0.052
MS.409         	9.685          	0.052
MS.410         	9.665          	0.052
MS.411         	9.645          	0.058
MS.412         	9.627          	0.05
MS.413         	9.608          	0.044
MS.414         	9.587          	0.048
MS.415         	9.57           	0.048
MS.416         	9.55           	0.048
MS.417         	9.53           	0.048
MS.418         	9.512          	0.052
MS.419         	9.492          	0.052
MS.420         	9.472          	0.052
MS.421         	9.455          	0.05
MS.422         	9.435          	0.054
MS.423         	9.417          	0.052
MS.424         	9.398          	0.052
MS.425         	9.38           	0.046
MS.426         	9.36           	0.05
MS.427         	9.342          	0.052
MS.428         	9.323          	0.054
MS.429         	9.305          	0.052
MS.430         	9.285          	0.052
MS.431         	9.267          	0.058
MS.432         	9.25           	0.05
MS.433         	9.23           	0.052
MS.434         	9.212          	0.052
MS.435         	9.193          	0.05
MS.436         	9.175          	0.05
MS.437         	9.158          	0.052
MS.438         	9.137          	0.05
MS.439         	9.12           	0.05
MS.440         	9.102          	0.054
MS.441         	9.085          	0.05
MS.442         	9.065          	0.052
MS.443         	9.047          	0.048
MS.444         	9.03           	0.05
MS.445         	9.012          	0.046
MS.446         	8.992          	0.054
MS.447         	8.975          	0.046
MS.448         	8.957          	0.05
MS.449         	8.94           	0.052
MS.450         	8.922          	0.054
MS.451         	8.905          	0.052
MS.452         	8.887          	0.036
MS.453         	8.867          	0.05
MS.454         	8.85           	0.05
MS.455         	8.832          	0.052
MS.456         	8.815          	0.054
MS.457         	8.797          	0.054
MS.458         	8.78           	0.052
MS.459         	8.762          	0.054
MS.460         	8.745          	0.036
MS.461         	8.727          	0.052
MS.462         	8.71           	0.046
MS.463         	8.693          	0.05
MS.464         	8.675          	0.016
MS.465         	8.658          	0.014
MS.466         	8.64           	0.036
MS.467         	8.622          	0.016
MS.468         	8.608          	0.042
MS.469         	8.59           	0.04
MS.470         	8.573          	0.01
MS.471         	8.555          	0.022
MS.472         	8.537          	0.034
MS.473         	8.52           	0.014
MS.474         	8.505          	0.01
MS.475         	8.488          	0.018
MS.476         	8.47           	0.016
MS.477         	8.452          	0.012
MS.478         	8.435          	0.018
MS.479         	8.42           	0.04
MS.480         	8.403          	0.018
MS.481         	8.385          	0.02
MS.482         	8.37           	0.016
MS.483         	8.352          	0.014
MS.484         	8.335          	0.014
MS.485         	8.32           	0.018
MS.486         	8.302          	0.014
MS.487         	8.285          	0.016
MS.488         	8.27           	0.014
MS.489         	8.252          	0.018
MS.490         	8.235          	0.014
MS.491         	8.22           	0.018
MS.492         	8.202          	0.014
MS.493         	8.188          	0.01
MS.494         	8.17           	0.014
MS.495         	8.155          	0.022
MS.496         	8.137          	0.016
MS.497         	8.122          	0.018
MS.498         	8.105          	0.012
MS.499         	8.09           	0.014
MS.500         	8.073          	0.016
DERIVED EXCITABILITY VARIABLES
Program = QTracP 3/4/2020
Threshold method = 6 (optimised for CAP, using data for present condition only)
SR method = 1 (using actual data values)
6.                 	0.000               	Peak response\(mV)
17.                	66                  	Age (years)
18.                	1                   	Sex (M=1, F=2)

EXTRA VARIABLES

MScPeak(mV) = 7.05
MScS5(mA) = 10.91
MScS50(mA) = 13.51
MScS95(mA) = 16.68
MScNSteps = 2
MScSteps(%) = 5.5
MScStepMax(%) = 2.8
MScD50 = 37
MScSlope = 4.93
MSFPeakAmp(mV) = 7.09
MSFNUnits = 129
MSFMeanUnitAmp(uV) = 55
MSFHuntTime(m) = 2
MSFError(%) = 5.12
MSFNLarge = 37.46
MSFMedianAmp(%) = 0.711
MSFMedianAmp(mV) = 0.0504
MSFHalfAmpAmp(%) = 0.867
MSFHalfAmpAmp(mV) = 0.0614
MSFLargestAmp(%) = 2.78
MSFLargestAmp(mV) = 0.197
MSFMeanRS(%) = 2
MSFOpts = 10106121
MScDuration(min) = 4.6
MSFTraces = 435
MSFSizeLimit(uV) = 17.7
MSFLimitType = 1
MSFSmallestAmp(uV) = 18.7

EXTRA WAVEFORMS


!MScan Model
!129
	1	8.76	0.37	2
	2	10	0.34	2
	3	10.15	0.42	2
	4	10.58	0.52	2
	5	10.66	0.39	2
	6	10.75	0.51	2
	7	10.8	0.62	2
	8	10.84	0.52	2
	9	10.87	0.37	2
	10	10.9	0.37	2
	11	10.92	0.5	2
	12	10.95	0.6	2
	13	10.99	0.72	2
	14	11.03	0.49	2
	15	11.09	0.74	2
	16	11.15	0.72	2
	17	11.19	0.36	2
	18	11.26	0.5	2
	19	11.29	0.32	2
	20	11.33	0.49	2
	21	11.35	0.27	2
	22	11.37	0.3	2
	23	11.39	0.26	2
	24	11.42	0.55	2
	25	11.46	0.4	2
	26	11.49	0.53	2
	27	11.5	0.33	2
	28	11.54	0.73	2
	29	11.58	0.76	2
	30	11.62	0.86	2
	31	11.69	1.48	2
	32	11.88	2.48	2
	33	11.98	1.37	2
	34	12.04	0.37	2
	35	12.07	0.51	2
	36	12.1	0.59	2
	37	12.15	1.03	2
	38	12.21	0.75	2
	39	12.28	1.07	2
	40	12.35	0.74	2
	41	12.42	0.62	2
	42	12.48	0.72	2
	43	12.55	0.86	2
	44	12.6	0.58	2
	45	12.62	0.3	2
	46	12.64	0.36	2
	47	12.67	0.47	2
	48	12.69	0.49	2
	49	12.73	0.69	2
	50	12.78	0.92	2
	51	12.84	1.27	2
	52	12.88	1.15	2
	53	12.93	1.32	2
	54	12.97	1.34	2
	55	13.01	0.98	2
	56	13.04	0.8	2
	57	13.08	1.18	2
	58	13.12	1.33	2
	59	13.16	1.36	2
	60	13.21	0.79	2
	61	13.25	0.93	2
	62	13.28	1	2
	63	13.32	0.89	2
	64	13.36	0.76	2
	65	13.4	0.75	2
	66	13.43	0.67	2
	67	13.47	0.63	2
	68	13.51	0.87	2
	69	13.55	1.08	2
	70	13.59	1.05	2
	71	13.64	0.93	2
	72	13.7	1.37	2
	73	13.77	1.19	2
	74	13.88	2.25	2
	75	14.02	2.1	2
	76	14.27	2.78	2
	77	14.37	1.39	2
	78	14.43	0.64	2
	79	14.5	1.39	2
	80	14.59	1.18	2
	81	14.78	1.79	2
	82	14.84	0.62	2
	83	14.87	0.86	2
	84	14.9	0.85	2
	85	14.93	0.71	2
	86	14.95	0.57	2
	87	14.98	0.38	2
	88	15	0.38	2
	89	15.03	0.71	2
	90	15.05	0.75	2
	91	15.11	1.62	2
	92	15.2	1.99	2
	93	15.3	1.43	2
	94	15.38	0.94	2
	95	15.43	0.41	2
	96	15.47	0.33	2
	97	15.51	0.37	2
	98	15.6	0.91	2
	99	15.69	0.82	2
	100	15.76	0.45	2
	101	15.83	0.79	2
	102	15.87	0.78	2
	103	15.9	0.4	2
	104	15.94	0.37	2
	105	15.97	0.71	2
	106	16.01	0.71	2
	107	16.04	0.72	2
	108	16.07	0.67	2
	109	16.11	0.6	2
	110	16.14	0.64	2
	111	16.17	0.53	2
	112	16.19	0.38	2
	113	16.21	0.3	2
	114	16.23	0.29	2
	115	16.25	0.3	2
	116	16.27	0.29	2
	117	16.29	0.29	2
	118	16.3	0.29	2
	119	16.33	0.32	2
	120	16.41	1.1	2
	121	16.61	1	2
	122	17.05	0.77	2
	123	17.42	0.43	2
	124	17.59	0.74	2
	125	17.97	0.72	2
	126	18.07	1.01	2
	127	18.14	0.27	2
	128	18.21	0.53	2
	129	18.36	0.52	2

