File:              	C:\Qtrac\Data\Daniel M Sørensen\MScan multicentre study\Data from centres\Toronto\Processed data\MSCC01119A.QZD
Name:              	CA.TOR.NC.1.2
Protocol:          	MSCAN-R2
Date:              	19/11/20
Start time:        	10:45:34
Age:               	36
Sex:               	M
Temperature:       	32.4
S/R sites:         	APB
NC/disease:        	NC
Operator:          	LP
Comments:
M-SCAN DATA (5.7-1.2m)
Scanpts: 18, 27, 371, 382
Stim. (mA)     	Amp. (mV)
MS.1           	22.5           	10.657
MS.2           	22.5           	10.645
MS.3           	22.5           	10.651
MS.4           	22.5           	10.633
MS.5           	22.5           	10.649
MS.6           	22.5           	10.637
MS.7           	22.5           	10.641
MS.8           	22.5           	10.623
MS.9           	22.5           	10.647
MS.10          	22.5           	10.651
MS.11          	22.5           	10.639
MS.12          	22.5           	10.635
MS.13          	22.5           	10.621
MS.14          	22.5           	10.647
MS.15          	22.5           	10.647
MS.16          	22.5           	10.633
MS.17          	22.5           	10.641
MS.18          	22.5           	10.655
MS.19          	22.5           	10.655
MS.20          	22.5           	10.661
MS.21          	22.5           	10.645
MS.22          	22.5           	10.643
MS.23          	22.5           	10.655
MS.24          	22.41          	10.655
MS.25          	22.365         	10.645
MS.26          	22.32          	10.659
MS.27          	22.275         	10.659
MS.28          	22.233         	10.663
MS.29          	22.188         	10.653
MS.30          	22.142         	10.645
MS.31          	22.097         	10.661
MS.32          	22.055         	10.663
MS.33          	22.01          	10.647
MS.34          	21.967         	10.653
MS.35          	21.922         	10.675
MS.36          	21.877         	10.679
MS.37          	21.835         	10.673
MS.38          	21.792         	10.665
MS.39          	21.747         	10.566
MS.40          	21.705         	10.542
MS.41          	21.66          	10.673
MS.42          	21.618         	10.57
MS.43          	21.575         	10.447
MS.44          	21.532         	10.524
MS.45          	21.487         	10.663
MS.46          	21.445         	10.421
MS.47          	21.403         	10.651
MS.48          	21.36          	10.645
MS.49          	21.317         	10.437
MS.50          	21.275         	10.456
MS.51          	21.233         	10.546
MS.52          	21.19          	10.435
MS.53          	21.147         	10.451
MS.54          	21.105         	10.46
MS.55          	21.062         	10.443
MS.56          	21.02          	10.458
MS.57          	20.98          	10.445
MS.58          	20.938         	10.603
MS.59          	20.895         	10.264
MS.60          	20.852         	10.449
MS.61          	20.812         	10.27
MS.62          	20.77          	10.478
MS.63          	20.727         	10.476
MS.64          	20.688         	10.48
MS.65          	20.645         	10.272
MS.66          	20.605         	10.276
MS.67          	20.562         	10.264
MS.68          	20.522         	10.254
MS.69          	20.483         	10.466
MS.70          	20.44          	10.447
MS.71          	20.4           	10.284
MS.72          	20.36          	10.294
MS.73          	20.317         	10.492
MS.74          	20.278         	10.274
MS.75          	20.237         	10.268
MS.76          	20.198         	10.47
MS.77          	20.155         	10.258
MS.78          	20.115         	10.218
MS.79          	20.075         	10.276
MS.80          	20.035         	10.302
MS.81          	19.995         	10.25
MS.82          	19.955         	10.256
MS.83          	19.915         	10.26
MS.84          	19.875         	10.25
MS.85          	19.837         	10.236
MS.86          	19.797         	10.262
MS.87          	19.757         	10.439
MS.88          	19.717         	10.186
MS.89          	19.677         	10.276
MS.90          	19.64          	10.234
MS.91          	19.6           	10.248
MS.92          	19.56          	10.23
MS.93          	19.522         	10.284
MS.94          	19.483         	10.178
MS.95          	19.442         	10.236
MS.96          	19.405         	10.236
MS.97          	19.365         	10.163
MS.98          	19.327         	10.125
MS.99          	19.288         	10.145
MS.100         	19.25          	10.167
MS.101         	19.212         	9.902
MS.102         	19.172         	10.069
MS.103         	19.135         	10.039
MS.104         	19.097         	10.095
MS.105         	19.057         	9.986
MS.106         	19.02          	9.95
MS.107         	18.983         	9.906
MS.108         	18.945         	9.831
MS.109         	18.907         	10.069
MS.110         	18.87          	9.853
MS.111         	18.83          	9.843
MS.112         	18.792         	9.749
MS.113         	18.755         	9.753
MS.114         	18.717         	9.912
MS.115         	18.68          	9.861
MS.116         	18.645         	9.458
MS.117         	18.608         	9.446
MS.118         	18.57          	9.608
MS.119         	18.532         	9.563
MS.120         	18.495         	9.354
MS.121         	18.458         	9.187
MS.122         	18.422         	9.527
MS.123         	18.385         	9.179
MS.124         	18.347         	9.614
MS.125         	18.31          	9.448
MS.126         	18.275         	8.989
MS.127         	18.237         	8.83
MS.128         	18.202         	9.207
MS.129         	18.165         	8.856
MS.130         	18.13          	8.671
MS.131         	18.092         	9.181
MS.132         	18.057         	8.87
MS.133         	18.02          	9.156
MS.134         	17.985         	8.786
MS.135         	17.948         	9.007
MS.136         	17.913         	8.929
MS.137         	17.878         	8.202
MS.138         	17.84          	8.302
MS.139         	17.805         	8.115
MS.140         	17.77          	8.103
MS.141         	17.735         	8.276
MS.142         	17.7           	8.413
MS.143         	17.663         	8.075
MS.144         	17.628         	8.101
MS.145         	17.592         	8.312
MS.146         	17.557         	7.761
MS.147         	17.522         	8.071
MS.148         	17.487         	8.32
MS.149         	17.452         	7.785
MS.150         	17.417         	7.815
MS.151         	17.382         	7.847
MS.152         	17.347         	7.736
MS.153         	17.315         	7.557
MS.154         	17.28          	7.867
MS.155         	17.245         	7.763
MS.156         	17.21          	7.873
MS.157         	17.175         	7.74
MS.158         	17.142         	7.182
MS.159         	17.108         	7.328
MS.160         	17.073         	7.267
MS.161         	17.04          	6.977
MS.162         	17.005         	7.303
MS.163         	16.97          	7.271
MS.164         	16.938         	7.297
MS.165         	16.903         	7.319
MS.166         	16.87          	7.124
MS.167         	16.835         	6.913
MS.168         	16.802         	7.354
MS.169         	16.767         	7.185
MS.170         	16.735         	7.09
MS.171         	16.702         	6.979
MS.172         	16.667         	7.039
MS.173         	16.635         	6.522
MS.174         	16.602         	6.242
MS.175         	16.567         	6.884
MS.176         	16.535         	6.643
MS.177         	16.503         	6.542
MS.178         	16.47          	6.717
MS.179         	16.438         	6.584
MS.180         	16.405         	6.572
MS.181         	16.37          	6.695
MS.182         	16.337         	6.49
MS.183         	16.305         	5.914
MS.184         	16.272         	6.139
MS.185         	16.24          	6.087
MS.186         	16.208         	5.561
MS.187         	16.175         	5.833
MS.188         	16.142         	5.904
MS.189         	16.11          	5.787
MS.190         	16.08          	5.813
MS.191         	16.047         	5.446
MS.192         	16.015         	5.523
MS.193         	15.983         	5.795
MS.194         	15.95          	4.838
MS.195         	15.92          	4.663
MS.196         	15.887         	4.715
MS.197         	15.855         	5.317
MS.198         	15.822         	4.965
MS.199         	15.792         	4.999
MS.200         	15.76          	4.157
MS.201         	15.73          	4.157
MS.202         	15.697         	4.149
MS.203         	15.667         	4.536
MS.204         	15.635         	3.69
MS.205         	15.602         	3.944
MS.206         	15.572         	4.544
MS.207         	15.542         	4.635
MS.208         	15.51          	4.187
MS.209         	15.48          	3.847
MS.210         	15.447         	3.499
MS.211         	15.417         	3.787
MS.212         	15.387         	3.634
MS.213         	15.355         	3.7
MS.214         	15.325         	3.599
MS.215         	15.295         	3.346
MS.216         	15.265         	3.851
MS.217         	15.233         	3.309
MS.218         	15.202         	3.201
MS.219         	15.172         	3.263
MS.220         	15.142         	3.178
MS.221         	15.112         	3.108
MS.222         	15.082         	2.963
MS.223         	15.052         	3.307
MS.224         	15.023         	3.11
MS.225         	14.992         	2.882
MS.226         	14.962         	3.055
MS.227         	14.932         	3.023
MS.228         	14.902         	3.001
MS.229         	14.872         	2.81
MS.230         	14.842         	2.701
MS.231         	14.812         	2.725
MS.232         	14.782         	2.832
MS.233         	14.755         	2.685
MS.234         	14.725         	2.465
MS.235         	14.695         	2.753
MS.236         	14.665         	2.633
MS.237         	14.637         	2.407
MS.238         	14.608         	2.405
MS.239         	14.577         	2.197
MS.240         	14.55          	2.218
MS.241         	14.52          	2.28
MS.242         	14.49          	2.093
MS.243         	14.462         	2.199
MS.244         	14.432         	1.811
MS.245         	14.405         	1.734
MS.246         	14.375         	1.885
MS.247         	14.347         	2.004
MS.248         	14.318         	1.885
MS.249         	14.29          	1.702
MS.250         	14.26          	1.684
MS.251         	14.233         	1.543
MS.252         	14.205         	1.557
MS.253         	14.175         	1.478
MS.254         	14.148         	1.561
MS.255         	14.12          	1.464
MS.256         	14.09          	1.364
MS.257         	14.062         	1.38
MS.258         	14.035         	1.297
MS.259         	14.007         	1.293
MS.260         	13.977         	1.275
MS.261         	13.95          	1.335
MS.262         	13.922         	1.132
MS.263         	13.895         	1.233
MS.264         	13.867         	1.251
MS.265         	13.84          	1.084
MS.266         	13.812         	1.291
MS.267         	13.785         	1.13
MS.268         	13.757         	1.007
MS.269         	13.73          	1.142
MS.270         	13.702         	1.025
MS.271         	13.675         	1.11
MS.272         	13.648         	0.894
MS.273         	13.62          	1.043
MS.274         	13.592         	0.955
MS.275         	13.565         	0.918
MS.276         	13.537         	0.852
MS.277         	13.51          	0.916
MS.278         	13.485         	1.001
MS.279         	13.457         	0.808
MS.280         	13.43          	0.866
MS.281         	13.403         	0.715
MS.282         	13.377         	0.779
MS.283         	13.35          	0.651
MS.284         	13.322         	0.721
MS.285         	13.297         	0.888
MS.286         	13.27          	0.741
MS.287         	13.242         	0.645
MS.288         	13.217         	0.558
MS.289         	13.19          	0.622
MS.290         	13.165         	0.636
MS.291         	13.137         	0.564
MS.292         	13.112         	0.675
MS.293         	13.085         	0.669
MS.294         	13.06          	0.661
MS.295         	13.032         	0.55
MS.296         	13.007         	0.58
MS.297         	12.983         	0.447
MS.298         	12.955         	0.522
MS.299         	12.93          	0.453
MS.300         	12.903         	0.53
MS.301         	12.877         	0.483
MS.302         	12.852         	0.54
MS.303         	12.827         	0.451
MS.304         	12.8           	0.449
MS.305         	12.775         	0.497
MS.306         	12.75          	0.457
MS.307         	12.725         	0.439
MS.308         	12.7           	0.461
MS.309         	12.672         	0.451
MS.310         	12.648         	0.491
MS.311         	12.622         	0.459
MS.312         	12.597         	0.487
MS.313         	12.572         	0.459
MS.314         	12.547         	0.451
MS.315         	12.523         	0.447
MS.316         	12.497         	0.445
MS.317         	12.472         	0.397
MS.318         	12.447         	0.459
MS.319         	12.422         	0.417
MS.320         	12.398         	0.453
MS.321         	12.372         	0.459
MS.322         	12.347         	0.457
MS.323         	12.322         	0.068
MS.324         	12.3           	0.371
MS.325         	12.275         	0.419
MS.326         	12.25          	0.107
MS.327         	12.225         	0.467
MS.328         	12.2           	0.423
MS.329         	12.177         	0.099
MS.330         	12.153         	0.405
MS.331         	12.127         	0.431
MS.332         	12.102         	0.068
MS.333         	12.08          	0.363
MS.334         	12.055         	0.361
MS.335         	12.032         	0.405
MS.336         	12.007         	0.107
MS.337         	11.983         	0.401
MS.338         	11.96          	0.359
MS.339         	11.935         	0.359
MS.340         	11.912         	0.373
MS.341         	11.887         	0.062
MS.342         	11.865         	0.373
MS.343         	11.84          	0.062
MS.344         	11.818         	0.346
MS.345         	11.792         	0.066
MS.346         	11.77          	0.073
MS.347         	11.745         	0.079
MS.348         	11.722         	0.075
MS.349         	11.7           	0.07
MS.350         	11.675         	0.111
MS.351         	11.653         	0.073
MS.352         	11.63          	0.075
MS.353         	11.605         	0.085
MS.354         	11.582         	0.365
MS.355         	11.56          	0.075
MS.356         	11.537         	0.056
MS.357         	11.512         	0.077
MS.358         	11.49          	0.068
MS.359         	11.467         	0.07
MS.360         	11.445         	0.081
MS.361         	11.422         	0.079
MS.362         	11.4           	0.075
MS.363         	11.375         	0.066
MS.364         	11.352         	0.073
MS.365         	11.33          	0.07
MS.366         	11.307         	0.077
MS.367         	11.285         	0.066
MS.368         	11.262         	0.081
MS.369         	11.24          	0.081
MS.370         	11.217         	0.083
MS.371         	11.195         	0.079
MS.372         	11.172         	0.07
MS.373         	11.15          	0.079
MS.374         	11.127         	0.087
MS.375         	11.108         	0.081
MS.376         	11.085         	0.081
MS.377         	11.062         	0.068
MS.378         	11.04          	0.075
MS.379         	11.017         	0.087
MS.380         	10.995         	0.079
MS.381         	10.975         	0.075
MS.382         	10.952         	0.077
MS.383         	10.93          	0.083
MS.384         	10.907         	0.077
MS.385         	10.887         	0.083
MS.386         	10.865         	0.079
MS.387         	10.842         	0.079
MS.388         	10.82          	0.073
MS.389         	10.8           	0.077
MS.390         	10.778         	0.079
MS.391         	10.757         	0.083
MS.392         	10.735         	0.077
MS.393         	10.712         	0.07
MS.394         	10.693         	0.077
MS.395         	10.67          	0.073
MS.396         	10.65          	0.089
MS.397         	10.627         	0.085
MS.398         	10.608         	0.083
MS.399         	10.585         	0.085
MS.400         	10.565         	0.081
MS.401         	10.542         	0.089
MS.402         	10.523         	0.083
MS.403         	10.502         	0.085
MS.404         	10.48          	0.083
MS.405         	10.46          	0.079
MS.406         	10.438         	0.077
MS.407         	10.417         	0.081
MS.408         	10.398         	0.079
MS.409         	10.375         	0.079
MS.410         	10.355         	0.085
MS.411         	10.335         	0.083
MS.412         	10.315         	0.083
MS.413         	10.292         	0.085
MS.414         	10.273         	0.073
MS.415         	10.252         	0.081
MS.416         	10.233         	0.075
MS.417         	10.212         	0.085
MS.418         	10.19          	0.07
MS.419         	10.17          	0.075
MS.420         	10.15          	0.085
MS.421         	10.13          	0.083
MS.422         	10.11          	0.077
MS.423         	10.09          	0.077
MS.424         	10.07          	0.077
MS.425         	10.05          	0.081
MS.426         	10.03          	0.087
MS.427         	10.01          	0.077
MS.428         	9.99           	0.083
MS.429         	9.97           	0.077
MS.430         	9.95           	0.079
MS.431         	9.93           	0.079
MS.432         	9.91           	0.083
MS.433         	9.89           	0.087
MS.434         	9.87           	0.087
MS.435         	9.85           	0.081
MS.436         	9.83           	0.083
MS.437         	9.81           	0.075
MS.438         	9.792          	0.083
MS.439         	9.773          	0.07
MS.440         	9.752          	0.087
MS.441         	9.733          	0.01
MS.442         	9.712          	0.079
MS.443         	9.695          	0.085
MS.444         	9.675          	0.01
MS.445         	9.655          	0.089
MS.446         	9.635          	0.081
MS.447         	9.617          	0.085
MS.448         	9.597          	0.006
MS.449         	9.577          	0.000
MS.450         	9.56           	0.081
MS.451         	9.54           	0.083
MS.452         	9.52           	0.079
MS.453         	9.502          	0.085
MS.454         	9.483          	0.083
MS.455         	9.465          	0.089
MS.456         	9.445          	0.006
MS.457         	9.427          	0.004
MS.458         	9.407          	0.077
MS.459         	9.387          	0.079
MS.460         	9.37           	0.008
MS.461         	9.352          	0.085
MS.462         	9.332          	0.006
MS.463         	9.315          	0.008
MS.464         	9.295          	0.004
MS.465         	9.278          	0.006
MS.466         	9.257          	0.004
MS.467         	9.24           	0.006
MS.468         	9.222          	0.006
MS.469         	9.202          	0.008
MS.470         	9.185          	0.006
MS.471         	9.165          	0.002
MS.472         	9.148          	0.004
MS.473         	9.13           	0.004
MS.474         	9.113          	0.006
MS.475         	9.092          	0.004
MS.476         	9.075          	0.006
MS.477         	9.057          	0.004
MS.478         	9.037          	0.004
MS.479         	9.02           	0.002
MS.480         	9.002          	0.006
MS.481         	8.985          	0.004
MS.482         	8.967          	0.006
MS.483         	8.948          	0.006
MS.484         	8.93           	0.008
MS.485         	8.912          	0.004
MS.486         	8.895          	0.002
MS.487         	8.877          	0.008
MS.488         	8.86           	0.006
MS.489         	8.842          	0.002
MS.490         	8.825          	0.004
MS.491         	8.807          	0.004
MS.492         	8.79           	0.002
MS.493         	8.773          	0.006
DERIVED EXCITABILITY VARIABLES
Program = QTracP 3/4/2020
Threshold method = 6 (optimised for CAP, using data for present condition only)
SR method = 1 (using actual data values)
6.                 	0.000               	Peak response\(mV)
9.                 	32.4                	Temperature ( C)
17.                	36                  	Age (years)
18.                	1                   	Sex (M=1, F=2)

EXTRA VARIABLES

MScPeak(mV) = 10.64
MScS5(mA) = 12.9
MScS50(mA) = 15.97
MScS95(mA) = 19.24
MScNSteps = 6
MScSteps(%) = 15.4
MScStepMax(%) = 3.3
MScD50 = 34
MScSlope = 5.67
MSFPeakAmp(mV) = 10.6
MSFNUnits = 107
MSFMeanUnitAmp(uV) = 98.8
MSFHuntTime(m) = 1.92
MSFError(%) = 5.96
MSFNLarge = 24.43
MSFMedianAmp(%) = 0.551
MSFMedianAmp(mV) = 0.0582
MSFHalfAmpAmp(%) = 1.52
MSFHalfAmpAmp(mV) = 0.161
MSFLargestAmp(%) = 2.81
MSFLargestAmp(mV) = 0.298
MSFMeanRS(%) = 2
MSFOpts = 10106121
MScDuration(min) = 4.5
MSFTraces = 365
MSFSizeLimit(uV) = 26.4
MSFLimitType = 1
MSFSmallestAmp(uV) = 27.1

EXTRA WAVEFORMS


!MScan Model
!107
	1	11.94	2.22	2
	2	11.98	0.86	2
	3	12.81	0.91	2
	4	12.95	0.32	2
	5	13.07	0.57	2
	6	13.16	0.5	2
	7	13.25	0.55	2
	8	13.32	0.39	2
	9	13.38	0.44	2
	10	13.44	0.48	2
	11	13.5	0.49	2
	12	13.56	0.42	2
	13	13.62	0.46	2
	14	13.67	0.41	2
	15	13.72	0.38	2
	16	13.77	0.39	2
	17	13.81	0.36	2
	18	13.85	0.36	2
	19	13.89	0.42	2
	20	13.93	0.44	2
	21	13.98	0.39	2
	22	14.01	0.34	2
	23	14.03	0.36	2
	24	14.06	0.32	2
	25	14.08	0.33	2
	26	14.11	0.28	2
	27	14.14	0.26	2
	28	14.16	0.29	2
	29	14.19	0.39	2
	30	14.21	0.36	2
	31	14.23	0.29	2
	32	14.25	0.26	2
	33	14.27	0.28	2
	34	14.29	0.31	2
	35	14.31	0.33	2
	36	14.32	0.33	2
	37	14.34	0.32	2
	38	14.36	0.35	2
	39	14.38	0.35	2
	40	14.4	0.35	2
	41	14.42	0.39	2
	42	14.44	0.43	2
	43	14.46	0.44	2
	44	14.48	0.38	2
	45	14.51	0.46	2
	46	14.53	0.46	2
	47	14.55	0.39	2
	48	14.57	0.36	2
	49	14.6	0.39	2
	50	14.62	0.42	2
	51	14.64	0.46	2
	52	14.67	0.55	2
	53	14.7	0.54	2
	54	14.73	0.48	2
	55	14.76	0.41	2
	56	14.79	0.55	2
	57	14.85	0.99	2
	58	14.91	0.8	2
	59	14.96	0.68	2
	60	15.01	0.84	2
	61	15.06	0.95	2
	62	15.12	0.81	2
	63	15.18	1.04	2
	64	15.25	1.3	2
	65	15.34	1.3	2
	66	15.44	2.11	2
	67	15.55	2.51	2
	68	15.65	2.09	2
	69	15.74	2.4	2
	70	15.82	2.51	2
	71	15.88	1.51	2
	72	15.93	1.09	2
	73	15.99	1.49	2
	74	16.04	1.52	1.8
	75	16.09	1.75	2
	76	16.14	1.47	2
	77	16.24	2.81	2
	78	16.34	1.71	2
	79	16.41	1.62	2
	80	16.5	1.75	2
	81	16.63	2.15	2
	82	16.83	2	2
	83	16.97	2.45	2
	84	17.08	0.86	2
	85	17.19	1.91	2
	86	17.28	1.25	2
	87	17.45	2.37	2
	88	17.57	1.33	2
	89	17.68	1.6	2
	90	17.8	2.1	2
	91	17.92	1.69	2
	92	18.04	1.66	2
	93	18.19	2.47	2
	94	18.34	1.98	2
	95	18.46	1.4	2
	96	18.57	1.18	2
	97	18.64	0.77	2
	98	18.71	0.54	2
	99	18.79	0.82	2
	100	18.9	0.96	2
	101	18.99	0.64	2
	102	19.06	0.54	2
	103	19.13	0.44	2
	104	19.21	0.52	2
	105	19.44	0.84	2
	106	20.59	1.91	2
	107	21.41	1.59	2

