File:              	C:\Qtrac\Data\Daniel M Sørensen\MScan multicentre study\Data from centres\Oulu\Processed data\OUHC01106A.QZD
Name:              	FL.OUL.NC.2.2
Protocol:          	MSCAN-R2
Date:              	6/11/20
Start time:        	08:35:12
Age:               	63
Sex:               	F
Temperature:       	33,4
S/R sites:         	APB
NC/disease:        	NC
Operator:          	MK
Comments:
M-SCAN DATA (2-0.0m)
Scanpts: 86, 97, 724, 733
Stim. (mA)     	Amp. (mV)
MS.1           	17.5           	7.303
MS.2           	17.5           	7.39
MS.3           	17.465         	7.305
MS.4           	17.43          	7.307
MS.5           	17.395         	7.299
MS.6           	17.36          	7.338
MS.7           	17.325         	7.33
MS.8           	17.292         	7.338
MS.9           	17.257         	7.338
MS.10          	17.222         	7.328
MS.11          	17.188         	7.334
MS.12          	17.153         	7.328
MS.13          	17.12          	7.311
MS.14          	17.085         	7.319
MS.15          	17.05          	7.33
MS.16          	17.017         	7.344
MS.17          	16.983         	7.319
MS.18          	16.95          	7.326
MS.19          	16.915         	7.311
MS.20          	16.88          	7.34
MS.21          	16.847         	7.332
MS.22          	16.815         	7.305
MS.23          	16.78          	7.334
MS.24          	16.747         	7.315
MS.25          	16.712         	7.332
MS.26          	16.68          	7.326
MS.27          	16.647         	7.354
MS.28          	16.612         	7.342
MS.29          	16.58          	7.326
MS.30          	16.547         	7.317
MS.31          	16.515         	7.33
MS.32          	16.48          	7.348
MS.33          	16.448         	7.332
MS.34          	16.415         	7.323
MS.35          	16.382         	7.348
MS.36          	16.35          	7.34
MS.37          	16.317         	7.334
MS.38          	16.285         	7.326
MS.39          	16.253         	7.313
MS.40          	16.22          	7.301
MS.41          	16.188         	7.315
MS.42          	16.155         	7.326
MS.43          	16.122         	7.323
MS.44          	16.09          	7.311
MS.45          	16.057         	7.326
MS.46          	16.025         	7.332
MS.47          	15.995         	7.354
MS.48          	15.962         	7.328
MS.49          	15.93          	7.326
MS.50          	15.898         	7.321
MS.51          	15.867         	7.323
MS.52          	15.835         	7.33
MS.53          	15.802         	7.33
MS.54          	15.773         	7.34
MS.55          	15.74          	7.35
MS.56          	15.707         	7.328
MS.57          	15.677         	7.336
MS.58          	15.645         	7.321
MS.59          	15.615         	7.332
MS.60          	15.582         	7.311
MS.61          	15.552         	7.311
MS.62          	15.52          	7.323
MS.63          	15.49          	7.328
MS.64          	15.46          	7.33
MS.65          	15.427         	7.328
MS.66          	15.398         	7.311
MS.67          	15.367         	7.321
MS.68          	15.335         	7.328
MS.69          	15.305         	7.323
MS.70          	15.275         	7.33
MS.71          	15.245         	7.317
MS.72          	15.215         	7.319
MS.73          	15.182         	7.332
MS.74          	15.152         	7.315
MS.75          	15.122         	7.323
MS.76          	15.092         	7.315
MS.77          	15.062         	7.321
MS.78          	15.032         	7.334
MS.79          	15.002         	7.328
MS.80          	14.972         	7.336
MS.81          	14.943         	7.328
MS.82          	14.912         	7.326
MS.83          	14.882         	7.336
MS.84          	14.852         	7.321
MS.85          	14.822         	7.33
MS.86          	14.792         	7.334
MS.87          	14.765         	7.336
MS.88          	14.735         	7.344
MS.89          	14.705         	7.342
MS.90          	14.675         	7.338
MS.91          	14.648         	7.34
MS.92          	14.617         	7.34
MS.93          	14.587         	7.336
MS.94          	14.56          	7.34
MS.95          	14.53          	7.336
MS.96          	14.5           	7.336
MS.97          	14.472         	7.336
MS.98          	14.443         	7.336
MS.99          	14.415         	7.346
MS.100         	14.385         	7.338
MS.101         	14.358         	7.328
MS.102         	14.327         	7.344
MS.103         	14.3           	7.336
MS.104         	14.27          	7.332
MS.105         	14.242         	7.336
MS.106         	14.212         	7.334
MS.107         	14.185         	7.326
MS.108         	14.157         	7.336
MS.109         	14.127         	7.338
MS.110         	14.1           	7.338
MS.111         	14.072         	7.334
MS.112         	14.045         	7.338
MS.113         	14.015         	7.338
MS.114         	13.987         	7.344
MS.115         	13.96          	7.342
MS.116         	13.932         	7.34
MS.117         	13.905         	7.34
MS.118         	13.877         	7.338
MS.119         	13.85          	7.34
MS.120         	13.82          	7.34
MS.121         	13.792         	7.338
MS.122         	13.765         	7.346
MS.123         	13.737         	6.971
MS.124         	13.71          	7.348
MS.125         	13.682         	7.346
MS.126         	13.657         	7.358
MS.127         	13.63          	7.342
MS.128         	13.602         	7.346
MS.129         	13.575         	7.344
MS.130         	13.547         	7.354
MS.131         	13.52          	6.979
MS.132         	13.492         	7.356
MS.133         	13.467         	6.977
MS.134         	13.44          	7.352
MS.135         	13.412         	7.346
MS.136         	13.385         	7.352
MS.137         	13.36          	7.352
MS.138         	13.332         	6.971
MS.139         	13.305         	6.977
MS.140         	13.28          	6.971
MS.141         	13.252         	6.979
MS.142         	13.225         	6.969
MS.143         	13.2           	6.969
MS.144         	13.172         	6.981
MS.145         	13.148         	6.973
MS.146         	13.12          	6.969
MS.147         	13.095         	6.971
MS.148         	13.068         	6.967
MS.149         	13.042         	6.88
MS.150         	13.017         	6.957
MS.151         	12.99          	6.941
MS.152         	12.965         	6.88
MS.153         	12.938         	6.969
MS.154         	12.912         	6.854
MS.155         	12.887         	6.927
MS.156         	12.86          	6.876
MS.157         	12.835         	6.826
MS.158         	12.81          	6.828
MS.159         	12.785         	6.896
MS.160         	12.757         	6.842
MS.161         	12.733         	6.832
MS.162         	12.707         	6.774
MS.163         	12.682         	6.892
MS.164         	12.657         	6.79
MS.165         	12.632         	6.782
MS.166         	12.608         	6.846
MS.167         	12.58          	6.796
MS.168         	12.555         	6.802
MS.169         	12.53          	6.79
MS.170         	12.505         	6.802
MS.171         	12.48          	6.808
MS.172         	12.455         	6.778
MS.173         	12.43          	6.81
MS.174         	12.405         	6.786
MS.175         	12.382         	6.802
MS.176         	12.358         	6.792
MS.177         	12.332         	6.798
MS.178         	12.307         	6.806
MS.179         	12.282         	6.826
MS.180         	12.257         	6.822
MS.181         	12.235         	6.82
MS.182         	12.21          	6.768
MS.183         	12.185         	6.834
MS.184         	12.16          	6.715
MS.185         	12.137         	6.665
MS.186         	12.113         	6.733
MS.187         	12.087         	6.832
MS.188         	12.062         	6.639
MS.189         	12.04          	6.667
MS.190         	12.015         	6.687
MS.191         	11.992         	6.679
MS.192         	11.967         	6.705
MS.193         	11.943         	6.683
MS.194         	11.92          	6.619
MS.195         	11.895         	6.582
MS.196         	11.872         	6.633
MS.197         	11.847         	6.578
MS.198         	11.825         	6.617
MS.199         	11.8           	6.546
MS.200         	11.778         	6.61
MS.201         	11.755         	6.564
MS.202         	11.73          	6.534
MS.203         	11.707         	6.61
MS.204         	11.685         	6.439
MS.205         	11.66          	6.461
MS.206         	11.637         	6.441
MS.207         	11.615         	6.246
MS.208         	11.59          	6.471
MS.209         	11.568         	6.252
MS.210         	11.545         	6.163
MS.211         	11.523         	6.157
MS.212         	11.497         	6.286
MS.213         	11.475         	6.181
MS.214         	11.452         	6.262
MS.215         	11.43          	6.143
MS.216         	11.407         	6.125
MS.217         	11.385         	6.244
MS.218         	11.36          	6.155
MS.219         	11.337         	6
MS.220         	11.315         	6.131
MS.221         	11.292         	6.01
MS.222         	11.27          	5.861
MS.223         	11.247         	5.893
MS.224         	11.225         	5.891
MS.225         	11.202         	5.62
MS.226         	11.18          	5.68
MS.227         	11.157         	5.66
MS.228         	11.135         	5.599
MS.229         	11.115         	5.704
MS.230         	11.092         	5.628
MS.231         	11.07          	5.446
MS.232         	11.047         	5.541
MS.233         	11.025         	5.569
MS.234         	11.002         	5.513
MS.235         	10.983         	5.44
MS.236         	10.96          	5.388
MS.237         	10.938         	5.448
MS.238         	10.915         	5.394
MS.239         	10.895         	5.474
MS.240         	10.872         	5.323
MS.241         	10.85          	5.428
MS.242         	10.827         	5.396
MS.243         	10.807         	5.37
MS.244         	10.785         	5.366
MS.245         	10.765         	5.231
MS.246         	10.742         	5.305
MS.247         	10.72          	5.223
MS.248         	10.7           	5.257
MS.249         	10.677         	5.309
MS.250         	10.657         	5.253
MS.251         	10.635         	5.176
MS.252         	10.615         	5.18
MS.253         	10.592         	5.102
MS.254         	10.573         	4.681
MS.255         	10.55          	5.112
MS.256         	10.53          	5.126
MS.257         	10.507         	4.874
MS.258         	10.488         	4.772
MS.259         	10.467         	4.721
MS.260         	10.445         	4.866
MS.261         	10.425         	4.87
MS.262         	10.405         	4.135
MS.263         	10.382         	4.262
MS.264         	10.363         	4.254
MS.265         	10.342         	4.401
MS.266         	10.32          	4.691
MS.267         	10.3           	4.278
MS.268         	10.28          	4.318
MS.269         	10.26          	4.055
MS.270         	10.24          	4.173
MS.271         	10.217         	4.228
MS.272         	10.198         	3.944
MS.273         	10.177         	3.94
MS.274         	10.157         	3.897
MS.275         	10.137         	3.75
MS.276         	10.117         	3.754
MS.277         	10.097         	3.646
MS.278         	10.077         	3.859
MS.279         	10.057         	3.958
MS.280         	10.035         	3.734
MS.281         	10.015         	3.813
MS.282         	9.995          	3.372
MS.283         	9.975          	3.44
MS.284         	9.955          	3.47
MS.285         	9.938          	3.472
MS.286         	9.917          	3.625
MS.287         	9.898          	3.489
MS.288         	9.877          	3.352
MS.289         	9.858          	3.035
MS.290         	9.837          	3.132
MS.291         	9.818          	2.971
MS.292         	9.797          	3.271
MS.293         	9.778          	2.973
MS.294         	9.76           	3.116
MS.295         	9.74           	3.068
MS.296         	9.72           	2.743
MS.297         	9.7            	2.647
MS.298         	9.682          	2.925
MS.299         	9.662          	2.743
MS.300         	9.642          	2.864
MS.301         	9.622          	2.665
MS.302         	9.605          	2.641
MS.303         	9.585          	2.665
MS.304         	9.565          	2.624
MS.305         	9.547          	2.582
MS.306         	9.528          	2.574
MS.307         	9.507          	2.6
MS.308         	9.49           	2.598
MS.309         	9.47           	2.475
MS.310         	9.452          	2.55
MS.311         	9.432          	2.512
MS.312         	9.415          	2.477
MS.313         	9.395          	2.435
MS.314         	9.377          	2.381
MS.315         	9.358          	2.492
MS.316         	9.34           	2.353
MS.317         	9.32           	2.246
MS.318         	9.302          	2.312
MS.319         	9.283          	2.371
MS.320         	9.265          	2.226
MS.321         	9.245          	2.115
MS.322         	9.227          	2.206
MS.323         	9.21           	2.165
MS.324         	9.19           	2.214
MS.325         	9.172          	1.905
MS.326         	9.155          	2.191
MS.327         	9.135          	2.103
MS.328         	9.117          	1.813
MS.329         	9.1            	1.726
MS.330         	9.08           	1.821
MS.331         	9.062          	1.646
MS.332         	9.045          	1.67
MS.333         	9.028          	1.571
MS.334         	9.01           	1.766
MS.335         	8.99           	1.658
MS.336         	8.972          	1.577
MS.337         	8.955          	1.581
MS.338         	8.938          	1.772
MS.339         	8.92           	1.597
MS.340         	8.903          	1.547
MS.341         	8.882          	1.587
MS.342         	8.865          	1.563
MS.343         	8.847          	1.577
MS.344         	8.83           	1.537
MS.345         	8.812          	1.513
MS.346         	8.795          	1.492
MS.347         	8.778          	1.535
MS.348         	8.76           	1.553
MS.349         	8.742          	0.931
MS.350         	8.725          	1.519
MS.351         	8.707          	1.44
MS.352         	8.69           	1.289
MS.353         	8.672          	0.612
MS.354         	8.655          	0.606
MS.355         	8.637          	0.86
MS.356         	8.62           	0.745
MS.357         	8.605          	0.802
MS.358         	8.587          	0.628
MS.359         	8.57           	0.52
MS.360         	8.552          	0.403
MS.361         	8.535          	0.439
MS.362         	8.517          	0.363
MS.363         	8.5            	0.572
MS.364         	8.485          	0.383
MS.365         	8.467          	0.425
MS.366         	8.45           	0.359
MS.367         	8.432          	0.381
MS.368         	8.417          	0.357
MS.369         	8.4            	0.373
MS.370         	8.382          	0.385
MS.371         	8.365          	0.389
MS.372         	8.35           	0.359
MS.373         	8.332          	0.375
MS.374         	8.315          	0.338
MS.375         	8.3            	0.348
MS.376         	8.283          	0.344
MS.377         	8.267          	0.34
MS.378         	8.25           	0.336
MS.379         	8.233          	0.342
MS.380         	8.217          	0.342
MS.381         	8.2            	0.232
MS.382         	8.185          	0.379
MS.383         	8.167          	0.344
MS.384         	8.153          	0.324
MS.385         	8.135          	0.328
MS.386         	8.12           	0.226
MS.387         	8.102          	0.336
MS.388         	8.087          	0.336
MS.389         	8.07           	0.24
MS.390         	8.055          	0.228
MS.391         	8.037          	0.234
MS.392         	8.023          	0.228
MS.393         	8.005          	0.23
MS.394         	7.99           	0.244
MS.395         	7.975          	0.232
MS.396         	7.957          	0.23
MS.397         	7.942          	0.232
MS.398         	7.927          	0.234
MS.399         	7.91           	0.23
MS.400         	7.895          	0.234
MS.401         	7.88           	0.23
MS.402         	7.862          	0.23
MS.403         	7.847          	0.232
MS.404         	7.832          	0.23
MS.405         	7.815          	0.236
MS.406         	7.8            	0.236
MS.407         	7.785          	0.234
MS.408         	7.77           	0.157
MS.409         	7.755          	0.232
MS.410         	7.737          	0.236
MS.411         	7.722          	0.232
MS.412         	7.707          	0.236
MS.413         	7.692          	0.234
MS.414         	7.677          	0.155
MS.415         	7.662          	0.153
MS.416         	7.645          	0.157
MS.417         	7.63           	0.159
MS.418         	7.615          	0.157
MS.419         	7.6            	0.167
MS.420         	7.585          	0.169
MS.421         	7.57           	0.167
MS.422         	7.555          	0.171
MS.423         	7.54           	0.169
MS.424         	7.525          	0.175
MS.425         	7.51           	0.173
MS.426         	7.495          	0.169
MS.427         	7.48           	0.173
MS.428         	7.465          	0.171
MS.429         	7.45           	0.179
MS.430         	7.435          	0.175
MS.431         	7.42           	0.179
MS.432         	7.405          	0.183
MS.433         	7.39           	0.173
MS.434         	7.375          	0.175
MS.435         	7.36           	0.185
MS.436         	7.347          	0.173
MS.437         	7.332          	0.181
MS.438         	7.317          	0.183
MS.439         	7.302          	0.181
MS.440         	7.287          	0.173
MS.441         	7.273          	0.181
MS.442         	7.257          	0.181
MS.443         	7.245          	0.181
MS.444         	7.23           	0.185
MS.445         	7.215          	0.179
MS.446         	7.2            	0.181
MS.447         	7.188          	0.183
MS.448         	7.172          	0.187
MS.449         	7.157          	0.185
MS.450         	7.142          	0.181
MS.451         	7.13           	0.185
MS.452         	7.115          	0.185
MS.453         	7.1            	0.187
MS.454         	7.087          	0.177
MS.455         	7.072          	0.181
MS.456         	7.057          	0.185
MS.457         	7.045          	0.181
MS.458         	7.03           	0.185
MS.459         	7.015          	0.183
MS.460         	7.003          	0.185
MS.461         	6.987          	0.181
MS.462         	6.975          	0.185
MS.463         	6.96           	0.187
MS.464         	6.945          	0.183
MS.465         	6.932          	0.187
MS.466         	6.918          	0.185
MS.467         	6.905          	0.185
MS.468         	6.89           	0.185
MS.469         	6.878          	0.181
MS.470         	6.862          	0.185
MS.471         	6.85           	0.189
MS.472         	6.835          	0.183
MS.473         	6.822          	0.187
MS.474         	6.807          	0.195
MS.475         	6.795          	0.181
MS.476         	6.782          	0.195
MS.477         	6.767          	0.187
MS.478         	6.755          	0.191
MS.479         	6.74           	0.193
MS.480         	6.727          	0.189
MS.481         	6.715          	0.195
MS.482         	6.7            	0.187
MS.483         	6.688          	0.191
MS.484         	6.675          	0.195
MS.485         	6.66           	0.199
MS.486         	6.648          	0.191
MS.487         	6.635          	0.195
MS.488         	6.62           	0.193
MS.489         	6.608          	0.195
MS.490         	6.595          	0.195
MS.491         	6.58           	0.191
MS.492         	6.567          	0.195
MS.493         	6.555          	0.191
MS.494         	6.543          	0.189
MS.495         	6.527          	0.195
MS.496         	6.515          	0.191
MS.497         	6.503          	0.193
MS.498         	6.49           	0.191
MS.499         	6.477          	0.201
MS.500         	6.462          	0.193
MS.501         	6.45           	0.193
MS.502         	6.438          	0.199
MS.503         	6.425          	0.195
MS.504         	6.412          	0.193
MS.505         	6.4            	0.191
MS.506         	6.387          	0.195
MS.507         	6.375          	0.214
MS.508         	6.36           	0.218
MS.509         	6.347          	0.197
MS.510         	6.335          	0.22
MS.511         	6.322          	0.195
MS.512         	6.31           	0.191
MS.513         	6.297          	0.218
MS.514         	6.285          	0.222
MS.515         	6.273          	0.222
MS.516         	6.26           	0.218
MS.517         	6.247          	0.171
MS.518         	6.235          	0.197
MS.519         	6.222          	0.171
MS.520         	6.21           	0.203
MS.521         	6.197          	0.153
MS.522         	6.185          	0.097
MS.523         	6.172          	0.167
MS.524         	6.16           	0.123
MS.525         	6.148          	0.123
MS.526         	6.135          	0.163
MS.527         	6.125          	0.175
MS.528         	6.112          	0.222
MS.529         	6.1            	0.121
MS.530         	6.088          	0.121
MS.531         	6.075          	0.173
MS.532         	6.062          	0.165
MS.533         	6.05           	0.121
MS.534         	6.04           	0.121
MS.535         	6.027          	0.115
MS.536         	6.015          	0.125
MS.537         	6.003          	0.117
MS.538         	5.99           	0.119
MS.539         	5.977          	0.121
MS.540         	5.967          	0.119
MS.541         	5.955          	0.129
MS.542         	5.942          	0.123
MS.543         	5.93           	0.121
MS.544         	5.92           	0.123
MS.545         	5.907          	0.121
MS.546         	5.895          	0.131
MS.547         	5.885          	0.121
MS.548         	5.872          	0.135
MS.549         	5.86           	0.131
MS.550         	5.847          	0.133
MS.551         	5.838          	0.123
MS.552         	5.825          	0.129
MS.553         	5.812          	0.133
MS.554         	5.802          	0.129
MS.555         	5.79           	0.133
MS.556         	5.78           	0.137
MS.557         	5.767          	0.133
MS.558         	5.755          	0.131
MS.559         	5.745          	0.129
MS.560         	5.733          	0.131
MS.561         	5.722          	0.131
MS.562         	5.71           	0.135
MS.563         	5.697          	0.135
MS.564         	5.688          	0.133
MS.565         	5.675          	0.133
MS.566         	5.665          	0.133
MS.567         	5.652          	0.133
MS.568         	5.642          	0.135
MS.569         	5.63           	0.131
MS.570         	5.62           	0.131
MS.571         	5.608          	0.127
MS.572         	5.597          	0.133
MS.573         	5.585          	0.133
MS.574         	5.575          	0.127
MS.575         	5.562          	0.131
MS.576         	5.552          	0.129
MS.577         	5.54           	0.141
MS.578         	5.53           	0.133
MS.579         	5.52           	0.125
MS.580         	5.507          	0.123
MS.581         	5.497          	0.133
MS.582         	5.485          	0.139
MS.583         	5.475          	0.131
MS.584         	5.465          	0.131
MS.585         	5.452          	0.111
MS.586         	5.443          	0.133
MS.587         	5.432          	0.131
MS.588         	5.42           	0.135
MS.589         	5.41           	0.143
MS.590         	5.4            	0.125
MS.591         	5.387          	0.131
MS.592         	5.378          	0.125
MS.593         	5.367          	0.135
MS.594         	5.355          	0.133
MS.595         	5.345          	0.135
MS.596         	5.335          	0.131
MS.597         	5.325          	0.135
MS.598         	5.312          	0.133
MS.599         	5.302          	0.135
MS.600         	5.293          	0.135
MS.601         	5.282          	0.133
MS.602         	5.27           	0.131
MS.603         	5.26           	0.129
MS.604         	5.25           	0.133
MS.605         	5.24           	0.131
MS.606         	5.23           	0.133
MS.607         	5.217          	0.133
MS.608         	5.207          	0.135
MS.609         	5.197          	0.135
MS.610         	5.188          	0.131
MS.611         	5.177          	0.129
MS.612         	5.168          	0.131
MS.613         	5.155          	0.137
MS.614         	5.145          	0.133
MS.615         	5.135          	0.133
MS.616         	5.125          	0.125
MS.617         	5.115          	0.135
MS.618         	5.105          	0.125
MS.619         	5.095          	0.135
MS.620         	5.085          	0.127
MS.621         	5.075          	0.133
MS.622         	5.065          	0.129
MS.623         	5.055          	0.135
MS.624         	5.045          	0.125
MS.625         	5.035          	0.135
MS.626         	5.025          	0.133
MS.627         	5.015          	0.133
MS.628         	5.005          	0.127
MS.629         	4.995          	0.129
MS.630         	4.985          	0.135
MS.631         	4.975          	0.129
MS.632         	4.965          	0.147
MS.633         	4.955          	0.127
MS.634         	4.945          	0.133
MS.635         	4.935          	0.131
MS.636         	4.925          	0.129
MS.637         	4.915          	0.127
MS.638         	4.905          	0.129
MS.639         	4.895          	0.129
MS.640         	4.885          	0.127
MS.641         	4.875          	0.129
MS.642         	4.865          	0.125
MS.643         	4.855          	0.131
MS.644         	4.845          	0.131
MS.645         	4.838          	0.131
MS.646         	4.827          	0.129
MS.647         	4.818          	0.131
MS.648         	4.807          	0.133
MS.649         	4.797          	0.125
MS.650         	4.787          	0.129
MS.651         	4.78           	0.129
MS.652         	4.77           	0.127
MS.653         	4.76           	0.131
MS.654         	4.75           	0.131
MS.655         	4.74           	0.125
MS.656         	4.733          	0.129
MS.657         	4.722          	0.127
MS.658         	4.713          	0.131
MS.659         	4.702          	0.129
MS.660         	4.693          	0.129
MS.661         	4.685          	0.127
MS.662         	4.675          	0.127
MS.663         	4.665          	0.127
MS.664         	4.655          	0.127
MS.665         	4.648          	0.123
MS.666         	4.637          	0.131
MS.667         	4.628          	0.127
MS.668         	4.62           	0.131
MS.669         	4.61           	0.127
MS.670         	4.6            	0.129
MS.671         	4.592          	0.125
MS.672         	4.582          	0.127
MS.673         	4.572          	0.131
MS.674         	4.565          	0.131
MS.675         	4.555          	0.131
MS.676         	4.545          	0.133
MS.677         	4.537          	0.127
MS.678         	4.527          	0.133
MS.679         	4.517          	0.127
MS.680         	4.51           	0.129
MS.681         	4.5            	0.125
MS.682         	4.492          	0.127
MS.683         	4.483          	0.131
MS.684         	4.472          	0.125
MS.685         	4.465          	0.129
MS.686         	4.455          	0.123
MS.687         	4.447          	0.125
MS.688         	4.438          	0.131
MS.689         	4.43           	0.131
MS.690         	4.42           	0.129
MS.691         	4.412          	0.04
MS.692         	4.402          	0.131
MS.693         	4.395          	0.038
MS.694         	4.385          	0.131
MS.695         	4.378          	0.042
MS.696         	4.367          	0.04
MS.697         	4.36           	0.038
MS.698         	4.35           	0.04
MS.699         	4.342          	0.014
MS.700         	4.332          	0.01
MS.701         	4.325          	0.01
MS.702         	4.315          	0.054
MS.703         	4.307          	0.01
MS.704         	4.298          	0.042
MS.705         	4.29           	0.01
MS.706         	4.28           	0.042
MS.707         	4.273          	0.01
MS.708         	4.265          	0.04
MS.709         	4.255          	0.014
MS.710         	4.247          	0.012
MS.711         	4.237          	0.038
MS.712         	4.23           	0.038
MS.713         	4.222          	0.012
MS.714         	4.213          	0.01
MS.715         	4.205          	0.012
MS.716         	4.197          	0.01
MS.717         	4.188          	0.012
MS.718         	4.18           	0.01
MS.719         	4.17           	0.012
MS.720         	4.162          	0.008
MS.721         	4.155          	0.016
MS.722         	4.145          	0.014
MS.723         	4.137          	0.012
MS.724         	4.13           	0.01
MS.725         	4.122          	0.012
MS.726         	4.112          	0.008
MS.727         	4.105          	0.014
MS.728         	4.097          	0.01
MS.729         	4.088          	0.01
MS.730         	4.08           	0.016
MS.731         	4.072          	0.012
MS.732         	4.065          	0.02
MS.733         	4.055          	0.012
MS.734         	4.048          	0.01
MS.735         	4.04           	0.012
MS.736         	4.032          	0.006
MS.737         	4.023          	0.012
MS.738         	4.015          	0.01
MS.739         	4.007          	0.02
MS.740         	4              	0.008
MS.741         	3.992          	0.014
MS.742         	3.982          	0.012
MS.743         	3.975          	0.018
MS.744         	3.967          	0.01
MS.745         	3.96           	0.012
MS.746         	3.952          	0.016
MS.747         	3.945          	0.01
DERIVED EXCITABILITY VARIABLES
Program = QTracP 9/10/2021
Threshold method = 6 (optimised for CAP, using data for present condition only)
SR method = 1 (using actual data values)
6.                 	0.000               	Peak response\(mV)
9.                 	33                  	Temperature ( C)
17.                	63                  	Age (years)
18.                	2                   	Sex (M=1, F=2)

EXTRA VARIABLES

MScPeak(mV) = 7.33
MScS50(mA) = 4.03
MScS95(mA) = 4.14
MScNSteps = 50
MScSteps(%) = 1484.2
MScStepMax(%) = 331.6
MScD50 = 28
MScDuration(min) = 2
MSFTraces = 648
MSFPeakAmp(mV) = 7.33
MSFNUnits = 116
MSFMeanUnitAmp(uV) = 63.2
MSFHuntTime(m) = 3.88
MSFError(%) = 3.85
MSFNLarge = 29.41
MSFMedianAmp(%) = 0.634
MSFMedianAmp(mV) = 0.0464
MSFHalfAmpAmp(%) = 1.01
MSFHalfAmpAmp(mV) = 0.0741
MSFLargestAmp(%) = 6.69
MSFLargestAmp(mV) = 0.49
MSFMeanRS(%) = 2.01
MSFSizeLimit(uV) = 18.3
MSFLimitType = 1
MSFSmallestAmp(uV) = 19.2
MSFOpts = 10106121

EXTRA WAVEFORMS


!MScan Model
!116
	1	4.37	0.62	2
	2	4.4	0.32	2
	3	4.47	0.58	2
	4	6.19	0.68	2
	5	7.69	0.29	2
	6	7.99	0.64	2
	7	8.09	0.53	2
	8	8.27	1.09	2
	9	8.46	0.81	2
	10	8.5	0.49	2
	11	8.53	0.61	2
	12	8.55	0.72	2
	13	8.58	1.01	2
	14	8.61	1.56	2
	15	8.63	1.59	2
	16	8.66	1.18	2
	17	8.75	6.69	2
	18	8.94	1.92	2.4
	19	9	0.6	2
	20	9.05	1.24	2
	21	9.07	0.52	2
	22	9.09	0.49	2
	23	9.11	0.65	2
	24	9.13	0.79	2
	25	9.16	0.92	2
	26	9.18	0.9	2
	27	9.21	0.81	2
	28	9.23	0.71	2
	29	9.25	0.58	2
	30	9.27	0.58	2
	31	9.29	0.52	2
	32	9.31	0.41	2
	33	9.33	0.42	2
	34	9.35	0.43	2
	35	9.37	0.38	2
	36	9.39	0.38	2
	37	9.41	0.46	2
	38	9.46	0.56	2
	39	9.48	0.48	2
	40	9.52	0.67	2
	41	9.57	0.77	2
	42	9.61	0.78	2
	43	9.65	0.85	2
	44	9.68	0.97	2
	45	9.71	0.88	2
	46	9.74	0.74	2
	47	9.77	0.88	2
	48	9.79	1.01	2
	49	9.82	1.24	2
	50	9.86	1.08	2
	51	9.89	1.16	2
	52	9.94	1.71	2
	53	9.99	1.72	2
	54	10.03	1.01	2
	55	10.06	0.93	2
	56	10.09	1.06	2
	57	10.12	0.95	2
	58	10.15	1.01	2
	59	10.18	1.12	2
	60	10.22	1.43	2
	61	10.27	1.61	2
	62	10.32	1.75	2
	63	10.36	1.58	2
	64	10.41	1.82	2
	65	10.43	0.63	2
	66	10.44	1.11	2
	67	10.48	0.89	2
	68	10.52	1.77	2
	69	10.56	1.81	2
	70	10.61	1.29	2
	71	10.66	1.3	2
	72	10.72	1.21	2
	73	10.8	1.18	2.4
	74	10.92	0.6	2
	75	10.95	0.29	2
	76	10.98	0.34	2
	77	11	0.39	2
	78	11.03	0.38	2
	79	11.05	0.26	2
	80	11.06	0.26	2
	81	11.08	0.44	2
	82	11.1	0.32	2
	83	11.12	0.39	2
	84	11.14	0.39	2
	85	11.15	0.31	2
	86	11.16	0.34	2
	87	11.18	0.36	2
	88	11.19	0.37	2
	89	11.21	0.39	2
	90	11.22	0.41	2
	91	11.24	0.41	2
	92	11.25	0.49	2
	93	11.28	0.77	2
	94	11.31	0.61	2
	95	11.33	0.47	2
	96	11.36	0.55	2
	97	11.46	1.99	2
	98	11.5	0.51	2
	99	11.53	0.42	2
	100	11.56	0.57	2
	101	11.59	0.58	2
	102	11.62	0.55	2
	103	11.66	0.4	2
	104	11.69	0.53	2
	105	11.73	0.68	2
	106	11.78	0.76	2
	107	11.83	0.53	2
	108	11.89	0.45	2
	109	11.95	0.45	2
	110	12.03	0.47	2
	111	12.12	0.57	2
	112	12.71	1	2
	113	12.89	0.4	2
	114	12.93	0.82	2
	115	13.29	4.37	2
	116	13.32	0.4	1.6

