File:              	C:\Qtrac\Data\CKMC01105A.QZD
Name:              	DK.COP.NC.4.2
Protocol:          	MSCAN-R2
Date:              	5/11/20
Start time:        	09:56:35
Age:               	63
Sex:               	F
Temperature:       	36.8
S/R sites:         	RMedian Wr-APB
NC/disease:        	NC
Operator:          	CK
Comments:          	MScanFit2
M-SCAN DATA (7.6-1.3m)
Scanpts: 137, 152, 650, 670
Stim. (mA)     	Amp. (mV)
MS.1           	17             	5.767
MS.2           	17             	5.794
MS.3           	17             	5.813
MS.4           	17             	5.757
MS.5           	17             	5.78
MS.6           	17             	5.801
MS.7           	17             	5.789
MS.8           	17             	5.789
MS.9           	17             	5.82
MS.10          	17             	5.765
MS.11          	17             	5.805
MS.12          	17             	5.789
MS.13          	17             	5.799
MS.14          	17             	5.806
MS.15          	17             	5.792
MS.16          	17             	5.793
MS.17          	17             	5.79
MS.18          	17             	5.797
MS.19          	17             	5.804
MS.20          	17             	5.811
MS.21          	17             	5.789
MS.22          	17             	5.793
MS.23          	17             	5.799
MS.24          	16.93          	5.795
MS.25          	16.9           	5.776
MS.26          	16.865         	5.768
MS.27          	16.83          	5.757
MS.28          	16.795         	5.762
MS.29          	16.765         	5.796
MS.30          	16.73          	5.779
MS.31          	16.695         	5.766
MS.32          	16.665         	5.788
MS.33          	16.63          	5.797
MS.34          	16.595         	5.775
MS.35          	16.565         	5.782
MS.36          	16.53          	5.803
MS.37          	16.5           	5.776
MS.38          	16.465         	5.772
MS.39          	16.43          	5.766
MS.40          	16.4           	5.773
MS.41          	16.365         	5.775
MS.42          	16.335         	5.786
MS.43          	16.3           	5.783
MS.44          	16.27          	5.748
MS.45          	16.235         	5.779
MS.46          	16.205         	5.778
MS.47          	16.17          	5.773
MS.48          	16.14          	5.775
MS.49          	16.105         	5.775
MS.50          	16.075         	5.756
MS.51          	16.04          	5.75
MS.52          	16.01          	5.776
MS.53          	15.98          	5.769
MS.54          	15.945         	5.748
MS.55          	15.915         	5.759
MS.56          	15.88          	5.772
MS.57          	15.85          	5.739
MS.58          	15.82          	5.784
MS.59          	15.785         	5.778
MS.60          	15.755         	5.757
MS.61          	15.725         	5.743
MS.62          	15.695         	5.775
MS.63          	15.66          	5.736
MS.64          	15.63          	5.735
MS.65          	15.6           	5.729
MS.66          	15.57          	5.745
MS.67          	15.535         	5.735
MS.68          	15.505         	5.744
MS.69          	15.475         	5.739
MS.70          	15.445         	5.751
MS.71          	15.415         	5.734
MS.72          	15.38          	5.743
MS.73          	15.35          	5.759
MS.74          	15.32          	5.757
MS.75          	15.29          	5.751
MS.76          	15.26          	5.739
MS.77          	15.23          	5.732
MS.78          	15.2           	5.751
MS.79          	15.17          	5.737
MS.80          	15.14          	5.735
MS.81          	15.11          	5.732
MS.82          	15.08          	5.73
MS.83          	15.045         	5.906
MS.84          	15.015         	5.77
MS.85          	14.985         	5.81
MS.86          	14.955         	5.802
MS.87          	14.93          	5.797
MS.88          	14.9           	5.802
MS.89          	14.87          	5.779
MS.90          	14.84          	5.795
MS.91          	14.81          	5.803
MS.92          	14.78          	5.807
MS.93          	14.75          	5.809
MS.94          	14.72          	5.797
MS.95          	14.69          	5.801
MS.96          	14.66          	5.8
MS.97          	14.63          	5.766
MS.98          	14.605         	5.794
MS.99          	14.575         	5.792
MS.100         	14.545         	5.794
MS.101         	14.515         	5.79
MS.102         	14.485         	5.801
MS.103         	14.455         	5.803
MS.104         	14.43          	5.767
MS.105         	14.4           	5.765
MS.106         	14.37          	5.765
MS.107         	14.34          	5.751
MS.108         	14.315         	5.712
MS.109         	14.285         	5.741
MS.110         	14.255         	5.714
MS.111         	14.23          	5.745
MS.112         	14.2           	5.726
MS.113         	14.17          	5.728
MS.114         	14.145         	5.759
MS.115         	14.115         	5.762
MS.116         	14.085         	5.762
MS.117         	14.06          	5.778
MS.118         	14.03          	5.773
MS.119         	14             	5.746
MS.120         	13.975         	5.753
MS.121         	13.945         	5.711
MS.122         	13.92          	5.729
MS.123         	13.89          	5.74
MS.124         	13.865         	5.744
MS.125         	13.835         	5.794
MS.126         	13.805         	5.763
MS.127         	13.78          	5.746
MS.128         	13.75          	5.74
MS.129         	13.725         	5.757
MS.130         	13.695         	5.755
MS.131         	13.67          	5.763
MS.132         	13.645         	5.767
MS.133         	13.615         	5.757
MS.134         	13.59          	5.748
MS.135         	13.56          	5.757
MS.136         	13.535         	5.773
MS.137         	13.505         	5.786
MS.138         	13.48          	5.793
MS.139         	13.455         	5.764
MS.140         	13.425         	5.757
MS.141         	13.4           	5.764
MS.142         	13.375         	5.786
MS.143         	13.345         	5.798
MS.144         	13.32          	5.779
MS.145         	13.295         	5.762
MS.146         	13.265         	5.771
MS.147         	13.24          	5.77
MS.148         	13.215         	5.779
MS.149         	13.185         	5.791
MS.150         	13.16          	5.765
MS.151         	13.135         	5.747
MS.152         	13.11          	5.765
MS.153         	13.08          	5.768
MS.154         	13.055         	5.776
MS.155         	13.03          	5.746
MS.156         	13.005         	5.756
MS.157         	12.975         	5.769
MS.158         	12.95          	5.782
MS.159         	12.925         	5.785
MS.160         	12.9           	5.768
MS.161         	12.875         	5.768
MS.162         	12.85          	5.76
MS.163         	12.825         	5.754
MS.164         	12.795         	5.718
MS.165         	12.77          	5.717
MS.166         	12.745         	5.738
MS.167         	12.72          	5.739
MS.168         	12.695         	5.723
MS.169         	12.67          	5.733
MS.170         	12.645         	5.729
MS.171         	12.62          	5.726
MS.172         	12.595         	5.74
MS.173         	12.57          	5.73
MS.174         	12.545         	5.719
MS.175         	12.52          	5.72
MS.176         	12.495         	5.703
MS.177         	12.47          	5.701
MS.178         	12.445         	5.74
MS.179         	12.42          	5.735
MS.180         	12.395         	5.706
MS.181         	12.37          	5.724
MS.182         	12.345         	5.731
MS.183         	12.32          	5.46
MS.184         	12.295         	5.735
MS.185         	12.27          	5.698
MS.186         	12.245         	5.703
MS.187         	12.22          	5.49
MS.188         	12.195         	5.436
MS.189         	12.175         	5.732
MS.190         	12.15          	5.747
MS.191         	12.125         	5.488
MS.192         	12.1           	5.773
MS.193         	12.075         	5.455
MS.194         	12.05          	5.477
MS.195         	12.03          	5.402
MS.196         	12.005         	5.24
MS.197         	11.98          	5.482
MS.198         	11.955         	5.397
MS.199         	11.93          	5.399
MS.200         	11.91          	5.42
MS.201         	11.885         	5.204
MS.202         	11.86          	5.232
MS.203         	11.835         	5.225
MS.204         	11.815         	5.457
MS.205         	11.79          	5.179
MS.206         	11.765         	5.157
MS.207         	11.74          	5.168
MS.208         	11.72          	5.103
MS.209         	11.695         	5.344
MS.210         	11.67          	5.134
MS.211         	11.65          	5.416
MS.212         	11.625         	5.153
MS.213         	11.6           	5.14
MS.214         	11.58          	5.145
MS.215         	11.555         	5.143
MS.216         	11.535         	5.179
MS.217         	11.51          	5.161
MS.218         	11.485         	4.977
MS.219         	11.465         	5.173
MS.220         	11.44          	5.085
MS.221         	11.42          	5.173
MS.222         	11.395         	4.965
MS.223         	11.375         	4.951
MS.224         	11.35          	5.245
MS.225         	11.325         	4.971
MS.226         	11.305         	4.955
MS.227         	11.28          	5.138
MS.228         	11.26          	4.944
MS.229         	11.235         	4.962
MS.230         	11.215         	4.958
MS.231         	11.19          	4.958
MS.232         	11.17          	4.946
MS.233         	11.145         	4.758
MS.234         	11.125         	4.948
MS.235         	11.105         	4.709
MS.236         	11.08          	4.916
MS.237         	11.06          	4.88
MS.238         	11.035         	4.855
MS.239         	11.015         	4.855
MS.240         	10.99          	4.67
MS.241         	10.97          	4.824
MS.242         	10.95          	4.689
MS.243         	10.925         	4.636
MS.244         	10.905         	4.906
MS.245         	10.885         	4.769
MS.246         	10.86          	4.815
MS.247         	10.84          	4.606
MS.248         	10.82          	4.852
MS.249         	10.795         	4.717
MS.250         	10.775         	4.736
MS.251         	10.755         	4.541
MS.252         	10.73          	4.478
MS.253         	10.71          	4.824
MS.254         	10.69          	4.615
MS.255         	10.67          	4.703
MS.256         	10.645         	4.568
MS.257         	10.625         	4.46
MS.258         	10.605         	4.482
MS.259         	10.585         	4.538
MS.260         	10.56          	4.572
MS.261         	10.54          	4.421
MS.262         	10.52          	4.589
MS.263         	10.5           	4.517
MS.264         	10.475         	4.521
MS.265         	10.455         	4.513
MS.266         	10.435         	4.381
MS.267         	10.415         	4.507
MS.268         	10.395         	4.5
MS.269         	10.375         	4.429
MS.270         	10.35          	4.357
MS.271         	10.33          	4.36
MS.272         	10.31          	4.247
MS.273         	10.29          	4.325
MS.274         	10.27          	4.459
MS.275         	10.25          	4.289
MS.276         	10.23          	4.214
MS.277         	10.21          	4.366
MS.278         	10.19          	4.235
MS.279         	10.17          	4.349
MS.280         	10.145         	4.254
MS.281         	10.125         	4.216
MS.282         	10.105         	4.158
MS.283         	10.085         	4.156
MS.284         	10.065         	4.036
MS.285         	10.045         	4.119
MS.286         	10.025         	4.017
MS.287         	10.005         	3.965
MS.288         	9.985          	4.088
MS.289         	9.965          	4.16
MS.290         	9.945          	4.037
MS.291         	9.925          	3.926
MS.292         	9.905          	3.976
MS.293         	9.885          	3.91
MS.294         	9.865          	4.031
MS.295         	9.845          	3.898
MS.296         	9.83           	3.818
MS.297         	9.81           	3.895
MS.298         	9.79           	3.856
MS.299         	9.77           	3.92
MS.300         	9.75           	3.982
MS.301         	9.73           	3.829
MS.302         	9.71           	3.733
MS.303         	9.69           	3.828
MS.304         	9.67           	3.76
MS.305         	9.65           	3.807
MS.306         	9.635          	3.704
MS.307         	9.615          	3.673
MS.308         	9.595          	3.785
MS.309         	9.575          	3.56
MS.310         	9.555          	3.741
MS.311         	9.535          	3.666
MS.312         	9.52           	3.647
MS.313         	9.5            	3.677
MS.314         	9.48           	3.666
MS.315         	9.46           	3.599
MS.316         	9.44           	3.646
MS.317         	9.425          	3.66
MS.318         	9.405          	3.613
MS.319         	9.385          	3.442
MS.320         	9.365          	3.643
MS.321         	9.35           	3.524
MS.322         	9.33           	3.649
MS.323         	9.31           	3.252
MS.324         	9.295          	3.462
MS.325         	9.275          	3.233
MS.326         	9.255          	3.611
MS.327         	9.235          	3.544
MS.328         	9.22           	3.315
MS.329         	9.2            	3.286
MS.330         	9.18           	3.179
MS.331         	9.165          	3.301
MS.332         	9.145          	3.345
MS.333         	9.125          	3.357
MS.334         	9.11           	3.243
MS.335         	9.09           	3.14
MS.336         	9.07           	3.12
MS.337         	9.055          	3.26
MS.338         	9.035          	3.25
MS.339         	9.02           	3.268
MS.340         	9              	3.143
MS.341         	8.98           	3.076
MS.342         	8.965          	3.089
MS.343         	8.945          	3.069
MS.344         	8.93           	3.053
MS.345         	8.91           	3.127
MS.346         	8.895          	3.127
MS.347         	8.875          	3.069
MS.348         	8.855          	3.064
MS.349         	8.84           	3.024
MS.350         	8.82           	2.957
MS.351         	8.805          	2.997
MS.352         	8.785          	2.935
MS.353         	8.77           	2.888
MS.354         	8.75           	2.918
MS.355         	8.735          	2.921
MS.356         	8.715          	2.88
MS.357         	8.7            	2.975
MS.358         	8.68           	2.766
MS.359         	8.665          	2.94
MS.360         	8.645          	2.864
MS.361         	8.63           	2.836
MS.362         	8.61           	2.657
MS.363         	8.595          	2.775
MS.364         	8.58           	2.803
MS.365         	8.56           	2.657
MS.366         	8.545          	2.666
MS.367         	8.525          	2.733
MS.368         	8.51           	2.808
MS.369         	8.495          	2.767
MS.370         	8.475          	2.739
MS.371         	8.46           	2.611
MS.372         	8.44           	2.639
MS.373         	8.425          	2.651
MS.374         	8.41           	2.618
MS.375         	8.39           	2.714
MS.376         	8.375          	2.659
MS.377         	8.36           	2.652
MS.378         	8.34           	2.489
MS.379         	8.325          	2.634
MS.380         	8.31           	2.458
MS.381         	8.29           	2.62
MS.382         	8.275          	2.559
MS.383         	8.26           	2.5
MS.384         	8.24           	2.427
MS.385         	8.225          	2.415
MS.386         	8.21           	2.335
MS.387         	8.19           	2.421
MS.388         	8.175          	2.266
MS.389         	8.16           	2.296
MS.390         	8.145          	2.283
MS.391         	8.125          	2.247
MS.392         	8.11           	2.139
MS.393         	8.095          	2.382
MS.394         	8.08           	2.23
MS.395         	8.06           	2.241
MS.396         	8.045          	2.195
MS.397         	8.03           	2.102
MS.398         	8.015          	2.155
MS.399         	8              	2.137
MS.400         	7.98           	2.023
MS.401         	7.965          	2.097
MS.402         	7.95           	1.964
MS.403         	7.935          	1.959
MS.404         	7.92           	1.942
MS.405         	7.905          	1.946
MS.406         	7.885          	2.048
MS.407         	7.87           	1.841
MS.408         	7.855          	1.952
MS.409         	7.84           	1.899
MS.410         	7.825          	1.962
MS.411         	7.81           	1.799
MS.412         	7.795          	1.88
MS.413         	7.775          	1.928
MS.414         	7.76           	1.874
MS.415         	7.745          	1.899
MS.416         	7.73           	1.838
MS.417         	7.715          	1.682
MS.418         	7.7            	1.873
MS.419         	7.685          	1.757
MS.420         	7.67           	1.777
MS.421         	7.655          	1.824
MS.422         	7.64           	1.735
MS.423         	7.625          	1.703
MS.424         	7.61           	1.807
MS.425         	7.595          	1.598
MS.426         	7.58           	1.742
MS.427         	7.565          	1.595
MS.428         	7.545          	1.565
MS.429         	7.53           	1.591
MS.430         	7.515          	1.631
MS.431         	7.5            	1.589
MS.432         	7.485          	1.522
MS.433         	7.47           	1.35
MS.434         	7.455          	1.407
MS.435         	7.445          	1.491
MS.436         	7.43           	1.555
MS.437         	7.415          	1.448
MS.438         	7.4            	1.426
MS.439         	7.385          	1.526
MS.440         	7.37           	1.534
MS.441         	7.355          	1.421
MS.442         	7.34           	1.414
MS.443         	7.325          	1.394
MS.444         	7.31           	1.428
MS.445         	7.295          	1.346
MS.446         	7.28           	1.429
MS.447         	7.265          	1.362
MS.448         	7.25           	1.373
MS.449         	7.235          	1.333
MS.450         	7.225          	1.413
MS.451         	7.21           	1.377
MS.452         	7.195          	1.361
MS.453         	7.18           	1.362
MS.454         	7.165          	1.353
MS.455         	7.15           	1.385
MS.456         	7.135          	1.373
MS.457         	7.12           	1.351
MS.458         	7.11           	1.323
MS.459         	7.095          	1.409
MS.460         	7.08           	1.313
MS.461         	7.065          	1.318
MS.462         	7.05           	1.371
MS.463         	7.035          	1.323
MS.464         	7.025          	1.369
MS.465         	7.01           	1.323
MS.466         	6.995          	1.292
MS.467         	6.98           	1.285
MS.468         	6.965          	1.322
MS.469         	6.955          	1.347
MS.470         	6.94           	1.178
MS.471         	6.925          	1.285
MS.472         	6.91           	1.29
MS.473         	6.9            	1.269
MS.474         	6.885          	1.29
MS.475         	6.87           	1.252
MS.476         	6.855          	1.292
MS.477         	6.845          	1.276
MS.478         	6.83           	1.271
MS.479         	6.815          	1.262
MS.480         	6.8            	1.181
MS.481         	6.79           	1.284
MS.482         	6.775          	1.038
MS.483         	6.76           	1.255
MS.484         	6.75           	0.945
MS.485         	6.735          	1.005
MS.486         	6.72           	1.219
MS.487         	6.705          	1.089
MS.488         	6.695          	1.089
MS.489         	6.68           	1.11
MS.490         	6.665          	0.987
MS.491         	6.655          	0.961
MS.492         	6.64           	1.111
MS.493         	6.625          	0.793
MS.494         	6.615          	0.98
MS.495         	6.6            	0.864
MS.496         	6.59           	0.794
MS.497         	6.575          	0.854
MS.498         	6.56           	0.733
MS.499         	6.55           	0.876
MS.500         	6.535          	0.882
MS.501         	6.52           	0.903
MS.502         	6.51           	0.762
MS.503         	6.495          	0.75
MS.504         	6.485          	0.78
MS.505         	6.47           	0.646
MS.506         	6.455          	0.737
MS.507         	6.445          	0.754
MS.508         	6.43           	0.749
MS.509         	6.42           	0.742
MS.510         	6.405          	0.646
MS.511         	6.395          	0.716
MS.512         	6.38           	0.436
MS.513         	6.37           	0.431
MS.514         	6.355          	0.728
MS.515         	6.34           	0.667
MS.516         	6.33           	0.637
MS.517         	6.315          	0.321
MS.518         	6.305          	0.65
MS.519         	6.29           	0.328
MS.520         	6.28           	0.614
MS.521         	6.265          	0.315
MS.522         	6.255          	0.242
MS.523         	6.24           	0.257
MS.524         	6.23           	0.316
MS.525         	6.215          	0.576
MS.526         	6.205          	0.233
MS.527         	6.19           	0.233
MS.528         	6.18           	0.229
MS.529         	6.165          	0.207
MS.530         	6.155          	0.241
MS.531         	6.14           	0.247
MS.532         	6.13           	0.204
MS.533         	6.12           	0.202
MS.534         	6.105          	0.251
MS.535         	6.095          	0.201
MS.536         	6.08           	0.234
MS.537         	6.07           	0.203
MS.538         	6.055          	0.193
MS.539         	6.045          	0.203
MS.540         	6.035          	0.197
MS.541         	6.02           	0.098
MS.542         	6.01           	0.103
MS.543         	5.995          	0.208
MS.544         	5.985          	0.1
MS.545         	5.975          	0.096
MS.546         	5.96           	0.195
MS.547         	5.95           	0.11
MS.548         	5.935          	0.097
MS.549         	5.925          	0.115
MS.550         	5.915          	0.06
MS.551         	5.9            	0.06
MS.552         	5.89           	0.181
MS.553         	5.88           	0.093
MS.554         	5.865          	0.063
MS.555         	5.855          	0.049
MS.556         	5.845          	0.093
MS.557         	5.83           	0.06
MS.558         	5.82           	0.059
MS.559         	5.81           	0.056
MS.560         	5.795          	0.046
MS.561         	5.785          	0.098
MS.562         	5.775          	0.044
MS.563         	5.76           	0.058
MS.564         	5.75           	0.011
MS.565         	5.74           	0.015
MS.566         	5.725          	0.049
MS.567         	5.715          	0.064
MS.568         	5.705          	0.008
MS.569         	5.695          	0.009
MS.570         	5.68           	0.011
MS.571         	5.67           	0.009
MS.572         	5.66           	0.000
MS.573         	5.645          	0.016
MS.574         	5.635          	0.046
MS.575         	5.625          	0.007
MS.576         	5.615          	0.011
MS.577         	5.6            	0.007
MS.578         	5.59           	0.011
MS.579         	5.58           	0.006
MS.580         	5.57           	0.005
MS.581         	5.56           	0.001
MS.582         	5.545          	0.004
MS.583         	5.535          	0.002
MS.584         	5.525          	0.006
MS.585         	5.515          	0.009
MS.586         	5.505          	-0.001
MS.587         	5.49           	0.01
MS.588         	5.48           	0.001
MS.589         	5.47           	0.016
MS.590         	5.46           	0.061
MS.591         	5.45           	0.004
MS.592         	5.435          	0.006
MS.593         	5.425          	0.073
MS.594         	5.415          	-0.002
MS.595         	5.405          	0.000
MS.596         	5.395          	-0.002
MS.597         	5.385          	-0.001
MS.598         	5.37           	0.002
MS.599         	5.36           	0.000
MS.600         	5.35           	-0.001
MS.601         	5.34           	0.005
MS.602         	5.33           	-0.005
MS.603         	5.32           	0.000
MS.604         	5.31           	0.001
MS.605         	5.295          	0.002
MS.606         	5.285          	0.003
MS.607         	5.275          	0.003
MS.608         	5.265          	0.000
MS.609         	5.255          	0.002
MS.610         	5.245          	0.001
MS.611         	5.235          	0.009
MS.612         	5.225          	-0.002
MS.613         	5.215          	-0.004
MS.614         	5.205          	0.000
MS.615         	5.19           	-0.005
MS.616         	5.18           	-0.001
MS.617         	5.17           	-0.004
MS.618         	5.16           	0.000
MS.619         	5.15           	-0.001
MS.620         	5.14           	-0.003
MS.621         	5.13           	-0.004
MS.622         	5.12           	-0.002
MS.623         	5.11           	0.001
MS.624         	5.1            	-0.002
MS.625         	5.09           	0.000
MS.626         	5.08           	-0.005
MS.627         	5.07           	-0.002
MS.628         	5.06           	-0.002
MS.629         	5.05           	-0.001
MS.630         	5.04           	-0.003
MS.631         	5.03           	-0.001
MS.632         	5.02           	-0.002
MS.633         	5.01           	0.001
MS.634         	5              	-0.005
MS.635         	4.99           	-0.001
MS.636         	4.98           	-0.006
MS.637         	4.97           	-0.004
MS.638         	4.96           	-0.001
MS.639         	4.95           	0.004
MS.640         	4.94           	0.001
MS.641         	4.93           	0.000
MS.642         	4.92           	-0.001
MS.643         	4.91           	-0.003
MS.644         	4.9            	-0.004
MS.645         	4.89           	-0.002
MS.646         	4.88           	-0.003
MS.647         	4.87           	-0.002
MS.648         	4.86           	-0.001
MS.649         	4.85           	-0.004
MS.650         	4.84           	0.005
MS.651         	4.83           	-0.007
MS.652         	4.82           	-0.004
MS.653         	4.81           	-0.005
MS.654         	4.805          	-0.001
MS.655         	4.795          	-0.012
MS.656         	4.785          	0.000
MS.657         	4.775          	-0.001
MS.658         	4.765          	-0.012
MS.659         	4.755          	-0.01
MS.660         	4.745          	-0.006
MS.661         	4.735          	-0.009
MS.662         	4.725          	-0.012
MS.663         	4.715          	-0.004
MS.664         	4.71           	-0.016
MS.665         	4.7            	-0.007
MS.666         	4.69           	-0.015
MS.667         	4.68           	-0.015
MS.668         	4.67           	-0.01
MS.669         	4.66           	-0.013
MS.670         	4.65           	-0.011
DERIVED EXCITABILITY VARIABLES
Program = QTracP 20/9/2019
Threshold method = 6 (optimised for CAP, using data for present condition only)
SR method = 1 (using actual data values)
6.                 	0.000               	Peak response\(mV)
9.                 	36.8                	Temperature ( C)
17.                	63                  	Age (years)
18.                	2                   	Sex (M=1, F=2)

EXTRA VARIABLES

MScPeak(mV) = 5.8
MScS5(mA) = 6.23
MScS50(mA) = 8.71
MScS95(mA) = 12.2
MScNSteps = 2
MScSteps(%) = 6
MScStepMax(%) = 3.6
MScD50 = 58
Height = 172
MSFPeakAmp(mV) = 5.78
MSFNUnits = 89
MSFMeanUnitAmp(uV) = 65
MSFHuntTime(m) = 2.45
MSFError(%) = 4.09
MSFNLarge = 24.99
MSFMedianAmp(%) = 0.88
MSFMedianAmp(mV) = 0.0509
MSFHalfAmpAmp(%) = 1.38
MSFHalfAmpAmp(mV) = 0.0799
MSFLargestAmp(%) = 2.68
MSFLargestAmp(mV) = 0.155
MSFMeanRS(%) = 2
MSFOpts = 10106121
MScDuration(min) = 6.3
MSFTraces = 534
MSFSizeLimit(uV) = 14.5
MSFLimitType = 1
MSFSmallestAmp(uV) = 24.8

EXTRA WAVEFORMS


!MScan Model
!89
	1	5.65	0.43	2
	2	5.76	0.45	2
	3	5.87	0.73	2
	4	5.96	0.73	2
	5	6.02	0.59	2
	6	6.12	1.22	2
	7	6.22	2.34	2
	8	6.29	1.79	2
	9	6.36	1.85	2
	10	6.44	2.33	2
	11	6.51	1.66	2
	12	6.57	1.51	2
	13	6.63	1.35	2
	14	6.68	1.08	2
	15	6.74	2.52	2
	16	6.86	1.8	2
	17	7.02	0.97	2
	18	7.25	1.35	2
	19	7.4	1.18	2
	20	7.46	1.11	2
	21	7.5	0.65	2
	22	7.54	0.79	2
	23	7.57	0.67	2
	24	7.61	0.61	2
	25	7.65	0.94	2
	26	7.7	0.93	2
	27	7.79	1.43	2
	28	7.85	0.88	2
	29	7.88	0.54	2
	30	7.91	0.73	2
	31	7.94	0.71	2
	32	7.97	0.46	2
	33	8	0.6	2
	34	8.03	0.52	2
	35	8.05	0.53	2
	36	8.07	0.57	2
	37	8.1	0.59	2
	38	8.13	0.85	2
	39	8.16	0.8	2
	40	8.18	0.66	2
	41	8.21	0.64	2
	42	8.24	0.67	2
	43	8.27	0.68	2
	44	8.3	0.59	2
	45	8.32	0.57	2
	46	8.4	1.42	2
	47	8.5	1.38	2
	48	8.56	0.78	2
	49	8.62	0.88	2
	50	8.67	0.83	2
	51	8.71	0.56	2
	52	8.74	0.6	2
	53	8.78	0.61	2
	54	8.81	0.62	2
	55	8.85	0.6	2
	56	8.89	0.56	2
	57	8.92	0.5	2
	58	8.98	0.97	2
	59	9.1	1.65	2
	60	9.23	2.49	2
	61	9.33	1.99	2
	62	9.45	1.84	2
	63	9.53	1.18	2
	64	9.59	0.93	2
	65	9.66	0.82	2
	66	9.72	0.77	2
	67	9.77	0.74	2
	68	9.84	1.1	2
	69	9.9	0.81	2
	70	9.94	0.69	2
	71	9.98	0.76	2
	72	10.03	0.8	2
	73	10.07	0.81	2
	74	10.13	0.88	2
	75	10.19	0.88	2
	76	10.24	1.03	2
	77	10.31	1.09	2
	78	10.44	1.23	2
	79	10.63	2.4	2
	80	10.84	2.21	2
	81	11.07	2.61	2
	82	11.22	1.54	2
	83	11.41	2.03	2
	84	11.7	2.6	2
	85	11.88	2.06	2
	86	12.01	1.64	2
	87	12.11	2.22	2
	88	12.2	2.68	2
	89	12.82	0.59	2

