File:              	C:\Qtrac\Data\CKMC01116A.QZD
Name:              	DK.COP.NC.10.1
Protocol:          	MSCAN-R2
Date:              	16/11/20
Start time:        	13:48:33
Age:               	24
Sex:               	M
Temperature:       	37.4
S/R sites:         	LMedian Wr-APB
NC/disease:        	NC
Operator:          	CK
Comments:          	CG 0.2%
M-SCAN DATA (7.1-1.5m)
Scanpts: 233, 241, 583, 602
Stim. (mA)     	Amp. (mV)
MS.1           	13             	8.846
MS.2           	13             	8.821
MS.3           	13             	8.826
MS.4           	13             	8.833
MS.5           	13             	8.85
MS.6           	13             	8.797
MS.7           	13             	8.829
MS.8           	13             	8.812
MS.9           	13             	8.832
MS.10          	13             	8.794
MS.11          	13             	8.835
MS.12          	13             	8.836
MS.13          	13             	8.85
MS.14          	13             	8.835
MS.15          	13             	8.821
MS.16          	13             	8.8
MS.17          	13             	8.871
MS.18          	13             	8.82
MS.19          	13             	8.836
MS.20          	13             	8.807
MS.21          	13             	8.858
MS.22          	13             	8.841
MS.23          	13             	8.844
MS.24          	12.95          	8.887
MS.25          	12.92          	8.861
MS.26          	12.895         	8.858
MS.27          	12.87          	8.852
MS.28          	12.845         	8.861
MS.29          	12.82          	8.926
MS.30          	12.795         	8.875
MS.31          	12.77          	8.804
MS.32          	12.745         	8.888
MS.33          	12.715         	8.917
MS.34          	12.69          	8.914
MS.35          	12.665         	8.878
MS.36          	12.64          	8.932
MS.37          	12.615         	8.867
MS.38          	12.59          	8.87
MS.39          	12.565         	8.949
MS.40          	12.54          	8.923
MS.41          	12.515         	8.952
MS.42          	12.49          	8.943
MS.43          	12.465         	8.888
MS.44          	12.44          	8.884
MS.45          	12.415         	8.929
MS.46          	12.39          	8.904
MS.47          	12.365         	8.913
MS.48          	12.34          	8.908
MS.49          	12.315         	8.957
MS.50          	12.29          	8.955
MS.51          	12.265         	8.942
MS.52          	12.245         	8.958
MS.53          	12.22          	8.937
MS.54          	12.195         	8.926
MS.55          	12.17          	8.936
MS.56          	12.145         	8.916
MS.57          	12.12          	8.972
MS.58          	12.095         	8.931
MS.59          	12.075         	8.997
MS.60          	12.05          	8.899
MS.61          	12.025         	8.948
MS.62          	12             	8.925
MS.63          	11.975         	8.867
MS.64          	11.955         	9.001
MS.65          	11.93          	8.966
MS.66          	11.905         	8.946
MS.67          	11.88          	8.934
MS.68          	11.855         	8.917
MS.69          	11.835         	8.983
MS.70          	11.81          	8.936
MS.71          	11.785         	8.936
MS.72          	11.765         	8.928
MS.73          	11.74          	8.969
MS.74          	11.715         	8.916
MS.75          	11.69          	8.978
MS.76          	11.67          	9
MS.77          	11.645         	8.887
MS.78          	11.625         	8.842
MS.79          	11.6           	8.818
MS.80          	11.575         	8.801
MS.81          	11.555         	8.748
MS.82          	11.53          	8.809
MS.83          	11.505         	8.772
MS.84          	11.485         	8.838
MS.85          	11.46          	8.832
MS.86          	11.44          	8.827
MS.87          	11.415         	8.847
MS.88          	11.39          	8.849
MS.89          	11.37          	8.875
MS.90          	11.345         	8.87
MS.91          	11.325         	8.783
MS.92          	11.3           	8.9
MS.93          	11.28          	8.87
MS.94          	11.255         	8.876
MS.95          	11.235         	8.813
MS.96          	11.21          	8.871
MS.97          	11.19          	8.908
MS.98          	11.165         	8.893
MS.99          	11.145         	8.896
MS.100         	11.12          	8.853
MS.101         	11.1           	8.914
MS.102         	11.08          	8.871
MS.103         	11.055         	8.835
MS.104         	11.035         	8.853
MS.105         	11.01          	8.856
MS.106         	10.99          	8.875
MS.107         	10.97          	8.871
MS.108         	10.945         	8.879
MS.109         	10.925         	8.871
MS.110         	10.9           	8.876
MS.111         	10.88          	8.879
MS.112         	10.86          	8.844
MS.113         	10.835         	8.817
MS.114         	10.815         	8.887
MS.115         	10.795         	8.838
MS.116         	10.77          	8.806
MS.117         	10.75          	8.849
MS.118         	10.73          	8.865
MS.119         	10.71          	8.861
MS.120         	10.685         	8.827
MS.121         	10.665         	8.832
MS.122         	10.645         	8.765
MS.123         	10.62          	8.832
MS.124         	10.6           	8.788
MS.125         	10.58          	8.83
MS.126         	10.56          	8.813
MS.127         	10.54          	8.865
MS.128         	10.515         	8.852
MS.129         	10.495         	8.841
MS.130         	10.475         	8.801
MS.131         	10.455         	8.817
MS.132         	10.435         	8.812
MS.133         	10.41          	8.838
MS.134         	10.39          	8.818
MS.135         	10.37          	8.821
MS.136         	10.35          	8.795
MS.137         	10.33          	8.8
MS.138         	10.31          	8.809
MS.139         	10.29          	8.858
MS.140         	10.265         	8.871
MS.141         	10.245         	8.798
MS.142         	10.225         	8.791
MS.143         	10.205         	8.78
MS.144         	10.185         	8.784
MS.145         	10.165         	8.804
MS.146         	10.145         	8.861
MS.147         	10.125         	8.772
MS.148         	10.105         	8.838
MS.149         	10.085         	8.818
MS.150         	10.065         	8.856
MS.151         	10.045         	8.788
MS.152         	10.025         	8.824
MS.153         	10.005         	8.826
MS.154         	9.985          	8.896
MS.155         	9.965          	8.815
MS.156         	9.945          	8.855
MS.157         	9.925          	8.836
MS.158         	9.905          	8.861
MS.159         	9.885          	8.91
MS.160         	9.865          	8.881
MS.161         	9.845          	8.881
MS.162         	9.825          	8.908
MS.163         	9.805          	8.871
MS.164         	9.785          	8.858
MS.165         	9.765          	8.83
MS.166         	9.745          	8.894
MS.167         	9.725          	8.873
MS.168         	9.71           	8.925
MS.169         	9.69           	8.908
MS.170         	9.67           	8.873
MS.171         	9.65           	8.955
MS.172         	9.63           	8.904
MS.173         	9.61           	8.899
MS.174         	9.59           	8.92
MS.175         	9.575          	8.862
MS.176         	9.555          	8.865
MS.177         	9.535          	8.882
MS.178         	9.515          	8.868
MS.179         	9.495          	8.865
MS.180         	9.48           	8.875
MS.181         	9.46           	8.846
MS.182         	9.44           	8.876
MS.183         	9.42           	8.908
MS.184         	9.4            	8.873
MS.185         	9.385          	8.862
MS.186         	9.365          	8.853
MS.187         	9.345          	8.899
MS.188         	9.325          	8.879
MS.189         	9.31           	8.896
MS.190         	9.29           	8.917
MS.191         	9.27           	8.888
MS.192         	9.255          	8.891
MS.193         	9.235          	8.897
MS.194         	9.215          	8.882
MS.195         	9.2            	8.884
MS.196         	9.18           	8.939
MS.197         	9.16           	8.894
MS.198         	9.145          	8.916
MS.199         	9.125          	8.861
MS.200         	9.105          	8.847
MS.201         	9.09           	8.922
MS.202         	9.07           	8.905
MS.203         	9.05           	8.853
MS.204         	9.035          	8.919
MS.205         	9.015          	8.853
MS.206         	8.995          	8.852
MS.207         	8.98           	8.879
MS.208         	8.96           	8.875
MS.209         	8.945          	8.9
MS.210         	8.925          	8.904
MS.211         	8.91           	8.908
MS.212         	8.89           	8.878
MS.213         	8.87           	8.858
MS.214         	8.855          	8.896
MS.215         	8.835          	8.929
MS.216         	8.82           	8.891
MS.217         	8.8            	8.878
MS.218         	8.785          	8.865
MS.219         	8.765          	8.902
MS.220         	8.75           	8.963
MS.221         	8.73           	8.965
MS.222         	8.715          	8.904
MS.223         	8.695          	8.974
MS.224         	8.68           	8.966
MS.225         	8.66           	8.939
MS.226         	8.645          	8.929
MS.227         	8.625          	8.974
MS.228         	8.61           	8.919
MS.229         	8.595          	8.91
MS.230         	8.575          	8.954
MS.231         	8.56           	8.934
MS.232         	8.54           	8.943
MS.233         	8.525          	8.961
MS.234         	8.505          	8.977
MS.235         	8.49           	8.945
MS.236         	8.475          	8.968
MS.237         	8.455          	8.974
MS.238         	8.44           	9.012
MS.239         	8.425          	8.992
MS.240         	8.405          	8.958
MS.241         	8.39           	9.013
MS.242         	8.37           	8.923
MS.243         	8.355          	8.965
MS.244         	8.34           	8.958
MS.245         	8.32           	8.896
MS.246         	8.305          	8.865
MS.247         	8.29           	8.908
MS.248         	8.275          	8.955
MS.249         	8.255          	9.012
MS.250         	8.24           	8.98
MS.251         	8.225          	8.987
MS.252         	8.205          	8.966
MS.253         	8.19           	8.939
MS.254         	8.175          	9.012
MS.255         	8.16           	8.882
MS.256         	8.14           	8.897
MS.257         	8.125          	8.902
MS.258         	8.11           	9.012
MS.259         	8.095          	8.99
MS.260         	8.075          	8.884
MS.261         	8.06           	8.914
MS.262         	8.045          	8.945
MS.263         	8.03           	8.905
MS.264         	8.01           	8.911
MS.265         	7.995          	8.919
MS.266         	7.98           	8.926
MS.267         	7.965          	8.983
MS.268         	7.95           	8.911
MS.269         	7.93           	8.876
MS.270         	7.915          	8.963
MS.271         	7.9            	8.905
MS.272         	7.885          	8.922
MS.273         	7.87           	8.916
MS.274         	7.855          	8.926
MS.275         	7.84           	8.926
MS.276         	7.82           	8.925
MS.277         	7.805          	8.907
MS.278         	7.79           	8.867
MS.279         	7.775          	8.928
MS.280         	7.76           	8.937
MS.281         	7.745          	8.907
MS.282         	7.73           	8.917
MS.283         	7.715          	8.932
MS.284         	7.7            	8.919
MS.285         	7.685          	8.875
MS.286         	7.665          	8.94
MS.287         	7.65           	8.931
MS.288         	7.635          	8.89
MS.289         	7.62           	8.968
MS.290         	7.605          	8.917
MS.291         	7.59           	8.899
MS.292         	7.575          	8.887
MS.293         	7.56           	8.914
MS.294         	7.545          	8.911
MS.295         	7.53           	8.676
MS.296         	7.515          	8.957
MS.297         	7.5            	8.925
MS.298         	7.485          	8.946
MS.299         	7.47           	8.914
MS.300         	7.455          	8.913
MS.301         	7.44           	8.675
MS.302         	7.425          	8.919
MS.303         	7.41           	8.354
MS.304         	7.395          	8.916
MS.305         	7.38           	8.963
MS.306         	7.365          	8.891
MS.307         	7.35           	8.638
MS.308         	7.335          	8.946
MS.309         	7.32           	8.678
MS.310         	7.31           	8.62
MS.311         	7.295          	8.597
MS.312         	7.28           	8.354
MS.313         	7.265          	8.415
MS.314         	7.25           	8.325
MS.315         	7.235          	8.38
MS.316         	7.22           	8.405
MS.317         	7.205          	8.405
MS.318         	7.19           	8.647
MS.319         	7.175          	8.351
MS.320         	7.165          	8.319
MS.321         	7.15           	8.174
MS.322         	7.135          	8.284
MS.323         	7.12           	8.257
MS.324         	7.105          	8.321
MS.325         	7.09           	8.319
MS.326         	7.08           	8.11
MS.327         	7.065          	8.263
MS.328         	7.05           	8.292
MS.329         	7.035          	8.098
MS.330         	7.02           	8.101
MS.331         	7.005          	8.293
MS.332         	6.995          	8.115
MS.333         	6.98           	8.096
MS.334         	6.965          	8.052
MS.335         	6.95           	8.116
MS.336         	6.94           	8.142
MS.337         	6.925          	8.168
MS.338         	6.91           	8.119
MS.339         	6.895          	7.841
MS.340         	6.88           	7.68
MS.341         	6.87           	7.834
MS.342         	6.855          	8.047
MS.343         	6.84           	7.89
MS.344         	6.825          	7.645
MS.345         	6.815          	7.848
MS.346         	6.8            	7.841
MS.347         	6.785          	7.779
MS.348         	6.775          	7.887
MS.349         	6.76           	7.935
MS.350         	6.745          	7.878
MS.351         	6.73           	7.887
MS.352         	6.72           	7.959
MS.353         	6.705          	7.901
MS.354         	6.69           	7.87
MS.355         	6.68           	7.825
MS.356         	6.665          	7.657
MS.357         	6.65           	7.62
MS.358         	6.64           	7.632
MS.359         	6.625          	7.831
MS.360         	6.61           	7.457
MS.361         	6.6            	7.614
MS.362         	6.585          	7.6
MS.363         	6.575          	7.646
MS.364         	6.56           	7.475
MS.365         	6.545          	7.504
MS.366         	6.535          	7.422
MS.367         	6.52           	7.285
MS.368         	6.505          	7.23
MS.369         	6.495          	7.195
MS.370         	6.48           	7.214
MS.371         	6.47           	7.108
MS.372         	6.455          	7.117
MS.373         	6.445          	7.442
MS.374         	6.43           	7.095
MS.375         	6.415          	6.931
MS.376         	6.405          	7.048
MS.377         	6.39           	7.164
MS.378         	6.38           	6.912
MS.379         	6.365          	6.793
MS.380         	6.355          	6.822
MS.381         	6.34           	6.537
MS.382         	6.33           	6.601
MS.383         	6.315          	6.007
MS.384         	6.3            	6.754
MS.385         	6.29           	6.334
MS.386         	6.275          	6.082
MS.387         	6.265          	6.328
MS.388         	6.25           	5.887
MS.389         	6.24           	6.168
MS.390         	6.225          	5.797
MS.391         	6.215          	5.505
MS.392         	6.2            	5.341
MS.393         	6.19           	5.891
MS.394         	6.18           	5.904
MS.395         	6.165          	6.137
MS.396         	6.155          	5.696
MS.397         	6.14           	5.267
MS.398         	6.13           	5.302
MS.399         	6.115          	4.407
MS.400         	6.105          	4.805
MS.401         	6.09           	4.332
MS.402         	6.08           	4.623
MS.403         	6.065          	4.652
MS.404         	6.055          	4.007
MS.405         	6.045          	4.567
MS.406         	6.03           	3.976
MS.407         	6.02           	4.027
MS.408         	6.005          	3.677
MS.409         	5.995          	3.825
MS.410         	5.985          	4.082
MS.411         	5.97           	3.333
MS.412         	5.96           	3.381
MS.413         	5.945          	3.131
MS.414         	5.935          	3.366
MS.415         	5.925          	3.114
MS.416         	5.91           	3.529
MS.417         	5.9            	3.055
MS.418         	5.89           	3.03
MS.419         	5.875          	2.771
MS.420         	5.865          	2.821
MS.421         	5.855          	2.496
MS.422         	5.84           	2.519
MS.423         	5.83           	2.321
MS.424         	5.82           	2.423
MS.425         	5.805          	2.254
MS.426         	5.795          	2.295
MS.427         	5.785          	2.332
MS.428         	5.77           	2.171
MS.429         	5.76           	2.138
MS.430         	5.75           	2.162
MS.431         	5.735          	2.074
MS.432         	5.725          	1.825
MS.433         	5.715          	1.863
MS.434         	5.705          	1.678
MS.435         	5.69           	1.735
MS.436         	5.68           	1.831
MS.437         	5.67           	1.637
MS.438         	5.655          	1.668
MS.439         	5.645          	1.671
MS.440         	5.635          	1.595
MS.441         	5.625          	1.669
MS.442         	5.61           	1.7
MS.443         	5.6            	1.491
MS.444         	5.59           	1.323
MS.445         	5.58           	1.305
MS.446         	5.565          	1.215
MS.447         	5.555          	1.138
MS.448         	5.545          	0.999
MS.449         	5.535          	1.031
MS.450         	5.525          	1.019
MS.451         	5.51           	0.906
MS.452         	5.5            	0.96
MS.453         	5.49           	1.03
MS.454         	5.48           	0.984
MS.455         	5.47           	0.937
MS.456         	5.455          	0.893
MS.457         	5.445          	0.847
MS.458         	5.435          	0.798
MS.459         	5.425          	0.835
MS.460         	5.415          	0.836
MS.461         	5.405          	0.844
MS.462         	5.39           	0.757
MS.463         	5.38           	0.545
MS.464         	5.37           	0.612
MS.465         	5.36           	0.595
MS.466         	5.35           	0.632
MS.467         	5.34           	0.581
MS.468         	5.33           	0.626
MS.469         	5.315          	0.511
MS.470         	5.305          	0.51
MS.471         	5.295          	0.429
MS.472         	5.285          	0.453
MS.473         	5.275          	0.47
MS.474         	5.265          	0.475
MS.475         	5.255          	0.459
MS.476         	5.245          	0.536
MS.477         	5.235          	0.473
MS.478         	5.22           	0.412
MS.479         	5.21           	0.375
MS.480         	5.2            	0.352
MS.481         	5.19           	0.287
MS.482         	5.18           	0.328
MS.483         	5.17           	0.36
MS.484         	5.16           	0.204
MS.485         	5.15           	0.227
MS.486         	5.14           	0.383
MS.487         	5.13           	0.224
MS.488         	5.12           	0.237
MS.489         	5.11           	0.165
MS.490         	5.1            	0.214
MS.491         	5.09           	0.27
MS.492         	5.08           	0.31
MS.493         	5.07           	0.157
MS.494         	5.06           	0.195
MS.495         	5.05           	0.134
MS.496         	5.04           	0.075
MS.497         	5.03           	0.148
MS.498         	5.02           	0.139
MS.499         	5.01           	0.117
MS.500         	5              	0.125
MS.501         	4.99           	0.125
MS.502         	4.98           	0.113
MS.503         	4.97           	0.096
MS.504         	4.96           	0.075
MS.505         	4.95           	0.105
MS.506         	4.94           	0.113
MS.507         	4.93           	0.047
MS.508         	4.92           	0.067
MS.509         	4.91           	0.06
MS.510         	4.9            	0.069
MS.511         	4.89           	0.061
MS.512         	4.88           	0.072
MS.513         	4.87           	0.053
MS.514         	4.86           	0.032
MS.515         	4.85           	0.055
MS.516         	4.84           	0.064
MS.517         	4.83           	0.027
MS.518         	4.82           	0.009
MS.519         	4.81           	0.041
MS.520         	4.8            	0.038
MS.521         	4.79           	0.037
MS.522         	4.78           	0.011
MS.523         	4.775          	0.034
MS.524         	4.765          	0.011
MS.525         	4.755          	0.012
MS.526         	4.745          	-0.002
MS.527         	4.735          	0.012
MS.528         	4.725          	0.008
MS.529         	4.715          	0.009
MS.530         	4.705          	0.023
MS.531         	4.695          	-0.006
MS.532         	4.69           	0.002
MS.533         	4.68           	0.012
MS.534         	4.67           	-0.009
MS.535         	4.66           	-0.014
MS.536         	4.65           	-0.017
MS.537         	4.64           	0.003
MS.538         	4.63           	-0.018
MS.539         	4.625          	-0.002
MS.540         	4.615          	-0.018
MS.541         	4.605          	0.006
MS.542         	4.595          	-0.015
MS.543         	4.585          	-0.012
MS.544         	4.575          	-0.023
MS.545         	4.565          	-0.015
MS.546         	4.56           	-0.015
MS.547         	4.55           	-0.017
MS.548         	4.54           	-0.021
MS.549         	4.53           	-0.011
MS.550         	4.52           	-0.026
MS.551         	4.515          	-0.021
MS.552         	4.505          	-0.026
MS.553         	4.495          	-0.027
MS.554         	4.485          	-0.029
MS.555         	4.475          	-0.015
MS.556         	4.47           	-0.014
MS.557         	4.46           	-0.024
MS.558         	4.45           	-0.021
MS.559         	4.44           	0.005
MS.560         	4.43           	-0.026
MS.561         	4.425          	-0.018
MS.562         	4.415          	-0.027
MS.563         	4.405          	-0.021
MS.564         	4.395          	-0.024
MS.565         	4.39           	-0.026
MS.566         	4.38           	-0.031
MS.567         	4.37           	-0.026
MS.568         	4.36           	-0.024
MS.569         	4.355          	-0.023
MS.570         	4.345          	-0.026
MS.571         	4.335          	-0.023
MS.572         	4.325          	-0.023
MS.573         	4.32           	-0.024
MS.574         	4.31           	-0.021
MS.575         	4.3            	-0.032
MS.576         	4.295          	-0.026
MS.577         	4.285          	-0.029
MS.578         	4.275          	-0.023
MS.579         	4.265          	-0.021
MS.580         	4.26           	-0.027
MS.581         	4.25           	-0.026
MS.582         	4.24           	-0.026
MS.583         	4.235          	-0.026
MS.584         	4.225          	-0.029
MS.585         	4.215          	-0.024
MS.586         	4.21           	-0.017
MS.587         	4.2            	-0.029
MS.588         	4.19           	-0.027
MS.589         	4.185          	-0.021
MS.590         	4.175          	-0.029
MS.591         	4.165          	-0.032
MS.592         	4.16           	-0.029
MS.593         	4.15           	-0.029
MS.594         	4.14           	-0.024
MS.595         	4.135          	-0.029
MS.596         	4.125          	-0.032
MS.597         	4.115          	-0.032
MS.598         	4.11           	-0.026
MS.599         	4.1            	-0.023
MS.600         	4.09           	-0.024
MS.601         	4.085          	-0.023
MS.602         	4.075          	-0.029
DERIVED EXCITABILITY VARIABLES
Program = QTracP 6/7/2018
Threshold method = 6 (optimised for CAP, using data for present condition only)
SR method = 1 (using actual data values)
6.                 	0.000               	Peak response\(mV)
9.                 	37.4                	Temperature ( C)
17.                	24                  	Age (years)
18.                	1                   	Sex (M=1, F=2)

EXTRA VARIABLES

MScPeak(mV) = 8.86
MScS5(mA) = 5.27
MScS50(mA) = 6.08
MScS95(mA) = 7.29
MScNSteps = 4
MScSteps(%) = 11.9
MScStepMax(%) = 5.2
MSFPeakAmp(mV) = 9
MSFNUnits = 113
MSFMeanUnitAmp(uV) = 79.7
MSFHuntTime(m) = 2.1
MSFError(%) = 7.01
MSFNLarge = 26.94
MSFMedianAmp(%) = 0.627
MSFMedianAmp(mV) = 0.0565
MSFHalfAmpAmp(%) = 1.18
MSFHalfAmpAmp(mV) = 0.106
MSFLargestAmp(%) = 5.37
MSFLargestAmp(mV) = 0.484
MSFMeanRS(%) = 2.01
MSFOpts = 10106121
Height = 179
MScDuration(min) = 5.6
MSFTraces = 370
MSFSizeLimit(uV) = 22.5
MSFLimitType = 1
MSFSmallestAmp(uV) = 22.7

EXTRA WAVEFORMS


!MScan Model
!113
	1	4.71	0.36	2
	2	4.83	0.39	2
	3	4.9	0.3	2
	4	4.97	0.44	2
	5	5.01	0.34	2
	6	5.06	0.43	2
	7	5.11	0.59	2
	8	5.15	0.76	2
	9	5.17	0.29	2
	10	5.19	0.33	2
	11	5.21	0.38	2
	12	5.23	0.3	2
	13	5.25	0.25	2
	14	5.27	0.44	2
	15	5.31	0.7	2
	16	5.32	0.3	2
	17	5.34	0.57	2
	18	5.35	0.31	2
	19	5.36	0.28	2
	20	5.38	0.44	2
	21	5.39	0.4	2
	22	5.4	0.43	2
	23	5.42	0.47	2
	24	5.43	0.41	2
	25	5.46	0.47	1.6
	26	5.47	0.93	2
	27	5.49	0.45	2
	28	5.5	0.84	2
	29	5.54	1.32	2
	30	5.57	0.47	2
	31	5.58	0.39	2
	32	5.59	0.58	2
	33	5.6	0.85	2
	34	5.61	0.78	2.2
	35	5.63	0.59	2
	36	5.64	0.59	2.4
	37	5.66	0.63	2
	38	5.67	0.92	2
	39	5.69	0.92	2
	40	5.7	0.44	2
	41	5.7	0.34	2
	42	5.71	0.34	2
	43	5.73	0.49	2
	44	5.73	0.29	2
	45	5.74	0.43	2
	46	5.75	0.43	2
	47	5.76	0.43	2
	48	5.76	0.29	2
	49	5.77	0.27	2
	50	5.77	0.31	2
	51	5.78	0.32	2
	52	5.78	0.32	2
	53	5.79	0.38	2
	54	5.79	0.4	2
	55	5.8	0.35	2
	56	5.8	0.33	2
	57	5.81	0.5	2
	58	5.82	0.57	2
	59	5.83	0.57	2
	60	5.84	0.55	2
	61	5.85	0.63	2
	62	5.85	0.68	2
	63	5.86	0.7	2
	64	5.87	0.7	2
	65	5.88	0.77	2
	66	5.89	0.83	2
	67	5.9	0.82	2
	68	5.91	0.93	2
	69	5.92	0.93	2
	70	5.93	1.12	2
	71	5.95	1.46	2
	72	5.96	1.39	2
	73	5.97	1.26	2
	74	5.99	1.35	2
	75	6	1.02	2
	76	6.02	1.17	2
	77	6.03	1.51	2
	78	6.05	1.45	2
	79	6.07	2.94	2
	80	6.08	1.74	2
	81	6.1	2.53	2
	82	6.13	2.94	2
	83	6.15	1.78	2
	84	6.2	5.37	2
	85	6.23	1.82	2
	86	6.25	0.85	2
	87	6.27	1.04	2
	88	6.28	1.44	2
	89	6.3	1.31	2
	90	6.32	1.26	2
	91	6.33	1.19	2
	92	6.35	1.36	2
	93	6.37	1.36	2
	94	6.39	0.56	2
	95	6.41	1.12	2
	96	6.45	1.96	2
	97	6.48	1.18	2
	98	6.51	0.86	2
	99	6.53	0.86	2
	100	6.55	0.69	2
	101	6.57	0.49	2
	102	6.59	0.44	2
	103	6.61	0.62	2
	104	6.64	1.2	2
	105	6.71	1.15	2
	106	6.88	1.47	2
	107	6.94	1.17	2
	108	7.04	1.72	2
	109	7.15	1.4	2
	110	7.2	0.62	2
	111	7.29	4.36	2
	112	7.51	0.9	2.4
	113	7.51	0.6	2.4

