File:              	C:\Qtrac\Data\Daniel M Sørensen\MScan multicentre study\Data from centres\Oslo\Processed data\SZC00630A.QZD
Name:              	NO.OSL.NC.21.2
Protocol:          	MSCAN-R2
Date:              	30/6/20
Start time:        	16:57:42
Age:               	38
Sex:               	M
Temperature:       	31.5
S/R sites:         	APB
NC/disease:        	NC21
Operator:          	SZ
Comments:          	Test2
M-SCAN DATA (6.7-2.4m)
Scanpts: 14, 19, 378, 386
Stim. (mA)     	Amp. (mV)
MS.1           	13             	13.392
MS.2           	13             	13.4
MS.3           	13             	13.42
MS.4           	13             	13.38
MS.5           	13             	13.38
MS.6           	13             	13.382
MS.7           	13             	13.382
MS.8           	13             	13.386
MS.9           	13             	13.378
MS.10          	13             	13.406
MS.11          	13             	13.422
MS.12          	13             	13.428
MS.13          	13             	13.432
MS.14          	13             	13.41
MS.15          	13             	13.414
MS.16          	13             	13.42
MS.17          	13             	13.428
MS.18          	13             	13.408
MS.19          	13             	13.402
MS.20          	13             	13.384
MS.21          	13             	13.384
MS.22          	13             	13.372
MS.23          	12.947         	13.372
MS.24          	12.922         	13.36
MS.25          	12.898         	13.36
MS.26          	12.87          	13.354
MS.27          	12.845         	13.348
MS.28          	12.82          	13.344
MS.29          	12.792         	13.332
MS.30          	12.767         	13.324
MS.31          	12.742         	13.33
MS.32          	12.717         	13.316
MS.33          	12.693         	13.285
MS.34          	12.667         	13.32
MS.35          	12.64          	13.376
MS.36          	12.615         	13.418
MS.37          	12.59          	13.398
MS.38          	12.565         	13.396
MS.39          	12.54          	13.386
MS.40          	12.515         	13.378
MS.41          	12.49          	13.366
MS.42          	12.465         	13.346
MS.43          	12.44          	13.344
MS.44          	12.415         	13.36
MS.45          	12.39          	13.356
MS.46          	12.365         	13.336
MS.47          	12.34          	13.042
MS.48          	12.318         	13.032
MS.49          	12.292         	13.326
MS.50          	12.267         	13.31
MS.51          	12.242         	13.038
MS.52          	12.217         	13.024
MS.53          	12.195         	13.336
MS.54          	12.17          	13.022
MS.55          	12.145         	13.009
MS.56          	12.12          	13.007
MS.57          	12.097         	13.034
MS.58          	12.072         	13.032
MS.59          	12.047         	12.955
MS.60          	12.025         	12.911
MS.61          	12             	13.026
MS.62          	11.977         	12.975
MS.63          	11.952         	13.036
MS.64          	11.927         	12.959
MS.65          	11.905         	12.907
MS.66          	11.88          	12.933
MS.67          	11.858         	13.001
MS.68          	11.832         	13.009
MS.69          	11.81          	13.028
MS.70          	11.787         	12.957
MS.71          	11.762         	12.957
MS.72          	11.74          	12.915
MS.73          	11.715         	13.007
MS.74          	11.693         	12.965
MS.75          	11.67          	12.977
MS.76          	11.645         	13.018
MS.77          	11.622         	13.034
MS.78          	11.6           	13.02
MS.79          	11.575         	12.957
MS.80          	11.552         	12.997
MS.81          	11.53          	12.939
MS.82          	11.507         	12.915
MS.83          	11.485         	12.947
MS.84          	11.46          	12.864
MS.85          	11.438         	12.901
MS.86          	11.415         	12.909
MS.87          	11.392         	12.875
MS.88          	11.37          	12.794
MS.89          	11.347         	12.864
MS.90          	11.325         	12.947
MS.91          	11.302         	12.852
MS.92          	11.28          	12.774
MS.93          	11.257         	12.786
MS.94          	11.235         	12.794
MS.95          	11.212         	12.788
MS.96          	11.19          	12.786
MS.97          	11.167         	12.623
MS.98          	11.145         	12.772
MS.99          	11.122         	12.802
MS.100         	11.1           	12.764
MS.101         	11.077         	12.758
MS.102         	11.055         	12.772
MS.103         	11.032         	12.725
MS.104         	11.012         	12.57
MS.105         	10.99          	12.736
MS.106         	10.967         	12.729
MS.107         	10.945         	12.635
MS.108         	10.925         	12.746
MS.109         	10.903         	12.744
MS.110         	10.88          	12.597
MS.111         	10.858         	12.627
MS.112         	10.837         	12.591
MS.113         	10.815         	12.617
MS.114         	10.792         	12.736
MS.115         	10.773         	12.576
MS.116         	10.75          	12.589
MS.117         	10.73          	12.607
MS.118         	10.707         	12.607
MS.119         	10.685         	12.476
MS.120         	10.665         	12.589
MS.121         	10.642         	12.429
MS.122         	10.622         	12.395
MS.123         	10.6           	12.409
MS.124         	10.58          	12.464
MS.125         	10.557         	12.403
MS.126         	10.537         	12.381
MS.127         	10.517         	12.131
MS.128         	10.495         	12.379
MS.129         	10.475         	12.395
MS.130         	10.452         	12.178
MS.131         	10.432         	12.542
MS.132         	10.412         	12.335
MS.133         	10.39          	12.131
MS.134         	10.37          	12.151
MS.135         	10.35          	12.166
MS.136         	10.33          	11.984
MS.137         	10.307         	12.182
MS.138         	10.287         	11.932
MS.139         	10.267         	11.92
MS.140         	10.247         	11.9
MS.141         	10.225         	11.924
MS.142         	10.205         	12.071
MS.143         	10.185         	11.944
MS.144         	10.165         	11.684
MS.145         	10.145         	11.753
MS.146         	10.125         	11.851
MS.147         	10.105         	11.88
MS.148         	10.085         	11.674
MS.149         	10.065         	11.664
MS.150         	10.042         	11.781
MS.151         	10.023         	11.829
MS.152         	10.002         	11.585
MS.153         	9.983          	11.41
MS.154         	9.962          	11.372
MS.155         	9.945          	11.386
MS.156         	9.925          	11.545
MS.157         	9.905          	11.364
MS.158         	9.885          	11.328
MS.159         	9.865          	11.471
MS.160         	9.845          	10.866
MS.161         	9.825          	11.253
MS.162         	9.805          	11.223
MS.163         	9.785          	11.036
MS.164         	9.767          	10.965
MS.165         	9.747          	10.772
MS.166         	9.727          	10.663
MS.167         	9.707          	10.752
MS.168         	9.688          	10.864
MS.169         	9.67           	10.866
MS.170         	9.65           	10.292
MS.171         	9.63           	10.55
MS.172         	9.613          	10.975
MS.173         	9.592          	10.534
MS.174         	9.573          	10.131
MS.175         	9.555          	10.315
MS.176         	9.535          	10.456
MS.177         	9.515          	10.163
MS.178         	9.497          	10.012
MS.179         	9.477          	9.968
MS.180         	9.46           	9.871
MS.181         	9.44           	9.879
MS.182         	9.42           	9.618
MS.183         	9.403          	9.871
MS.184         	9.382          	9.807
MS.185         	9.365          	10.041
MS.186         	9.345          	9.749
MS.187         	9.327          	9.593
MS.188         	9.307          	9.956
MS.189         	9.29           	9.523
MS.190         	9.273          	9.616
MS.191         	9.252          	9.066
MS.192         	9.235          	9.368
MS.193         	9.215          	9.368
MS.194         	9.198          	9.025
MS.195         	9.18           	8.627
MS.196         	9.16           	8.876
MS.197         	9.142          	9.076
MS.198         	9.125          	8.21
MS.199         	9.105          	8.506
MS.200         	9.087          	9.068
MS.201         	9.07           	8.234
MS.202         	9.052          	8.83
MS.203         	9.033          	8.169
MS.204         	9.015          	7.487
MS.205         	8.997          	7.954
MS.206         	8.98           	8.488
MS.207         	8.962          	7.491
MS.208         	8.943          	7.73
MS.209         	8.925          	7.69
MS.210         	8.908          	7.865
MS.211         	8.89           	7.015
MS.212         	8.872          	7.245
MS.213         	8.855          	7.033
MS.214         	8.837          	6.913
MS.215         	8.82           	6.832
MS.216         	8.802          	6.435
MS.217         	8.785          	6.818
MS.218         	8.767          	6.542
MS.219         	8.75           	6.496
MS.220         	8.733          	5.978
MS.221         	8.715          	6.58
MS.222         	8.698          	6.331
MS.223         	8.68           	6.157
MS.224         	8.662          	6.421
MS.225         	8.645          	5.744
MS.226         	8.627          	6.222
MS.227         	8.61           	5.914
MS.228         	8.592          	5.706
MS.229         	8.575          	5.394
MS.230         	8.557          	5.692
MS.231         	8.542          	5.696
MS.232         	8.525          	5.613
MS.233         	8.507          	5.098
MS.234         	8.49           	5.035
MS.235         	8.472          	4.923
MS.236         	8.457          	4.743
MS.237         	8.44           	4.711
MS.238         	8.422          	4.155
MS.239         	8.405          	4.911
MS.240         	8.39           	4.336
MS.241         	8.372          	4.479
MS.242         	8.355          	4.171
MS.243         	8.34           	4.242
MS.244         	8.323          	4.244
MS.245         	8.305          	4.016
MS.246         	8.29           	3.938
MS.247         	8.273          	4.25
MS.248         	8.255          	3.881
MS.249         	8.24           	3.791
MS.250         	8.222          	3.825
MS.251         	8.207          	3.704
MS.252         	8.19           	3.519
MS.253         	8.175          	3.64
MS.254         	8.158          	3.41
MS.255         	8.142          	3.497
MS.256         	8.125          	3.589
MS.257         	8.11           	3.223
MS.258         	8.092          	3.158
MS.259         	8.077          	3.295
MS.260         	8.06           	3.009
MS.261         	8.045          	3.084
MS.262         	8.028          	3.16
MS.263         	8.012          	2.995
MS.264         	7.995          	2.963
MS.265         	7.98           	3.043
MS.266         	7.965          	3.174
MS.267         	7.947          	2.822
MS.268         	7.932          	2.78
MS.269         	7.918          	2.878
MS.270         	7.9            	2.763
MS.271         	7.885          	2.8
MS.272         	7.87           	2.677
MS.273         	7.852          	2.697
MS.274         	7.837          	2.538
MS.275         	7.822          	2.411
MS.276         	7.807          	2.572
MS.277         	7.79           	2.427
MS.278         	7.775          	2.129
MS.279         	7.76           	2.27
MS.280         	7.745          	2.131
MS.281         	7.727          	2.189
MS.282         	7.712          	2.183
MS.283         	7.697          	2.395
MS.284         	7.682          	1.785
MS.285         	7.668          	1.98
MS.286         	7.652          	1.835
MS.287         	7.637          	1.706
MS.288         	7.622          	1.889
MS.289         	7.605          	1.567
MS.290         	7.59           	1.688
MS.291         	7.575          	1.547
MS.292         	7.56           	1.615
MS.293         	7.545          	1.426
MS.294         	7.53           	1.41
MS.295         	7.515          	1.364
MS.296         	7.5            	1.329
MS.297         	7.485          	1.057
MS.298         	7.47           	1.309
MS.299         	7.455          	1.172
MS.300         	7.44           	1.196
MS.301         	7.425          	1.162
MS.302         	7.41           	1.082
MS.303         	7.395          	1.194
MS.304         	7.382          	1.136
MS.305         	7.367          	0.999
MS.306         	7.352          	1.104
MS.307         	7.337          	0.834
MS.308         	7.322          	0.749
MS.309         	7.307          	0.735
MS.310         	7.293          	0.834
MS.311         	7.277          	0.969
MS.312         	7.265          	0.822
MS.313         	7.25           	0.81
MS.314         	7.235          	0.745
MS.315         	7.22           	0.673
MS.316         	7.205          	0.725
MS.317         	7.192          	0.689
MS.318         	7.177          	0.649
MS.319         	7.162          	0.628
MS.320         	7.15           	0.58
MS.321         	7.135          	0.556
MS.322         	7.12           	0.592
MS.323         	7.105          	0.618
MS.324         	7.092          	0.564
MS.325         	7.077          	0.526
MS.326         	7.062          	0.586
MS.327         	7.05           	0.506
MS.328         	7.035          	0.602
MS.329         	7.023          	0.544
MS.330         	7.007          	0.54
MS.331         	6.992          	0.51
MS.332         	6.98           	0.544
MS.333         	6.965          	0.548
MS.334         	6.952          	0.457
MS.335         	6.938          	0.437
MS.336         	6.922          	0.534
MS.337         	6.91           	0.447
MS.338         	6.895          	0.336
MS.339         	6.882          	0.354
MS.340         	6.867          	0.294
MS.341         	6.855          	0.264
MS.342         	6.84           	0.344
MS.343         	6.827          	0.401
MS.344         	6.815          	0.344
MS.345         	6.8            	0.248
MS.346         	6.787          	0.35
MS.347         	6.773          	0.252
MS.348         	6.76           	0.199
MS.349         	6.745          	0.28
MS.350         	6.733          	0.248
MS.351         	6.72           	0.284
MS.352         	6.705          	0.195
MS.353         	6.692          	0.123
MS.354         	6.68           	0.103
MS.355         	6.665          	0.209
MS.356         	6.652          	0.177
MS.357         	6.64           	0.143
MS.358         	6.625          	0.125
MS.359         	6.612          	0.193
MS.360         	6.6            	0.101
MS.361         	6.585          	0.193
MS.362         	6.572          	0.066
MS.363         	6.56           	0.089
MS.364         	6.547          	0.103
MS.365         	6.532          	0.038
MS.366         	6.52           	0.105
MS.367         	6.507          	0.121
MS.368         	6.495          	0.091
MS.369         	6.483          	0.062
MS.370         	6.467          	0.064
MS.371         	6.455          	0.068
MS.372         	6.442          	0.016
MS.373         	6.43           	0.024
MS.374         	6.418          	0.022
MS.375         	6.405          	0.016
MS.376         	6.392          	0.022
MS.377         	6.378          	0.022
MS.378         	6.365          	0.014
MS.379         	6.352          	0.01
MS.380         	6.34           	0.018
MS.381         	6.327          	0.024
MS.382         	6.315          	0.022
MS.383         	6.302          	0.012
MS.384         	6.29           	0.022
MS.385         	6.277          	0.008
MS.386         	6.265          	0.02
MS.387         	6.253          	0.016
MS.388         	6.24           	0.012
MS.389         	6.227          	0.018
MS.390         	6.215          	0.02
MS.391         	6.202          	0.008
MS.392         	6.19           	0.01
MS.393         	6.177          	0.012
MS.394         	6.165          	0.032
MS.395         	6.152          	0.012
MS.396         	6.14           	0.018
MS.397         	6.128          	0.018
MS.398         	6.115          	0.014
MS.399         	6.105          	0.01
MS.400         	6.092          	0.01
MS.401         	6.08           	0.012
MS.402         	6.067          	0.016
MS.403         	6.055          	0.012
MS.404         	6.043          	0.008
MS.405         	6.03           	0.014
MS.406         	6.02           	0.016
MS.407         	6.007          	0.016
MS.408         	5.995          	0.012
MS.409         	5.983          	0.018
MS.410         	5.97           	0.014
MS.411         	5.96           	0.01
MS.412         	5.947          	0.012
MS.413         	5.935          	0.014
MS.414         	5.922          	0.01
MS.415         	5.912          	0.016
MS.416         	5.9            	0.016
MS.417         	5.887          	0.016
MS.418         	5.878          	0.012
MS.419         	5.865          	0.012
MS.420         	5.852          	0.012
MS.421         	5.842          	0.01
MS.422         	5.83           	0.012
MS.423         	5.817          	0.016
MS.424         	5.807          	0.016
MS.425         	5.795          	0.014
MS.426         	5.782          	0.014
MS.427         	5.773          	0.018
MS.428         	5.76           	0.016
MS.429         	5.747          	0.012
MS.430         	5.737          	0.014
MS.431         	5.725          	0.014
MS.432         	5.715          	0.02
MS.433         	5.702          	0.016
MS.434         	5.692          	0.018
MS.435         	5.68           	0.014
MS.436         	5.668          	0.01
MS.437         	5.657          	0.01
MS.438         	5.645          	0.016
MS.439         	5.635          	0.02
MS.440         	5.622          	0.016
MS.441         	5.612          	0.016
MS.442         	5.6            	0.012
MS.443         	5.59           	0.014
MS.444         	5.577          	0.016
MS.445         	5.567          	0.016
MS.446         	5.557          	0.014
MS.447         	5.545          	0.018
MS.448         	5.535          	0.01
MS.449         	5.523          	0.014
MS.450         	5.512          	0.018
MS.451         	5.5            	0.018
MS.452         	5.49           	0.022
MS.453         	5.48           	0.012
MS.454         	5.467          	0.018
MS.455         	5.457          	0.012
MS.456         	5.447          	0.014
MS.457         	5.435          	0.012
MS.458         	5.425          	0.016
MS.459         	5.415          	0.014
MS.460         	5.402          	0.012
MS.461         	5.392          	0.02
MS.462         	5.382          	0.014
MS.463         	5.37           	0.02
MS.464         	5.36           	0.016
MS.465         	5.35           	0.016
DERIVED EXCITABILITY VARIABLES
Program = QTracP 3/4/2020
Threshold method = 6 (optimised for CAP, using data for present condition only)
SR method = 1 (using actual data values)
6.                 	0.000               	Peak response\(mV)
9.                 	31.5                	Temperature ( C)
17.                	38                  	Age (years)
18.                	1                   	Sex (M=1, F=2)

EXTRA VARIABLES

MScPeak(mV) = 13.39
MScS5(mA) = 7.19
MScS50(mA) = 8.79
MScS95(mA) = 10.97
MScNSteps = 1
MScSteps(%) = 2.2
MScStepMax(%) = 2.2
MScD50 = 42
MScSlope = 6.79
MSFPeakAmp(mV) = 13.4
MSFNUnits = 149
MSFMeanUnitAmp(uV) = 89.9
MSFHuntTime(m) = 2.44
MSFError(%) = 3.18
MSFNLarge = 43.1
MSFMedianAmp(%) = 0.563
MSFMedianAmp(mV) = 0.0754
MSFHalfAmpAmp(%) = 0.691
MSFHalfAmpAmp(mV) = 0.0926
MSFLargestAmp(%) = 2.43
MSFLargestAmp(mV) = 0.326
MSFMeanRS(%) = 2.01
MSFOpts = 10106121
MScDuration(min) = 4.3
MSFTraces = 373
MSFSizeLimit(uV) = 33.5
MSFLimitType = 1
MSFSmallestAmp(uV) = 34.4

EXTRA WAVEFORMS


!MScan Model
!149
	1	6.49	0.4	2
	2	6.55	0.27	2
	3	6.67	0.62	2
	4	6.74	0.35	2
	5	6.8	0.45	2
	6	6.87	0.62	2
	7	6.9	0.27	2
	8	6.95	0.47	2
	9	7.04	0.69	2
	10	7.13	0.43	2
	11	7.18	0.46	2
	12	7.25	0.62	2
	13	7.27	0.28	2
	14	7.3	0.49	2
	15	7.32	0.36	2
	16	7.35	0.56	2
	17	7.39	0.45	2
	18	7.43	0.6	2
	19	7.44	0.66	2
	20	7.46	0.26	2
	21	7.48	0.53	2
	22	7.52	0.63	2
	23	7.54	0.51	2
	24	7.56	0.33	2
	25	7.57	0.33	2
	26	7.58	0.39	2
	27	7.6	0.39	2
	28	7.61	0.37	2
	29	7.62	0.39	2
	30	7.64	0.5	2
	31	7.66	0.45	2
	32	7.67	0.37	2
	33	7.69	0.49	2
	34	7.71	0.45	2
	35	7.72	0.41	2
	36	7.74	0.52	2
	37	7.75	0.47	2
	38	7.77	0.41	2
	39	7.79	0.56	2
	40	7.8	0.27	2
	41	7.83	0.53	2
	42	7.84	0.28	2
	43	7.84	0.26	2
	44	7.86	0.33	2
	45	7.88	0.58	2
	46	7.9	0.46	2
	47	7.92	0.42	2
	48	7.94	0.41	2
	49	7.97	0.41	2
	50	7.99	0.71	2
	51	8.01	0.45	2
	52	8.03	0.37	2
	53	8.05	0.43	2
	54	8.07	0.48	2
	55	8.09	0.42	2
	56	8.1	0.28	2
	57	8.11	0.26	2
	58	8.12	0.29	2
	59	8.15	0.41	2
	60	8.16	0.35	2
	61	8.17	0.34	2
	62	8.18	0.35	2
	63	8.19	0.35	2
	64	8.2	0.33	2
	65	8.22	0.46	2
	66	8.23	0.4	2
	67	8.24	0.31	2
	68	8.25	0.33	2
	69	8.27	0.6	2
	70	8.3	0.82	2
	71	8.32	0.83	1.6
	72	8.35	0.63	2
	73	8.36	0.39	2
	74	8.37	0.4	2
	75	8.38	0.58	2
	76	8.4	0.58	2
	77	8.41	0.57	2
	78	8.42	0.61	2
	79	8.44	0.91	2
	80	8.45	0.66	2
	81	8.47	0.34	2
	82	8.48	0.69	2
	83	8.5	0.79	2
	84	8.52	0.88	2
	85	8.54	0.96	2
	86	8.56	0.69	2
	87	8.56	0.46	2
	88	8.58	0.68	2
	89	8.6	1.07	2
	90	8.64	1.58	2
	91	8.68	1.22	2
	92	8.71	0.96	2
	93	8.74	1.52	2
	94	8.77	1.06	2
	95	8.79	0.68	2
	96	8.8	0.74	2
	97	8.82	0.61	2
	98	8.84	0.94	2
	99	8.86	0.99	2
	100	8.88	1.37	2
	101	8.91	0.54	2
	102	8.93	1.47	2
	103	8.98	2.41	2
	104	9.03	1.96	2
	105	9.07	1.4	2
	106	9.1	1.33	2
	107	9.14	1.44	2
	108	9.17	1.39	2
	109	9.21	1.6	2
	110	9.25	1.3	2
	111	9.29	0.99	2
	112	9.33	1.03	2
	113	9.41	2.26	2.4
	114	9.45	0.76	2
	115	9.5	1.12	2
	116	9.54	0.95	2
	117	9.57	0.65	2
	118	9.61	0.88	2
	119	9.65	1.09	2
	120	9.7	1.24	2
	121	9.73	0.71	2
	122	9.76	0.46	2
	123	9.79	0.6	2
	124	9.82	0.65	2
	125	9.85	0.64	2
	126	9.88	0.64	2
	127	9.9	0.58	2
	128	9.95	0.86	2
	129	10	0.61	2
	130	10.04	0.64	2
	131	10.08	0.56	2
	132	10.12	0.58	2
	133	10.18	0.71	2
	134	10.22	0.45	2
	135	10.26	0.41	2
	136	10.3	0.52	2
	137	10.35	0.72	2
	138	10.41	0.38	2
	139	10.52	1.13	2
	140	10.6	0.52	2
	141	10.63	0.36	2
	142	10.71	0.54	2
	143	10.86	0.74	2
	144	11.07	0.67	2
	145	11.2	0.44	2
	146	11.35	0.62	2
	147	11.53	0.55	2
	148	12.23	2.43	2
	149	12.75	0.61	2

