File:              	C:\Qtrac\Data\Daniel M Sørensen\MScan multicentre study\Data from centres\Oslo\IronKey\Oslo_NC_first examination\SZC00508A.QZD
Name:              	NO.OSL.NC.8.1
Protocol:          	MSCAN-R2
Date:              	8/5/20
Start time:        	11:17:13
Age:               	68
Sex:               	F
Temperature:       	32.2
S/R sites:         	Median Wr-APB
NC/disease:        	NC8
Operator:          	SZ
Comments:          	Test1
M-SCAN DATA (21.7-12.8m)
Scanpts: 398, 411, 862, 870
Stim. (mA)     	Amp. (mV)
MS.1           	32             	9.68
MS.2           	32             	9.684
MS.3           	32             	9.686
MS.4           	32             	9.686
MS.5           	32             	9.666
MS.6           	32             	9.73
MS.7           	32             	9.702
MS.8           	32             	9.704
MS.9           	32             	9.694
MS.10          	32             	9.682
MS.11          	32             	9.694
MS.12          	32             	9.755
MS.13          	32             	9.732
MS.14          	32             	9.751
MS.15          	32             	9.706
MS.16          	32             	9.694
MS.17          	32             	9.664
MS.18          	32             	9.706
MS.19          	32             	9.734
MS.20          	32             	9.777
MS.21          	32             	9.732
MS.22          	32             	9.749
MS.23          	32             	9.734
MS.24          	31.872         	9.716
MS.25          	31.807         	9.73
MS.26          	31.745         	9.736
MS.27          	31.682         	9.732
MS.28          	31.617         	9.745
MS.29          	31.555         	9.738
MS.30          	31.492         	9.738
MS.31          	31.43          	9.738
MS.32          	31.365         	9.755
MS.33          	31.302         	9.783
MS.34          	31.24          	9.765
MS.35          	31.177         	9.763
MS.36          	31.117         	9.765
MS.37          	31.055         	9.761
MS.38          	30.992         	9.785
MS.39          	30.93          	9.753
MS.40          	30.867         	9.767
MS.41          	30.807         	9.747
MS.42          	30.745         	9.751
MS.43          	30.682         	9.761
MS.44          	30.622         	9.765
MS.45          	30.56          	9.779
MS.46          	30.5           	9.781
MS.47          	30.44          	9.801
MS.48          	30.377         	9.799
MS.49          	30.317         	9.779
MS.50          	30.257         	9.793
MS.51          	30.198         	9.795
MS.52          	30.137         	9.787
MS.53          	30.075         	9.803
MS.54          	30.015         	9.801
MS.55          	29.955         	9.813
MS.56          	29.895         	9.821
MS.57          	29.837         	9.823
MS.58          	29.778         	9.823
MS.59          	29.717         	9.815
MS.60          	29.657         	9.815
MS.61          	29.597         	9.825
MS.62          	29.54          	9.839
MS.63          	29.48          	9.825
MS.64          	29.422         	9.837
MS.65          	29.362         	9.833
MS.66          	29.305         	9.831
MS.67          	29.245         	9.837
MS.68          	29.188         	9.849
MS.69          	29.13          	9.859
MS.70          	29.07          	9.847
MS.71          	29.012         	9.837
MS.72          	28.955         	9.851
MS.73          	28.897         	9.851
MS.74          	28.84          	9.857
MS.75          	28.782         	9.849
MS.76          	28.725         	9.853
MS.77          	28.667         	9.865
MS.78          	28.61          	9.853
MS.79          	28.552         	9.867
MS.80          	28.495         	9.869
MS.81          	28.438         	9.881
MS.82          	28.382         	9.883
MS.83          	28.325         	9.9
MS.84          	28.267         	9.89
MS.85          	28.212         	9.89
MS.86          	28.155         	9.877
MS.87          	28.1           	9.879
MS.88          	28.042         	9.867
MS.89          	27.987         	9.863
MS.90          	27.93          	9.871
MS.91          	27.875         	9.869
MS.92          	27.82          	9.879
MS.93          	27.765         	9.879
MS.94          	27.707         	9.888
MS.95          	27.653         	9.896
MS.96          	27.597         	9.908
MS.97          	27.542         	9.914
MS.98          	27.487         	9.912
MS.99          	27.432         	9.912
MS.100         	27.377         	9.91
MS.101         	27.323         	9.918
MS.102         	27.267         	9.92
MS.103         	27.215         	9.914
MS.104         	27.16          	9.918
MS.105         	27.105         	9.922
MS.106         	27.05          	9.924
MS.107         	26.997         	9.918
MS.108         	26.942         	9.932
MS.109         	26.89          	9.934
MS.110         	26.835         	9.934
MS.111         	26.782         	9.936
MS.112         	26.727         	9.938
MS.113         	26.675         	9.928
MS.114         	26.622         	9.928
MS.115         	26.567         	9.928
MS.116         	26.515         	9.936
MS.117         	26.462         	9.932
MS.118         	26.41          	9.936
MS.119         	26.358         	9.932
MS.120         	26.305         	9.952
MS.121         	26.252         	9.922
MS.122         	26.2           	9.94
MS.123         	26.147         	9.93
MS.124         	26.095         	9.936
MS.125         	26.042         	9.946
MS.126         	25.99          	9.942
MS.127         	25.938         	9.94
MS.128         	25.887         	9.952
MS.129         	25.835         	9.948
MS.130         	25.782         	9.95
MS.131         	25.733         	9.944
MS.132         	25.68          	9.95
MS.133         	25.63          	9.962
MS.134         	25.577         	9.96
MS.135         	25.528         	9.948
MS.136         	25.475         	9.958
MS.137         	25.425         	9.96
MS.138         	25.375         	9.954
MS.139         	25.323         	9.962
MS.140         	25.272         	9.952
MS.141         	25.222         	9.95
MS.142         	25.172         	9.954
MS.143         	25.122         	9.97
MS.144         	25.073         	9.97
MS.145         	25.022         	9.97
MS.146         	24.972         	9.972
MS.147         	24.922         	9.974
MS.148         	24.872         	9.974
MS.149         	24.823         	9.972
MS.150         	24.772         	9.972
MS.151         	24.722         	9.98
MS.152         	24.672         	9.976
MS.153         	24.625         	9.978
MS.154         	24.575         	9.964
MS.155         	24.525         	9.978
MS.156         	24.477         	9.968
MS.157         	24.427         	9.968
MS.158         	24.38          	9.968
MS.159         	24.33          	9.964
MS.160         	24.282         	9.966
MS.161         	24.233         	9.98
MS.162         	24.185         	9.97
MS.163         	24.137         	9.97
MS.164         	24.087         	9.974
MS.165         	24.04          	9.964
MS.166         	23.993         	9.966
MS.167         	23.945         	9.98
MS.168         	23.897         	9.97
MS.169         	23.85          	9.974
MS.170         	23.8           	9.988
MS.171         	23.752         	9.966
MS.172         	23.705         	9.976
MS.173         	23.657         	9.974
MS.174         	23.612         	9.988
MS.175         	23.565         	9.984
MS.176         	23.517         	9.98
MS.177         	23.47          	9.984
MS.178         	23.422         	9.986
MS.179         	23.377         	9.972
MS.180         	23.33          	9.982
MS.181         	23.282         	9.99
MS.182         	23.237         	9.984
MS.183         	23.19          	9.976
MS.184         	23.145         	9.992
MS.185         	23.097         	9.98
MS.186         	23.052         	9.982
MS.187         	23.005         	9.994
MS.188         	22.96          	9.97
MS.189         	22.913         	9.94
MS.190         	22.868         	9.968
MS.191         	22.823         	9.968
MS.192         	22.778         	9.974
MS.193         	22.73          	9.984
MS.194         	22.685         	9.982
MS.195         	22.64          	9.994
MS.196         	22.595         	9.994
MS.197         	22.55          	9.972
MS.198         	22.505         	9.984
MS.199         	22.46          	9.982
MS.200         	22.415         	9.994
MS.201         	22.37          	9.988
MS.202         	22.325         	9.988
MS.203         	22.28          	9.972
MS.204         	22.237         	9.978
MS.205         	22.192         	9.972
MS.206         	22.147         	9.976
MS.207         	22.102         	9.98
MS.208         	22.06          	9.984
MS.209         	22.015         	9.974
MS.210         	21.97          	9.972
MS.211         	21.927         	9.97
MS.212         	21.882         	9.968
MS.213         	21.84          	9.966
MS.214         	21.795         	9.966
MS.215         	21.752         	9.984
MS.216         	21.71          	9.956
MS.217         	21.665         	9.962
MS.218         	21.622         	9.978
MS.219         	21.58          	9.974
MS.220         	21.535         	9.97
MS.221         	21.493         	9.97
MS.222         	21.45          	9.98
MS.223         	21.407         	9.962
MS.224         	21.365         	9.964
MS.225         	21.323         	9.974
MS.226         	21.28          	9.982
MS.227         	21.237         	9.982
MS.228         	21.195         	9.966
MS.229         	21.153         	9.962
MS.230         	21.11          	9.972
MS.231         	21.067         	9.98
MS.232         	21.025         	9.97
MS.233         	20.983         	9.958
MS.234         	20.942         	9.964
MS.235         	20.9           	9.978
MS.236         	20.858         	9.972
MS.237         	20.815         	9.98
MS.238         	20.775         	9.976
MS.239         	20.733         	9.984
MS.240         	20.692         	9.974
MS.241         	20.65          	9.97
MS.242         	20.61          	9.976
MS.243         	20.567         	9.972
MS.244         	20.528         	9.974
MS.245         	20.485         	9.976
MS.246         	20.445         	9.97
MS.247         	20.405         	9.984
MS.248         	20.362         	9.986
MS.249         	20.323         	9.954
MS.250         	20.282         	9.978
MS.251         	20.243         	9.978
MS.252         	20.2           	9.982
MS.253         	20.16          	9.982
MS.254         	20.12          	9.986
MS.255         	20.08          	9.994
MS.256         	20.04          	9.988
MS.257         	20             	9.99
MS.258         	19.96          	9.988
MS.259         	19.92          	9.994
MS.260         	19.88          	9.988
MS.261         	19.84          	9.996
MS.262         	19.8           	9.994
MS.263         	19.762         	10
MS.264         	19.722         	10
MS.265         	19.682         	9.998
MS.266         	19.642         	9.99
MS.267         	19.605         	10.008
MS.268         	19.565         	10
MS.269         	19.525         	10.004
MS.270         	19.487         	9.998
MS.271         	19.448         	9.984
MS.272         	19.41          	9.984
MS.273         	19.37          	9.984
MS.274         	19.333         	10.006
MS.275         	19.292         	9.996
MS.276         	19.255         	10.004
MS.277         	19.215         	9.994
MS.278         	19.177         	10.006
MS.279         	19.14          	10
MS.280         	19.1           	9.988
MS.281         	19.062         	9.986
MS.282         	19.025         	9.984
MS.283         	18.987         	9.988
MS.284         	18.948         	9.998
MS.285         	18.91          	10
MS.286         	18.872         	10
MS.287         	18.835         	9.992
MS.288         	18.797         	10.006
MS.289         	18.76          	10.006
MS.290         	18.722         	10
MS.291         	18.685         	9.998
MS.292         	18.647         	10
MS.293         	18.61          	10.01
MS.294         	18.573         	9.99
MS.295         	18.538         	10
MS.296         	18.5           	10.004
MS.297         	18.462         	9.996
MS.298         	18.425         	10
MS.299         	18.387         	9.998
MS.300         	18.352         	9.986
MS.301         	18.315         	10.004
MS.302         	18.278         	10
MS.303         	18.243         	10.004
MS.304         	18.205         	10.004
MS.305         	18.17          	10.022
MS.306         	18.132         	10.012
MS.307         	18.097         	10.008
MS.308         	18.06          	10.006
MS.309         	18.025         	10.014
MS.310         	17.987         	10.002
MS.311         	17.952         	9.998
MS.312         	17.917         	10
MS.313         	17.88          	10.008
MS.314         	17.845         	10.006
MS.315         	17.81          	10.008
MS.316         	17.775         	10.002
MS.317         	17.737         	10.01
MS.318         	17.702         	10
MS.319         	17.667         	10.008
MS.320         	17.632         	10.002
MS.321         	17.597         	10.004
MS.322         	17.562         	10
MS.323         	17.528         	10.006
MS.324         	17.493         	9.994
MS.325         	17.458         	9.998
MS.326         	17.422         	10
MS.327         	17.387         	9.99
MS.328         	17.352         	10.004
MS.329         	17.317         	10.002
MS.330         	17.282         	9.998
MS.331         	17.247         	10.01
MS.332         	17.215         	10.008
MS.333         	17.18          	10.004
MS.334         	17.145         	10
MS.335         	17.11          	10
MS.336         	17.077         	10.002
MS.337         	17.042         	10.008
MS.338         	17.01          	9.998
MS.339         	16.975         	9.996
MS.340         	16.94          	10
MS.341         	16.907         	10.018
MS.342         	16.872         	9.992
MS.343         	16.84          	10.004
MS.344         	16.805         	10.008
MS.345         	16.772         	10.014
MS.346         	16.74          	9.994
MS.347         	16.705         	9.986
MS.348         	16.672         	10
MS.349         	16.637         	10.006
MS.350         	16.605         	10.004
MS.351         	16.573         	10.008
MS.352         	16.54          	10.002
MS.353         	16.505         	10.006
MS.354         	16.472         	10.008
MS.355         	16.44          	9.998
MS.356         	16.407         	9.998
MS.357         	16.375         	9.99
MS.358         	16.342         	10.01
MS.359         	16.31          	9.996
MS.360         	16.278         	9.976
MS.361         	16.245         	9.992
MS.362         	16.212         	9.988
MS.363         	16.18          	9.996
MS.364         	16.147         	9.998
MS.365         	16.115         	10.014
MS.366         	16.083         	9.998
MS.367         	16.05          	9.994
MS.368         	16.017         	9.992
MS.369         	15.987         	10.012
MS.370         	15.955         	10.01
MS.371         	15.922         	10
MS.372         	15.89          	10.006
MS.373         	15.86          	9.994
MS.374         	15.827         	9.998
MS.375         	15.795         	9.996
MS.376         	15.765         	10
MS.377         	15.733         	10.01
MS.378         	15.7           	10.002
MS.379         	15.67          	10.002
MS.380         	15.637         	9.998
MS.381         	15.608         	10.014
MS.382         	15.575         	10.008
MS.383         	15.545         	10.016
MS.384         	15.515         	10.006
MS.385         	15.483         	10.008
MS.386         	15.452         	10.018
MS.387         	15.42          	10.014
MS.388         	15.39          	10.024
MS.389         	15.36          	10.014
MS.390         	15.33          	10.02
MS.391         	15.297         	10.01
MS.392         	15.267         	10.002
MS.393         	15.237         	10.02
MS.394         	15.207         	10.022
MS.395         	15.177         	10.026
MS.396         	15.145         	10.029
MS.397         	15.115         	10.018
MS.398         	15.085         	10.02
MS.399         	15.055         	10.022
MS.400         	15.025         	10.016
MS.401         	14.995         	10.02
MS.402         	14.965         	10.008
MS.403         	14.935         	10.002
MS.404         	14.905         	10.004
MS.405         	14.875         	10.008
MS.406         	14.845         	10.014
MS.407         	14.818         	10.01
MS.408         	14.787         	10.008
MS.409         	14.757         	10.014
MS.410         	14.727         	10.018
MS.411         	14.697         	10.014
MS.412         	14.67          	10.002
MS.413         	14.64          	10.016
MS.414         	14.61          	10.016
MS.415         	14.58          	10.016
MS.416         	14.552         	10.016
MS.417         	14.523         	10.01
MS.418         	14.495         	10.014
MS.419         	14.465         	10.01
MS.420         	14.435         	10.018
MS.421         	14.407         	10.033
MS.422         	14.377         	10.01
MS.423         	14.35          	10.018
MS.424         	14.32          	10.018
MS.425         	14.292         	10.02
MS.426         	14.265         	10.022
MS.427         	14.235         	10.02
MS.428         	14.207         	10.024
MS.429         	14.177         	10.018
MS.430         	14.15          	10.029
MS.431         	14.122         	10.029
MS.432         	14.095         	10.018
MS.433         	14.065         	10.022
MS.434         	14.037         	10.047
MS.435         	14.01          	10.029
MS.436         	13.983         	10.031
MS.437         	13.952         	10.014
MS.438         	13.925         	10.024
MS.439         	13.898         	10.01
MS.440         	13.87          	10.004
MS.441         	13.842         	9.998
MS.442         	13.815         	10.008
MS.443         	13.787         	10.004
MS.444         	13.76          	10.031
MS.445         	13.733         	9.986
MS.446         	13.705         	10.024
MS.447         	13.677         	10.012
MS.448         	13.65          	10.029
MS.449         	13.622         	10.026
MS.450         	13.595         	10.016
MS.451         	13.568         	9.881
MS.452         	13.54          	9.954
MS.453         	13.515         	9.978
MS.454         	13.487         	10.012
MS.455         	13.46          	9.785
MS.456         	13.432         	10.002
MS.457         	13.407         	9.843
MS.458         	13.38          	9.885
MS.459         	13.352         	9.984
MS.460         	13.325         	10.004
MS.461         	13.3           	9.972
MS.462         	13.273         	9.972
MS.463         	13.247         	9.839
MS.464         	13.22          	9.873
MS.465         	13.193         	9.861
MS.466         	13.167         	9.714
MS.467         	13.14          	9.855
MS.468         	13.115         	9.843
MS.469         	13.087         	9.658
MS.470         	13.062         	9.654
MS.471         	13.035         	9.672
MS.472         	13.01          	9.845
MS.473         	12.985         	9.827
MS.474         	12.957         	9.662
MS.475         	12.932         	9.809
MS.476         	12.907         	9.672
MS.477         	12.88          	9.491
MS.478         	12.855         	9.66
MS.479         	12.83          	9.672
MS.480         	12.802         	9.664
MS.481         	12.778         	9.799
MS.482         	12.752         	9.666
MS.483         	12.727         	9.479
MS.484         	12.702         	9.495
MS.485         	12.677         	9.487
MS.486         	12.65          	9.487
MS.487         	12.625         	9.66
MS.488         	12.6           	9.491
MS.489         	12.575         	9.495
MS.490         	12.55          	9.493
MS.491         	12.525         	9.485
MS.492         	12.5           	9.493
MS.493         	12.475         	9.483
MS.494         	12.45          	9.497
MS.495         	12.425         	9.475
MS.496         	12.4           	9.475
MS.497         	12.375         	9.485
MS.498         	12.35          	9.485
MS.499         	12.327         	9.497
MS.500         	12.302         	9.489
MS.501         	12.278         	9.479
MS.502         	12.252         	9.487
MS.503         	12.227         	9.491
MS.504         	12.202         	9.491
MS.505         	12.18          	9.491
MS.506         	12.155         	9.497
MS.507         	12.13          	9.485
MS.508         	12.108         	9.493
MS.509         	12.082         	9.501
MS.510         	12.057         	9.489
MS.511         	12.035         	9.495
MS.512         	12.01          	9.501
MS.513         	11.985         	9.485
MS.514         	11.962         	9.487
MS.515         	11.938         	9.483
MS.516         	11.915         	9.491
MS.517         	11.89          	9.487
MS.518         	11.867         	9.481
MS.519         	11.842         	9.493
MS.520         	11.82          	9.368
MS.521         	11.795         	9.454
MS.522         	11.773         	9.382
MS.523         	11.747         	9.469
MS.524         	11.725         	9.374
MS.525         	11.702         	9.207
MS.526         	11.677         	9.217
MS.527         	11.655         	9.215
MS.528         	11.632         	9.203
MS.529         	11.608         	9.195
MS.530         	11.585         	9.14
MS.531         	11.562         	9.185
MS.532         	11.54          	9.183
MS.533         	11.515         	9.179
MS.534         	11.492         	8.997
MS.535         	11.47          	9.326
MS.536         	11.447         	9.052
MS.537         	11.425         	9.036
MS.538         	11.403         	8.88
MS.539         	11.377         	9.044
MS.540         	11.355         	8.975
MS.541         	11.332         	8.981
MS.542         	11.31          	8.802
MS.543         	11.287         	8.917
MS.544         	11.265         	8.478
MS.545         	11.242         	8.586
MS.546         	11.22          	8.542
MS.547         	11.197         	8.715
MS.548         	11.175         	8.6
MS.549         	11.153         	8.733
MS.550         	11.13          	7.807
MS.551         	11.108         	7.916
MS.552         	11.087         	8.316
MS.553         	11.065         	8.455
MS.554         	11.042         	8.276
MS.555         	11.02          	8.371
MS.556         	10.997         	8.095
MS.557         	10.975         	7.849
MS.558         	10.955         	8.647
MS.559         	10.932         	8.192
MS.560         	10.91          	8.077
MS.561         	10.89          	7.648
MS.562         	10.867         	7.793
MS.563         	10.845         	7.597
MS.564         	10.823         	7.477
MS.565         	10.802         	7.313
MS.566         	10.78          	7.303
MS.567         	10.76          	7.473
MS.568         	10.738         	7.491
MS.569         	10.715         	7.543
MS.570         	10.695         	7.42
MS.571         	10.672         	7.243
MS.572         	10.653         	7.193
MS.573         	10.63          	7.132
MS.574         	10.61          	6.892
MS.575         	10.587         	7.112
MS.576         	10.568         	6.772
MS.577         	10.545         	7.132
MS.578         	10.525         	7.088
MS.579         	10.502         	6.888
MS.580         	10.483         	6.751
MS.581         	10.462         	6.764
MS.582         	10.44          	6.745
MS.583         	10.42          	6.695
MS.584         	10.4           	7.13
MS.585         	10.377         	6.643
MS.586         	10.358         	6.741
MS.587         	10.337         	6.417
MS.588         	10.318         	7.052
MS.589         	10.295         	6.476
MS.590         	10.275         	6.474
MS.591         	10.255         	6.316
MS.592         	10.235         	6.554
MS.593         	10.212         	6.26
MS.594         	10.193         	6.258
MS.595         	10.172         	6.063
MS.596         	10.153         	6.127
MS.597         	10.132         	6.055
MS.598         	10.113         	5.92
MS.599         	10.092         	5.799
MS.600         	10.073         	5.714
MS.601         	10.052         	6.101
MS.602         	10.032         	5.769
MS.603         	10.012         	5.495
MS.604         	9.992          	5.781
MS.605         	9.972          	6.016
MS.606         	9.952          	5.497
MS.607         	9.932          	5.722
MS.608         	9.912          	5.62
MS.609         	9.892          	5.027
MS.610         	9.872          	5.233
MS.611         	9.852          	5.509
MS.612         	9.832          	4.695
MS.613         	9.812          	4.729
MS.614         	9.792          	4.772
MS.615         	9.775          	4.669
MS.616         	9.755          	4.417
MS.617         	9.735          	4.443
MS.618         	9.715          	4.598
MS.619         	9.695          	4.759
MS.620         	9.677          	4.463
MS.621         	9.657          	4.232
MS.622         	9.637          	4.103
MS.623         	9.62           	4.31
MS.624         	9.6            	4.133
MS.625         	9.58           	4.002
MS.626         	9.562          	4.222
MS.627         	9.542          	4.129
MS.628         	9.523          	3.992
MS.629         	9.505          	3.791
MS.630         	9.485          	3.734
MS.631         	9.465          	3.136
MS.632         	9.448          	3.551
MS.633         	9.427          	3.589
MS.634         	9.41           	3.327
MS.635         	9.39           	3.339
MS.636         	9.372          	3.507
MS.637         	9.352          	3.144
MS.638         	9.335          	3.18
MS.639         	9.315          	3.257
MS.640         	9.297          	3.261
MS.641         	9.28           	2.929
MS.642         	9.26           	3.039
MS.643         	9.242          	2.961
MS.644         	9.222          	2.914
MS.645         	9.205          	2.868
MS.646         	9.188          	2.745
MS.647         	9.167          	2.806
MS.648         	9.15           	2.717
MS.649         	9.132          	2.639
MS.650         	9.113          	2.923
MS.651         	9.095          	2.836
MS.652         	9.077          	2.594
MS.653         	9.06           	2.51
MS.654         	9.04           	2.355
MS.655         	9.023          	2.338
MS.656         	9.005          	2.496
MS.657         	8.988          	2.457
MS.658         	8.967          	2.453
MS.659         	8.95           	2.087
MS.660         	8.932          	2.312
MS.661         	8.915          	2.238
MS.662         	8.898          	2.157
MS.663         	8.88           	2.135
MS.664         	8.863          	2.155
MS.665         	8.845          	2.151
MS.666         	8.827          	2.218
MS.667         	8.807          	2.046
MS.668         	8.79           	2.042
MS.669         	8.773          	1.926
MS.670         	8.755          	1.964
MS.671         	8.738          	1.74
MS.672         	8.72           	1.863
MS.673         	8.702          	1.779
MS.674         	8.685          	1.744
MS.675         	8.67           	1.779
MS.676         	8.653          	1.402
MS.677         	8.635          	1.269
MS.678         	8.617          	1.49
MS.679         	8.6            	1.678
MS.680         	8.582          	1.335
MS.681         	8.565          	1.39
MS.682         	8.547          	1.333
MS.683         	8.53           	1.247
MS.684         	8.515          	1.406
MS.685         	8.497          	1.211
MS.686         	8.48           	1.257
MS.687         	8.462          	1.19
MS.688         	8.448          	1.402
MS.689         	8.43           	1.005
MS.690         	8.412          	1.057
MS.691         	8.395          	1.108
MS.692         	8.38           	1.192
MS.693         	8.363          	1.146
MS.694         	8.345          	0.953
MS.695         	8.33           	0.979
MS.696         	8.312          	1.078
MS.697         	8.295          	1.138
MS.698         	8.28           	0.834
MS.699         	8.262          	0.904
MS.700         	8.245          	0.856
MS.701         	8.23           	0.91
MS.702         	8.212          	0.749
MS.703         	8.198          	0.828
MS.704         	8.18           	0.941
MS.705         	8.165          	0.812
MS.706         	8.148          	0.85
MS.707         	8.132          	0.826
MS.708         	8.115          	0.767
MS.709         	8.1            	0.769
MS.710         	8.082          	0.721
MS.711         	8.068          	0.777
MS.712         	8.05           	0.671
MS.713         	8.035          	0.671
MS.714         	8.017          	0.792
MS.715         	8.002          	0.562
MS.716         	7.987          	0.52
MS.717         	7.97           	0.667
MS.718         	7.955          	0.522
MS.719         	7.938          	0.463
MS.720         	7.922          	0.403
MS.721         	7.907          	0.457
MS.722         	7.89           	0.508
MS.723         	7.875          	0.455
MS.724         	7.86           	0.532
MS.725         	7.845          	0.447
MS.726         	7.827          	0.461
MS.727         	7.812          	0.375
MS.728         	7.797          	0.431
MS.729         	7.782          	0.457
MS.730         	7.765          	0.352
MS.731         	7.75           	0.369
MS.732         	7.735          	0.419
MS.733         	7.72           	0.425
MS.734         	7.705          	0.397
MS.735         	7.688          	0.475
MS.736         	7.672          	0.332
MS.737         	7.657          	0.359
MS.738         	7.642          	0.33
MS.739         	7.628          	0.338
MS.740         	7.612          	0.334
MS.741         	7.597          	0.334
MS.742         	7.582          	0.419
MS.743         	7.567          	0.328
MS.744         	7.552          	0.274
MS.745         	7.537          	0.348
MS.746         	7.52           	0.274
MS.747         	7.505          	0.268
MS.748         	7.49           	0.276
MS.749         	7.475          	0.27
MS.750         	7.462          	0.334
MS.751         	7.447          	0.236
MS.752         	7.432          	0.288
MS.753         	7.418          	0.28
MS.754         	7.402          	0.201
MS.755         	7.387          	0.201
MS.756         	7.372          	0.268
MS.757         	7.357          	0.276
MS.758         	7.342          	0.302
MS.759         	7.327          	0.268
MS.760         	7.312          	0.189
MS.761         	7.3            	0.248
MS.762         	7.285          	0.201
MS.763         	7.27           	0.268
MS.764         	7.255          	0.121
MS.765         	7.24           	0.246
MS.766         	7.227          	0.193
MS.767         	7.212          	0.183
MS.768         	7.197          	0.129
MS.769         	7.182          	0.119
MS.770         	7.168          	0.179
MS.771         	7.155          	0.175
MS.772         	7.14           	0.181
MS.773         	7.125          	0.127
MS.774         	7.112          	0.197
MS.775         	7.097          	0.111
MS.776         	7.082          	0.125
MS.777         	7.07           	0.109
MS.778         	7.055          	0.091
MS.779         	7.04           	0.085
MS.780         	7.027          	0.105
MS.781         	7.012          	0.107
MS.782         	6.997          	0.103
MS.783         	6.985          	0.105
MS.784         	6.97           	0.107
MS.785         	6.957          	0.089
MS.786         	6.942          	0.105
MS.787         	6.93           	0.139
MS.788         	6.915          	0.077
MS.789         	6.902          	0.095
MS.790         	6.887          	0.079
MS.791         	6.875          	0.107
MS.792         	6.86           	0.085
MS.793         	6.847          	0.083
MS.794         	6.832          	0.085
MS.795         	6.82           	0.077
MS.796         	6.805          	0.042
MS.797         	6.793          	0.103
MS.798         	6.777          	0.087
MS.799         	6.765          	0.083
MS.800         	6.753          	0.081
MS.801         	6.737          	0.081
MS.802         	6.725          	0.056
MS.803         	6.71           	0.012
MS.804         	6.697          	0.085
MS.805         	6.685          	0.085
MS.806         	6.67           	0.077
MS.807         	6.657          	0.079
MS.808         	6.645          	0.066
MS.809         	6.63           	0.073
MS.810         	6.617          	0.06
MS.811         	6.605          	0.079
MS.812         	6.59           	0.064
MS.813         	6.577          	0.073
MS.814         	6.565          	0.075
MS.815         	6.552          	0.085
MS.816         	6.537          	0.075
MS.817         	6.525          	0.064
MS.818         	6.512          	0.079
MS.819         	6.5            	0.064
MS.820         	6.487          	0.077
MS.821         	6.472          	0.087
MS.822         	6.46           	0.056
MS.823         	6.447          	0.079
MS.824         	6.435          	0.079
MS.825         	6.422          	0.083
MS.826         	6.41           	0.062
MS.827         	6.398          	0.081
MS.828         	6.382          	0.068
MS.829         	6.37           	0.077
MS.830         	6.358          	0.079
MS.831         	6.345          	0.073
MS.832         	6.332          	0.07
MS.833         	6.32           	0.068
MS.834         	6.307          	0.07
MS.835         	6.295          	0.087
MS.836         	6.282          	0.064
MS.837         	6.27           	0.075
MS.838         	6.257          	0.075
MS.839         	6.245          	0.073
MS.840         	6.233          	0.038
MS.841         	6.22           	0.079
MS.842         	6.207          	0.083
MS.843         	6.195          	0.046
MS.844         	6.182          	0.048
MS.845         	6.17           	0.083
MS.846         	6.157          	0.137
MS.847         	6.145          	0.079
MS.848         	6.132          	0.042
MS.849         	6.12           	0.075
MS.850         	6.11           	0.07
MS.851         	6.097          	0.048
MS.852         	6.085          	0.052
MS.853         	6.072          	0.046
MS.854         	6.06           	0.048
MS.855         	6.047          	0.044
MS.856         	6.035          	0.044
MS.857         	6.025          	0.044
MS.858         	6.012          	0.075
MS.859         	6              	0.042
MS.860         	5.987          	0.042
MS.861         	5.975          	0.048
MS.862         	5.965          	0.048
MS.863         	5.952          	0.048
MS.864         	5.94           	0.05
MS.865         	5.927          	0.05
MS.866         	5.918          	0.04
MS.867         	5.905          	0.046
MS.868         	5.892          	0.046
MS.869         	5.88           	0.044
MS.870         	5.87           	0.046
MS.871         	5.858          	0.05
MS.872         	5.845          	0.052
MS.873         	5.835          	0.048
MS.874         	5.822          	0.046
MS.875         	5.81           	0.054
MS.876         	5.8            	0.056
MS.877         	5.787          	0.048
MS.878         	5.775          	0.046
MS.879         	5.765          	0.054
MS.880         	5.753          	0.058
MS.881         	5.742          	0.048
MS.882         	5.73           	0.06
MS.883         	5.717          	0.056
MS.884         	5.707          	0.05
MS.885         	5.695          	0.058
MS.886         	5.685          	0.062
MS.887         	5.672          	0.073
MS.888         	5.662          	0.06
MS.889         	5.65           	0.066
MS.890         	5.64           	0.066
MS.891         	5.628          	0.052
MS.892         	5.617          	0.062
MS.893         	5.605          	0.062
MS.894         	5.595          	0.05
MS.895         	5.582          	0.06
MS.896         	5.572          	0.06
MS.897         	5.56           	0.052
MS.898         	5.55           	0.046
MS.899         	5.537          	0.066
MS.900         	5.527          	0.07
MS.901         	5.517          	0.064
MS.902         	5.505          	0.081
MS.903         	5.495          	0.058
MS.904         	5.483          	0.077
MS.905         	5.472          	0.075
MS.906         	5.463          	0.081
MS.907         	5.45           	0.062
MS.908         	5.44           	0.081
MS.909         	5.43           	0.083
MS.910         	5.418          	0.083
MS.911         	5.407          	0.083
MS.912         	5.398          	0.081
MS.913         	5.385          	0.081
MS.914         	5.375          	0.079
MS.915         	5.365          	0.081
MS.916         	5.352          	0.075
MS.917         	5.342          	0.085
MS.918         	5.332          	0.087
MS.919         	5.322          	0.081
MS.920         	5.31           	0.081
MS.921         	5.3            	0.081
MS.922         	5.29           	0.077
MS.923         	5.28           	0.083
MS.924         	5.267          	0.081
MS.925         	5.257          	0.081
MS.926         	5.247          	0.083
MS.927         	5.237          	0.085
MS.928         	5.227          	0.075
MS.929         	5.215          	0.081
MS.930         	5.205          	0.079
MS.931         	5.195          	0.044
MS.932         	5.185          	0.079
MS.933         	5.175          	0.079
MS.934         	5.165          	0.079
MS.935         	5.155          	0.083
MS.936         	5.142          	0.085
MS.937         	5.132          	0.081
MS.938         	5.122          	0.083
MS.939         	5.112          	0.099
MS.940         	5.102          	0.087
MS.941         	5.092          	0.085
DERIVED EXCITABILITY VARIABLES
Program = QTracP 3/4/2020
Threshold method = 6 (optimised for CAP, using data for present condition only)
SR method = 1 (using actual data values)
6.                 	0.000               	Peak response\(mV)
9.                 	32.2                	Temperature ( C)
17.                	68                  	Age (years)
18.                	2                   	Sex (M=1, F=2)

EXTRA VARIABLES

MScPeak(mV) = 9.63
MScS5(mA) = 7.89
MScS50(mA) = 9.84
MScS95(mA) = 11.52
MScNSteps = 0
MScSteps(%) = 0.0
MScStepMax(%) = 0.0
MScD50 = 43
MScSlope = 5.94
MSFPeakAmp(mV) = 9.97
MSFNUnits = 117
MSFMeanUnitAmp(uV) = 85.2
MSFHuntTime(m) = 2.39
MSFError(%) = 3.85
MSFNLarge = 34.22
MSFMedianAmp(%) = 0.676
MSFMedianAmp(mV) = 0.0673
MSFHalfAmpAmp(%) = 1.03
MSFHalfAmpAmp(mV) = 0.102
MSFLargestAmp(%) = 4.09
MSFLargestAmp(mV) = 0.407
MSFMeanRS(%) = 1.99
MSFOpts = 10106121
MScDuration(min) = 8.9
MSFTraces = 473
MSFSizeLimit(uV) = 24.9
MSFLimitType = 1
MSFSmallestAmp(uV) = 24.9

EXTRA WAVEFORMS


!MScan Model
!117
	1	6.23	0.25	2
	2	6.96	0.27	2
	3	7.16	0.61	2
	4	7.26	0.49	2
	5	7.42	0.6	2
	6	7.58	0.64	2
	7	7.7	0.49	2
	8	7.8	0.55	2
	9	7.87	0.47	2
	10	7.91	0.36	2
	11	7.94	0.28	2
	12	7.97	0.35	2
	13	8	0.42	2
	14	8.04	0.34	2
	15	8.07	0.49	2
	16	8.14	0.94	2
	17	8.19	0.51	2
	18	8.23	0.59	2
	19	8.29	0.64	2
	20	8.35	0.75	2
	21	8.4	0.74	2
	22	8.47	1.03	2
	23	8.51	0.68	2
	24	8.55	0.89	2
	25	8.58	0.59	2
	26	8.6	0.45	2
	27	8.62	0.47	2
	28	8.64	0.57	2
	29	8.66	0.56	2
	30	8.69	0.53	2
	31	8.71	0.45	2
	32	8.73	0.55	2
	33	8.75	0.55	2
	34	8.77	0.54	2
	35	8.78	0.59	2
	36	8.8	0.48	2
	37	8.82	0.4	2
	38	8.85	0.56	2
	39	8.88	0.66	2
	40	8.91	0.54	2
	41	8.93	0.47	2
	42	8.96	0.54	2
	43	8.99	0.63	2
	44	9.01	0.59	2
	45	9.04	0.57	2
	46	9.06	0.48	2
	47	9.09	0.57	2
	48	9.11	0.55	2
	49	9.13	0.52	2
	50	9.16	0.5	2
	51	9.18	0.56	2
	52	9.2	0.47	2
	53	9.22	0.44	2
	54	9.24	0.52	2
	55	9.25	0.5	2
	56	9.27	0.46	2
	57	9.29	0.56	2
	58	9.32	0.66	2
	59	9.34	0.73	2
	60	9.37	0.82	2
	61	9.39	0.69	2
	62	9.41	0.71	2
	63	9.44	0.8	2
	64	9.46	0.78	2
	65	9.48	0.74	2
	66	9.5	0.65	2
	67	9.52	0.72	2
	68	9.54	0.8	2
	69	9.57	1.19	2
	70	9.6	0.8	2
	71	9.64	1.05	2
	72	9.67	1.02	2
	73	9.69	1.35	2
	74	9.72	1.15	2
	75	9.75	1.07	2
	76	9.78	1.09	2
	77	9.81	1.27	2
	78	9.84	1.32	2
	79	9.87	1.42	2
	80	9.91	0.91	2
	81	9.95	2.13	2
	82	10.02	2.91	2
	83	10.07	1.17	2
	84	10.11	1.42	2
	85	10.15	1.2	2
	86	10.19	0.87	2
	87	10.23	1.01	2
	88	10.28	1.5	2
	89	10.33	1.14	2
	90	10.45	2.19	2
	91	10.5	1.17	2
	92	10.56	1.11	2
	93	10.61	0.72	2
	94	10.67	1.02	2
	95	10.71	1.09	2
	96	10.76	1.53	2
	97	10.81	1.58	2
	98	10.86	1.33	2
	99	10.95	1.87	2
	100	11.11	4.09	2
	101	11.19	1.7	2
	102	11.25	1.19	2
	103	11.32	1.29	2
	104	11.36	1.07	2
	105	11.4	0.64	2
	106	11.48	1.22	1.6
	107	11.57	1.06	2
	108	11.65	0.83	2
	109	11.69	0.35	2
	110	11.75	0.45	2
	111	11.82	1.31	1.6
	112	12.51	0.25	2
	113	12.66	0.56	2
	114	12.85	0.89	2
	115	13.09	1.48	2
	116	13.2	0.99	2
	117	13.24	1.13	2

