File:              	C:\Qtrac\Data\Daniel M Sørensen\MScan multicentre study\Data from centres\Odense\Processed data\TKC01007A.QZD
Name:              	DK.ODE.NC.5.1
Protocol:          	MSCAN-R2
Date:              	7/10/20
Start time:        	08:43:01
Age:               	62
Sex:               	F
Temperature:       	32.6
S/R sites:         	APB
NC/disease:        	NC
Operator:          	TK
Comments:
M-SCAN DATA (6.4-0.9m)
Scanpts: 74, 79, 551, 559
Stim. (mA)     	Amp. (mV)
MS.1           	22.5           	4.175
MS.2           	22.5           	4.177
MS.3           	22.5           	4.165
MS.4           	22.5           	4.145
MS.5           	22.5           	4.151
MS.6           	22.5           	4.136
MS.7           	22.5           	4.129
MS.8           	22.5           	4.138
MS.9           	22.5           	4.133
MS.10          	22.5           	4.151
MS.11          	22.5           	4.155
MS.12          	22.5           	4.158
MS.13          	22.5           	4.16
MS.14          	22.5           	4.164
MS.15          	22.5           	4.158
MS.16          	22.5           	4.163
MS.17          	22.5           	4.159
MS.18          	22.5           	4.161
MS.19          	22.5           	4.151
MS.20          	22.5           	4.189
MS.21          	22.5           	4.175
MS.22          	22.5           	4.186
MS.23          	22.5           	4.227
MS.24          	22.41          	4.215
MS.25          	22.365         	4.225
MS.26          	22.32          	4.215
MS.27          	22.275         	4.223
MS.28          	22.233         	4.236
MS.29          	22.188         	4.218
MS.30          	22.142         	4.229
MS.31          	22.097         	4.239
MS.32          	22.055         	4.24
MS.33          	22.01          	4.235
MS.34          	21.967         	4.218
MS.35          	21.922         	4.214
MS.36          	21.877         	4.206
MS.37          	21.835         	4.21
MS.38          	21.792         	4.195
MS.39          	21.747         	4.197
MS.40          	21.705         	4.219
MS.41          	21.66          	4.218
MS.42          	21.618         	4.213
MS.43          	21.575         	4.229
MS.44          	21.532         	4.224
MS.45          	21.487         	4.211
MS.46          	21.445         	4.214
MS.47          	21.403         	4.217
MS.48          	21.36          	4.239
MS.49          	21.317         	4.238
MS.50          	21.275         	4.241
MS.51          	21.233         	4.222
MS.52          	21.19          	4.227
MS.53          	21.147         	4.232
MS.54          	21.105         	4.22
MS.55          	21.062         	4.236
MS.56          	21.02          	4.218
MS.57          	20.98          	4.222
MS.58          	20.938         	4.238
MS.59          	20.895         	4.24
MS.60          	20.852         	4.23
MS.61          	20.812         	4.254
MS.62          	20.77          	4.243
MS.63          	20.727         	4.229
MS.64          	20.688         	4.217
MS.65          	20.645         	4.226
MS.66          	20.605         	4.267
MS.67          	20.562         	4.232
MS.68          	20.522         	4.272
MS.69          	20.483         	4.232
MS.70          	20.44          	4.269
MS.71          	20.4           	4.268
MS.72          	20.36          	4.271
MS.73          	20.317         	4.272
MS.74          	20.278         	4.268
MS.75          	20.237         	4.282
MS.76          	20.198         	4.273
MS.77          	20.155         	4.284
MS.78          	20.115         	4.287
MS.79          	20.075         	4.295
MS.80          	20.035         	4.276
MS.81          	19.995         	4.276
MS.82          	19.955         	4.262
MS.83          	19.915         	4.265
MS.84          	19.875         	4.241
MS.85          	19.837         	4.248
MS.86          	19.797         	4.25
MS.87          	19.757         	4.243
MS.88          	19.717         	4.262
MS.89          	19.677         	4.243
MS.90          	19.64          	4.241
MS.91          	19.6           	4.238
MS.92          	19.56          	4.225
MS.93          	19.522         	4.243
MS.94          	19.483         	4.234
MS.95          	19.442         	4.241
MS.96          	19.405         	4.233
MS.97          	19.365         	4.237
MS.98          	19.327         	4.244
MS.99          	19.288         	4.239
MS.100         	19.25          	4.243
MS.101         	19.212         	4.233
MS.102         	19.172         	4.233
MS.103         	19.135         	4.243
MS.104         	19.097         	4.252
MS.105         	19.057         	4.252
MS.106         	19.02          	4.232
MS.107         	18.983         	4.247
MS.108         	18.945         	4.247
MS.109         	18.907         	4.239
MS.110         	18.87          	4.236
MS.111         	18.83          	4.252
MS.112         	18.792         	4.255
MS.113         	18.755         	4.252
MS.114         	18.717         	4.233
MS.115         	18.68          	4.253
MS.116         	18.645         	4.235
MS.117         	18.608         	4.247
MS.118         	18.57          	4.242
MS.119         	18.532         	4.242
MS.120         	18.495         	4.241
MS.121         	18.458         	4.252
MS.122         	18.422         	4.24
MS.123         	18.385         	4.229
MS.124         	18.347         	4.224
MS.125         	18.31          	4.244
MS.126         	18.275         	4.24
MS.127         	18.237         	4.241
MS.128         	18.202         	4.232
MS.129         	18.165         	4.221
MS.130         	18.13          	4.21
MS.131         	18.092         	4.235
MS.132         	18.057         	4.212
MS.133         	18.02          	4.207
MS.134         	17.985         	4.229
MS.135         	17.948         	4.203
MS.136         	17.913         	4.209
MS.137         	17.878         	4.208
MS.138         	17.84          	4.197
MS.139         	17.805         	4.196
MS.140         	17.77          	4.184
MS.141         	17.735         	4.193
MS.142         	17.7           	4.188
MS.143         	17.663         	4.183
MS.144         	17.628         	4.194
MS.145         	17.592         	4.208
MS.146         	17.557         	4.185
MS.147         	17.522         	4.195
MS.148         	17.487         	4.19
MS.149         	17.452         	4.185
MS.150         	17.417         	4.173
MS.151         	17.382         	4.182
MS.152         	17.347         	4.178
MS.153         	17.315         	4.167
MS.154         	17.28          	4.208
MS.155         	17.245         	4.198
MS.156         	17.21          	4.193
MS.157         	17.175         	4.185
MS.158         	17.142         	4.188
MS.159         	17.108         	4.18
MS.160         	17.073         	4.202
MS.161         	17.04          	4.191
MS.162         	17.005         	4.181
MS.163         	16.97          	4.18
MS.164         	16.938         	4.215
MS.165         	16.903         	4.186
MS.166         	16.87          	4.188
MS.167         	16.835         	4.196
MS.168         	16.802         	4.183
MS.169         	16.767         	4.189
MS.170         	16.735         	4.201
MS.171         	16.702         	4.182
MS.172         	16.667         	4.193
MS.173         	16.635         	4.173
MS.174         	16.602         	4.174
MS.175         	16.567         	4.172
MS.176         	16.535         	4.177
MS.177         	16.503         	4.185
MS.178         	16.47          	4.178
MS.179         	16.438         	4.194
MS.180         	16.405         	4.177
MS.181         	16.37          	4.183
MS.182         	16.337         	4.167
MS.183         	16.305         	4.182
MS.184         	16.272         	4.172
MS.185         	16.24          	4.188
MS.186         	16.208         	4.177
MS.187         	16.175         	4.186
MS.188         	16.142         	4.191
MS.189         	16.11          	4.205
MS.190         	16.08          	4.189
MS.191         	16.047         	4.18
MS.192         	16.015         	4.19
MS.193         	15.983         	4.169
MS.194         	15.95          	4.193
MS.195         	15.92          	4.183
MS.196         	15.887         	4.181
MS.197         	15.855         	4.169
MS.198         	15.822         	4.188
MS.199         	15.792         	4.18
MS.200         	15.76          	4.202
MS.201         	15.73          	4.18
MS.202         	15.697         	4.184
MS.203         	15.667         	4.193
MS.204         	15.635         	4.178
MS.205         	15.602         	4.181
MS.206         	15.572         	4.187
MS.207         	15.542         	4.172
MS.208         	15.51          	4.149
MS.209         	15.48          	4.152
MS.210         	15.447         	4.167
MS.211         	15.417         	4.16
MS.212         	15.387         	4.168
MS.213         	15.355         	4.158
MS.214         	15.325         	4.154
MS.215         	15.295         	4.126
MS.216         	15.265         	4.095
MS.217         	15.233         	4.149
MS.218         	15.202         	4.15
MS.219         	15.172         	3.967
MS.220         	15.142         	4.116
MS.221         	15.112         	4.142
MS.222         	15.082         	4.109
MS.223         	15.052         	4.127
MS.224         	15.023         	3.974
MS.225         	14.992         	3.948
MS.226         	14.962         	3.962
MS.227         	14.932         	3.967
MS.228         	14.902         	3.962
MS.229         	14.872         	4.006
MS.230         	14.842         	3.956
MS.231         	14.812         	3.961
MS.232         	14.782         	3.967
MS.233         	14.755         	3.945
MS.234         	14.725         	3.948
MS.235         	14.695         	3.942
MS.236         	14.665         	3.976
MS.237         	14.637         	3.981
MS.238         	14.608         	3.932
MS.239         	14.577         	3.985
MS.240         	14.55          	3.955
MS.241         	14.52          	3.979
MS.242         	14.49          	3.939
MS.243         	14.462         	3.944
MS.244         	14.432         	3.984
MS.245         	14.405         	3.983
MS.246         	14.375         	4.009
MS.247         	14.347         	3.992
MS.248         	14.318         	3.979
MS.249         	14.29          	3.993
MS.250         	14.26          	3.929
MS.251         	14.233         	3.96
MS.252         	14.205         	3.977
MS.253         	14.175         	3.919
MS.254         	14.148         	3.926
MS.255         	14.12          	3.92
MS.256         	14.09          	3.964
MS.257         	14.062         	3.995
MS.258         	14.035         	3.938
MS.259         	14.007         	3.958
MS.260         	13.977         	3.967
MS.261         	13.95          	3.962
MS.262         	13.922         	3.922
MS.263         	13.895         	3.909
MS.264         	13.867         	3.922
MS.265         	13.84          	3.909
MS.266         	13.812         	3.909
MS.267         	13.785         	3.948
MS.268         	13.757         	3.878
MS.269         	13.73          	3.555
MS.270         	13.702         	3.914
MS.271         	13.675         	3.882
MS.272         	13.648         	3.55
MS.273         	13.62          	3.918
MS.274         	13.592         	3.868
MS.275         	13.565         	3.556
MS.276         	13.537         	3.513
MS.277         	13.51          	3.94
MS.278         	13.485         	3.906
MS.279         	13.457         	3.862
MS.280         	13.43          	3.92
MS.281         	13.403         	3.489
MS.282         	13.377         	3.795
MS.283         	13.35          	3.478
MS.284         	13.322         	3.487
MS.285         	13.297         	3.51
MS.286         	13.27          	3.484
MS.287         	13.242         	3.451
MS.288         	13.217         	3.448
MS.289         	13.19          	3.467
MS.290         	13.165         	3.443
MS.291         	13.137         	3.431
MS.292         	13.112         	3.454
MS.293         	13.085         	3.444
MS.294         	13.06          	3.458
MS.295         	13.032         	3.453
MS.296         	13.007         	3.431
MS.297         	12.983         	3.458
MS.298         	12.955         	3.245
MS.299         	12.93          	3.247
MS.300         	12.903         	3.383
MS.301         	12.877         	3.19
MS.302         	12.852         	3.43
MS.303         	12.827         	3.195
MS.304         	12.8           	3.193
MS.305         	12.775         	3.194
MS.306         	12.75          	3.249
MS.307         	12.725         	3.094
MS.308         	12.7           	3.206
MS.309         	12.672         	3.137
MS.310         	12.648         	3.198
MS.311         	12.622         	3.128
MS.312         	12.597         	3.153
MS.313         	12.572         	3.171
MS.314         	12.547         	3.188
MS.315         	12.523         	3.107
MS.316         	12.497         	3.12
MS.317         	12.472         	3.087
MS.318         	12.447         	3.069
MS.319         	12.422         	3.061
MS.320         	12.398         	3.097
MS.321         	12.372         	3.095
MS.322         	12.347         	3.117
MS.323         	12.322         	2.878
MS.324         	12.3           	2.988
MS.325         	12.275         	3.087
MS.326         	12.25          	2.976
MS.327         	12.225         	2.979
MS.328         	12.2           	2.816
MS.329         	12.177         	2.957
MS.330         	12.153         	2.83
MS.331         	12.127         	2.794
MS.332         	12.102         	2.962
MS.333         	12.08          	2.809
MS.334         	12.055         	2.8
MS.335         	12.032         	2.827
MS.336         	12.007         	2.934
MS.337         	11.983         	2.729
MS.338         	11.96          	2.672
MS.339         	11.935         	2.827
MS.340         	11.912         	2.805
MS.341         	11.887         	2.811
MS.342         	11.865         	2.632
MS.343         	11.84          	2.582
MS.344         	11.818         	2.584
MS.345         	11.792         	2.44
MS.346         	11.77          	2.306
MS.347         	11.745         	2.639
MS.348         	11.722         	2.408
MS.349         	11.7           	2.335
MS.350         	11.675         	2.467
MS.351         	11.653         	2.421
MS.352         	11.63          	2.327
MS.353         	11.605         	2.363
MS.354         	11.582         	2.243
MS.355         	11.56          	2.327
MS.356         	11.537         	2.271
MS.357         	11.512         	2.249
MS.358         	11.49          	2.195
MS.359         	11.467         	2.3
MS.360         	11.445         	1.97
MS.361         	11.422         	2.202
MS.362         	11.4           	2.039
MS.363         	11.375         	2.086
MS.364         	11.352         	2.136
MS.365         	11.33          	1.824
MS.366         	11.307         	2.042
MS.367         	11.285         	1.897
MS.368         	11.262         	2.01
MS.369         	11.24          	2.015
MS.370         	11.217         	1.978
MS.371         	11.195         	1.854
MS.372         	11.172         	2.041
MS.373         	11.15          	1.805
MS.374         	11.127         	1.619
MS.375         	11.108         	1.78
MS.376         	11.085         	1.829
MS.377         	11.062         	1.583
MS.378         	11.04          	1.528
MS.379         	11.017         	1.644
MS.380         	10.995         	1.561
MS.381         	10.975         	1.523
MS.382         	10.952         	1.543
MS.383         	10.93          	1.467
MS.384         	10.907         	1.409
MS.385         	10.887         	1.584
MS.386         	10.865         	1.672
MS.387         	10.842         	1.365
MS.388         	10.82          	1.418
MS.389         	10.8           	1.287
MS.390         	10.778         	1.386
MS.391         	10.757         	1.337
MS.392         	10.735         	1.154
MS.393         	10.712         	0.95
MS.394         	10.693         	1.19
MS.395         	10.67          	1.157
MS.396         	10.65          	1.212
MS.397         	10.627         	1.132
MS.398         	10.608         	0.944
MS.399         	10.585         	0.97
MS.400         	10.565         	0.955
MS.401         	10.542         	0.732
MS.402         	10.523         	1.129
MS.403         	10.502         	0.957
MS.404         	10.48          	0.961
MS.405         	10.46          	0.958
MS.406         	10.438         	1.135
MS.407         	10.417         	0.955
MS.408         	10.398         	0.677
MS.409         	10.375         	0.79
MS.410         	10.355         	0.723
MS.411         	10.335         	0.65
MS.412         	10.315         	0.82
MS.413         	10.292         	0.701
MS.414         	10.273         	0.961
MS.415         	10.252         	0.662
MS.416         	10.233         	0.699
MS.417         	10.212         	0.71
MS.418         	10.19          	0.657
MS.419         	10.17          	0.649
MS.420         	10.15          	0.543
MS.421         	10.13          	0.694
MS.422         	10.11          	0.623
MS.423         	10.09          	0.596
MS.424         	10.07          	0.592
MS.425         	10.05          	0.425
MS.426         	10.03          	0.521
MS.427         	10.01          	0.517
MS.428         	9.99           	0.519
MS.429         	9.97           	0.53
MS.430         	9.95           	0.503
MS.431         	9.93           	0.394
MS.432         	9.91           	0.237
MS.433         	9.89           	0.459
MS.434         	9.87           	0.397
MS.435         	9.85           	0.418
MS.436         	9.83           	0.291
MS.437         	9.81           	0.345
MS.438         	9.792          	0.42
MS.439         	9.773          	0.376
MS.440         	9.752          	0.515
MS.441         	9.733          	0.375
MS.442         	9.712          	0.315
MS.443         	9.695          	0.28
MS.444         	9.675          	0.378
MS.445         	9.655          	0.193
MS.446         	9.635          	0.315
MS.447         	9.617          	0.193
MS.448         	9.597          	0.198
MS.449         	9.577          	0.196
MS.450         	9.56           	0.201
MS.451         	9.54           	0.216
MS.452         	9.52           	0.196
MS.453         	9.502          	0.203
MS.454         	9.483          	0.172
MS.455         	9.465          	0.197
MS.456         	9.445          	0.214
MS.457         	9.427          	0.176
MS.458         	9.407          	0.207
MS.459         	9.387          	0.203
MS.460         	9.37           	0.172
MS.461         	9.352          	0.193
MS.462         	9.332          	0.176
MS.463         	9.315          	0.175
MS.464         	9.295          	0.182
MS.465         	9.278          	0.175
MS.466         	9.257          	0.177
MS.467         	9.24           	0.181
MS.468         	9.222          	0.176
MS.469         	9.202          	0.19
MS.470         	9.185          	0.183
MS.471         	9.165          	0.178
MS.472         	9.148          	0.171
MS.473         	9.13           	0.179
MS.474         	9.113          	0.179
MS.475         	9.092          	0.081
MS.476         	9.075          	0.181
MS.477         	9.057          	0.166
MS.478         	9.037          	0.176
MS.479         	9.02           	0.172
MS.480         	9.002          	0.179
MS.481         	8.985          	0.059
MS.482         	8.967          	0.187
MS.483         	8.948          	0.181
MS.484         	8.93           	0.058
MS.485         	8.912          	0.067
MS.486         	8.895          	0.07
MS.487         	8.877          	0.065
MS.488         	8.86           	0.076
MS.489         	8.842          	0.079
MS.490         	8.825          	0.083
MS.491         	8.807          	0.068
MS.492         	8.79           	0.068
MS.493         	8.773          	0.077
MS.494         	8.755          	0.065
MS.495         	8.738          	0.067
MS.496         	8.72           	0.059
MS.497         	8.702          	0.153
MS.498         	8.685          	0.061
MS.499         	8.667          	0.06
MS.500         	8.65           	0.19
MS.501         	8.632          	0.062
MS.502         	8.615          	0.059
MS.503         	8.597          	0.062
MS.504         	8.58           	0.032
MS.505         	8.562          	0.04
MS.506         	8.547          	0.037
MS.507         	8.53           	0.063
MS.508         	8.512          	0.062
MS.509         	8.495          	0.037
MS.510         	8.477          	0.065
MS.511         	8.462          	0.033
MS.512         	8.445          	0.034
MS.513         	8.427          	0.034
MS.514         	8.41           	0.059
MS.515         	8.395          	0.037
MS.516         	8.377          	0.029
MS.517         	8.36           	0.032
MS.518         	8.342          	0.037
MS.519         	8.327          	0.034
MS.520         	8.31           	0.034
MS.521         	8.295          	0.035
MS.522         	8.278          	0.032
MS.523         	8.26           	0.037
MS.524         	8.245          	0.038
MS.525         	8.227          	0.034
MS.526         	8.212          	0.07
MS.527         	8.195          	0.032
MS.528         	8.177          	0.033
MS.529         	8.162          	0.035
MS.530         	8.145          	0.034
MS.531         	8.13           	0.037
MS.532         	8.113          	0.038
MS.533         	8.097          	0.037
MS.534         	8.08           	0.031
MS.535         	8.065          	0.043
MS.536         	8.047          	0.042
MS.537         	8.033          	0.028
MS.538         	8.017          	0.038
MS.539         	8              	0.039
MS.540         	7.985          	0.04
MS.541         	7.967          	0.034
MS.542         	7.952          	0.037
MS.543         	7.938          	0.028
MS.544         	7.92           	0.036
MS.545         	7.905          	0.038
MS.546         	7.89           	0.034
MS.547         	7.872          	0.027
MS.548         	7.857          	0.034
MS.549         	7.842          	0.028
MS.550         	7.827          	0.029
MS.551         	7.81           	0.034
MS.552         	7.795          	0.032
MS.553         	7.78           	0.03
MS.554         	7.765          	0.034
MS.555         	7.747          	0.031
MS.556         	7.732          	0.031
MS.557         	7.717          	0.032
MS.558         	7.702          	0.031
MS.559         	7.688          	0.032
MS.560         	7.672          	0.033
MS.561         	7.655          	0.031
MS.562         	7.64           	0.037
MS.563         	7.625          	0.033
MS.564         	7.61           	0.036
MS.565         	7.595          	0.034
MS.566         	7.58           	0.034
MS.567         	7.565          	0.026
MS.568         	7.55           	0.036
MS.569         	7.535          	0.034
MS.570         	7.52           	0.034
MS.571         	7.505          	0.032
MS.572         	7.49           	0.029
MS.573         	7.475          	0.032
MS.574         	7.46           	0.033
MS.575         	7.445          	0.033
MS.576         	7.43           	0.034
MS.577         	7.415          	0.029
MS.578         	7.4            	0.032
MS.579         	7.385          	0.034
MS.580         	7.37           	0.031
MS.581         	7.355          	0.037
MS.582         	7.342          	0.034
MS.583         	7.327          	0.036
MS.584         	7.312          	0.031
MS.585         	7.297          	0.052
MS.586         	7.282          	0.035
MS.587         	7.267          	0.035
MS.588         	7.253          	0.034
MS.589         	7.24           	0.032
MS.590         	7.225          	0.034
MS.591         	7.21           	0.037
MS.592         	7.195          	0.035
MS.593         	7.182          	0.035
MS.594         	7.168          	0.032
DERIVED EXCITABILITY VARIABLES
Program = QTracP 9/10/2021
Threshold method = 6 (optimised for CAP, using data for present condition only)
SR method = 1 (using actual data values)
6.                 	0.000               	Peak response\(mV)
9.                 	32.6                	Temperature ( C)
17.                	62                  	Age (years)
18.                	2                   	Sex (M=1, F=2)

EXTRA VARIABLES

MScPeak(mV) = 4.12
MScS5(mA) = 9.52
MScS50(mA) = 11.41
MScS95(mA) = 13.67
MScNSteps = 6
MScSteps(%) = 20.4
MScStepMax(%) = 5.8
MScD50 = 28
MScSlope = 6.19
MScDuration(min) = 5.5
MSFTraces = 486
MSFPeakAmp(mV) = 4.25
MSFNUnits = 65
MSFMeanUnitAmp(uV) = 65.4
MSFHuntTime(m) = 2.34
MSFError(%) = 2.9
MSFNLarge = 18.75
MSFMedianAmp(%) = 1.3
MSFMedianAmp(mV) = 0.0553
MSFHalfAmpAmp(%) = 1.76
MSFHalfAmpAmp(mV) = 0.0749
MSFLargestAmp(%) = 8.76
MSFLargestAmp(mV) = 0.372
MSFMeanRS(%) = 2
MSFSizeLimit(uV) = 13.1
MSFLimitType = 3
MSFSmallestAmp(uV) = 13.4
MSFOpts = 10106121

EXTRA WAVEFORMS


!MScan Model
!65
	1	8.5	0.88	2
	2	9.05	1.52	2
	3	9.41	1.26	2
	4	9.56	0.62	2
	5	9.61	0.87	2
	6	9.68	1.17	2
	7	9.89	2.54	2
	8	9.96	1.18	2
	9	10.02	1.27	2
	10	10.07	1.1	2
	11	10.13	1.33	2
	12	10.28	2.53	2
	13	10.48	4.51	2
	14	10.58	2.04	2
	15	10.64	1.76	2
	16	10.67	1.01	2
	17	10.71	1.33	2
	18	10.74	1.57	2
	19	10.79	1.3	2
	20	10.83	1.43	2
	21	10.89	2.24	2
	22	10.95	1.93	2
	23	10.98	0.65	2
	24	11.01	0.41	2
	25	11.03	0.8	2
	26	11.06	1.08	2
	27	11.12	2.23	1.9
	28	11.18	1.79	2
	29	11.3	3.31	2
	30	11.35	1.56	2
	31	11.41	1.63	2
	32	11.44	1.06	2
	33	11.48	1.09	2
	34	11.54	1.49	2
	35	11.64	2.34	2
	36	11.68	1.07	2
	37	11.72	1.25	2
	38	11.76	1.33	2
	39	11.8	1.14	2
	40	11.84	0.86	2
	41	11.9	2.23	2
	42	12	2.24	2
	43	12.07	1.24	2
	44	12.1	1.8	2
	45	12.16	0.84	2
	46	12.22	1.11	2
	47	12.31	1.49	2
	48	12.39	1.04	2
	49	12.45	0.87	2
	50	12.74	1.57	2
	51	12.86	2.36	2
	52	13	2.09	2
	53	13.18	1.89	2
	54	13.26	1.56	2
	55	13.68	8.76	2
	56	14.16	0.95	2
	57	14.92	1.03	2
	58	15.04	1.69	2
	59	15.27	1.83	2
	60	15.43	0.51	2
	61	15.54	0.31	2
	62	17.74	0.64	2
	63	17.99	0.35	2
	64	19.6	0.7	2
	65	19.84	0.39	2

