File:              	C:\Qtrac\Data\Daniel M Sørensen\MScan multicentre study\Data from centres\Antalya\Processed data\TR.NC.ANT.1.1-NCC00207A.QZD
Name:              	TR.NC.ANT.1.1
Protocol:          	MSCAN-R2
Date:              	7/2/20
Start time:        	19:45:04
Age:               	68
Sex:               	F
Temperature:       	33.3
S/R sites:         	APB
NC/disease:        	NC
Operator:          	AB
Comments:          	RIGHT MEDIAN
M-SCAN DATA (8.1-1.1m)
Scanpts: 48, 52, 717, 739
Stim. (mA)     	Amp. (mV)
MS.1           	21             	5.769
MS.2           	21             	5.777
MS.3           	21             	5.789
MS.4           	21             	5.73
MS.5           	21             	5.72
MS.6           	21             	5.748
MS.7           	21             	5.746
MS.8           	21             	5.734
MS.9           	21             	5.736
MS.10          	21             	5.75
MS.11          	21             	5.754
MS.12          	21             	5.756
MS.13          	21             	5.744
MS.14          	21             	5.767
MS.15          	21             	5.769
MS.16          	21             	5.734
MS.17          	21             	5.791
MS.18          	21             	5.795
MS.19          	21             	5.795
MS.20          	21             	5.823
MS.21          	21             	5.835
MS.22          	21             	5.859
MS.23          	21             	5.867
MS.24          	20.915         	5.855
MS.25          	20.875         	5.855
MS.26          	20.833         	5.877
MS.27          	20.79          	5.908
MS.28          	20.75          	5.875
MS.29          	20.708         	5.904
MS.30          	20.667         	5.899
MS.31          	20.625         	5.914
MS.32          	20.585         	5.901
MS.33          	20.542         	5.906
MS.34          	20.502         	5.91
MS.35          	20.46          	5.92
MS.36          	20.42          	5.926
MS.37          	20.38          	5.924
MS.38          	20.337         	5.926
MS.39          	20.297         	5.93
MS.40          	20.257         	5.938
MS.41          	20.217         	5.93
MS.42          	20.177         	5.924
MS.43          	20.135         	5.926
MS.44          	20.095         	5.928
MS.45          	20.055         	5.906
MS.46          	20.015         	5.92
MS.47          	19.975         	5.934
MS.48          	19.935         	5.928
MS.49          	19.895         	5.934
MS.50          	19.855         	5.93
MS.51          	19.817         	5.936
MS.52          	19.778         	5.924
MS.53          	19.737         	5.914
MS.54          	19.698         	5.93
MS.55          	19.657         	5.936
MS.56          	19.62          	5.936
MS.57          	19.58          	5.946
MS.58          	19.54          	5.922
MS.59          	19.502         	5.938
MS.60          	19.462         	5.94
MS.61          	19.425         	5.93
MS.62          	19.385         	5.938
MS.63          	19.347         	5.948
MS.64          	19.307         	5.954
MS.65          	19.27          	5.956
MS.66          	19.23          	5.944
MS.67          	19.192         	5.944
MS.68          	19.155         	5.94
MS.69          	19.115         	5.938
MS.70          	19.077         	5.94
MS.71          	19.04          	5.946
MS.72          	19.002         	5.944
MS.73          	18.962         	5.952
MS.74          	18.925         	5.96
MS.75          	18.887         	5.966
MS.76          	18.85          	5.946
MS.77          	18.812         	5.96
MS.78          	18.775         	5.964
MS.79          	18.737         	5.887
MS.80          	18.7           	5.964
MS.81          	18.663         	5.954
MS.82          	18.625         	5.958
MS.83          	18.587         	5.95
MS.84          	18.55          	5.958
MS.85          	18.515         	5.968
MS.86          	18.477         	5.952
MS.87          	18.44          	5.908
MS.88          	18.403         	5.906
MS.89          	18.368         	5.94
MS.90          	18.33          	5.901
MS.91          	18.292         	5.901
MS.92          	18.257         	5.897
MS.93          	18.22          	5.897
MS.94          	18.182         	5.897
MS.95          	18.147         	5.893
MS.96          	18.11          	5.877
MS.97          	18.075         	5.893
MS.98          	18.038         	5.859
MS.99          	18.003         	5.883
MS.100         	17.967         	5.879
MS.101         	17.93          	5.857
MS.102         	17.895         	5.873
MS.103         	17.86          	5.861
MS.104         	17.823         	5.853
MS.105         	17.788         	5.839
MS.106         	17.753         	5.839
MS.107         	17.717         	5.849
MS.108         	17.682         	5.835
MS.109         	17.645         	5.857
MS.110         	17.61          	5.839
MS.111         	17.575         	5.843
MS.112         	17.54          	5.855
MS.113         	17.505         	5.819
MS.114         	17.47          	5.831
MS.115         	17.435         	5.837
MS.116         	17.4           	5.853
MS.117         	17.365         	5.843
MS.118         	17.333         	5.829
MS.119         	17.297         	5.821
MS.120         	17.262         	5.859
MS.121         	17.227         	5.787
MS.122         	17.192         	5.803
MS.123         	17.16          	5.825
MS.124         	17.125         	5.797
MS.125         	17.09          	5.791
MS.126         	17.057         	5.738
MS.127         	17.022         	5.803
MS.128         	16.987         	5.769
MS.129         	16.955         	5.777
MS.130         	16.92          	5.787
MS.131         	16.887         	5.712
MS.132         	16.852         	5.744
MS.133         	16.82          	5.748
MS.134         	16.785         	5.748
MS.135         	16.753         	5.73
MS.136         	16.717         	5.736
MS.137         	16.685         	5.746
MS.138         	16.653         	5.76
MS.139         	16.618         	5.716
MS.140         	16.585         	5.74
MS.141         	16.552         	5.585
MS.142         	16.52          	5.66
MS.143         	16.485         	5.722
MS.144         	16.452         	5.583
MS.145         	16.42          	5.67
MS.146         	16.387         	5.541
MS.147         	16.355         	5.624
MS.148         	16.323         	5.054
MS.149         	16.29          	5.523
MS.150         	16.257         	5.527
MS.151         	16.225         	5.607
MS.152         	16.192         	5.098
MS.153         	16.16          	5.114
MS.154         	16.128         	5.477
MS.155         	16.095         	5.043
MS.156         	16.062         	5.029
MS.157         	16.03          	5.031
MS.158         	16             	5.398
MS.159         	15.967         	4.969
MS.160         	15.935         	4.989
MS.161         	15.902         	5.005
MS.162         	15.872         	4.963
MS.163         	15.84          	4.919
MS.164         	15.807         	4.963
MS.165         	15.777         	4.691
MS.166         	15.745         	4.945
MS.167         	15.712         	4.647
MS.168         	15.682         	4.755
MS.169         	15.65          	4.782
MS.170         	15.62          	4.858
MS.171         	15.587         	4.852
MS.172         	15.557         	4.56
MS.173         	15.525         	4.566
MS.174         	15.495         	4.834
MS.175         	15.465         	4.751
MS.176         	15.432         	4.56
MS.177         	15.402         	4.423
MS.178         	15.372         	4.522
MS.179         	15.34          	4.479
MS.180         	15.31          	4.488
MS.181         	15.28          	4.467
MS.182         	15.25          	4.447
MS.183         	15.217         	4.308
MS.184         	15.188         	4.351
MS.185         	15.157         	4.361
MS.186         	15.127         	4.268
MS.187         	15.097         	4.242
MS.188         	15.068         	4.288
MS.189         	15.037         	4.167
MS.190         	15.007         	4.248
MS.191         	14.977         	4.242
MS.192         	14.947         	4.236
MS.193         	14.917         	4.262
MS.194         	14.887         	4.21
MS.195         	14.858         	4.238
MS.196         	14.827         	4.22
MS.197         	14.797         	4.167
MS.198         	14.77          	4.151
MS.199         	14.74          	4.137
MS.200         	14.71          	3.954
MS.201         	14.68          	3.984
MS.202         	14.65          	4.048
MS.203         	14.622         	4.018
MS.204         	14.592         	4.034
MS.205         	14.562         	3.958
MS.206         	14.535         	3.907
MS.207         	14.505         	3.859
MS.208         	14.477         	3.795
MS.209         	14.447         	3.932
MS.210         	14.417         	3.634
MS.211         	14.39          	3.789
MS.212         	14.36          	3.694
MS.213         	14.332         	3.565
MS.214         	14.302         	3.72
MS.215         	14.275         	3.595
MS.216         	14.247         	3.513
MS.217         	14.217         	3.579
MS.218         	14.19          	3.245
MS.219         	14.162         	3.152
MS.220         	14.132         	3.503
MS.221         	14.105         	3.225
MS.222         	14.077         	3.303
MS.223         	14.047         	3.311
MS.224         	14.02          	3.281
MS.225         	13.992         	3.305
MS.226         	13.965         	3.239
MS.227         	13.938         	3.09
MS.228         	13.91          	3.15
MS.229         	13.88          	3.066
MS.230         	13.852         	3.037
MS.231         	13.825         	3.082
MS.232         	13.797         	3.039
MS.233         	13.77          	2.999
MS.234         	13.742         	2.961
MS.235         	13.715         	2.955
MS.236         	13.688         	2.937
MS.237         	13.66          	2.993
MS.238         	13.632         	2.987
MS.239         	13.605         	2.947
MS.240         	13.58          	2.852
MS.241         	13.552         	2.896
MS.242         	13.525         	2.876
MS.243         	13.497         	2.919
MS.244         	13.47          	2.882
MS.245         	13.445         	2.886
MS.246         	13.417         	2.858
MS.247         	13.39          	2.848
MS.248         	13.362         	2.838
MS.249         	13.337         	2.794
MS.250         	13.31          	2.733
MS.251         	13.282         	2.614
MS.252         	13.257         	2.709
MS.253         	13.23          	2.526
MS.254         	13.205         	2.633
MS.255         	13.177         	2.715
MS.256         	13.153         	2.415
MS.257         	13.125         	2.51
MS.258         	13.1           	2.576
MS.259         	13.072         	2.481
MS.260         	13.047         	2.246
MS.261         	13.02          	2.365
MS.262         	12.995         	2.381
MS.263         	12.967         	2.344
MS.264         	12.943         	2.111
MS.265         	12.917         	2.125
MS.266         	12.89          	2.095
MS.267         	12.865         	2.344
MS.268         	12.84          	2.248
MS.269         	12.812         	2.222
MS.270         	12.787         	1.895
MS.271         	12.762         	2.365
MS.272         	12.738         	2.01
MS.273         	12.712         	1.998
MS.274         	12.685         	2.234
MS.275         	12.66          	2.157
MS.276         	12.635         	2.222
MS.277         	12.61          	1.952
MS.278         	12.585         	1.823
MS.279         	12.56          	1.839
MS.280         	12.535         	1.954
MS.281         	12.51          	1.515
MS.282         	12.485         	1.799
MS.283         	12.46          	1.819
MS.284         	12.435         	1.829
MS.285         	12.41          	1.799
MS.286         	12.385         	1.714
MS.287         	12.36          	1.406
MS.288         	12.335         	1.774
MS.289         	12.312         	1.345
MS.290         	12.287         	1.823
MS.291         	12.262         	1.754
MS.292         	12.238         	1.352
MS.293         	12.212         	1.358
MS.294         	12.19          	1.37
MS.295         	12.165         	1.206
MS.296         	12.14          	1.408
MS.297         	12.115         	1.307
MS.298         	12.092         	1.279
MS.299         	12.068         	1.261
MS.300         	12.042         	1.267
MS.301         	12.02          	1.17
MS.302         	11.995         	1.257
MS.303         	11.972         	1.186
MS.304         	11.947         	1.305
MS.305         	11.922         	1.148
MS.306         	11.9           	1.126
MS.307         	11.875         	1.271
MS.308         	11.852         	1.172
MS.309         	11.827         	1.219
MS.310         	11.805         	1.251
MS.311         	11.782         	1.184
MS.312         	11.757         	1.219
MS.313         	11.735         	1.184
MS.314         	11.71          	1.037
MS.315         	11.688         	1.182
MS.316         	11.665         	1.235
MS.317         	11.64          	1.053
MS.318         	11.617         	1.053
MS.319         	11.595         	1.16
MS.320         	11.57          	1.118
MS.321         	11.547         	1.025
MS.322         	11.525         	1.059
MS.323         	11.502         	0.997
MS.324         	11.48          	1.059
MS.325         	11.455         	0.973
MS.326         	11.432         	1.039
MS.327         	11.41          	1.007
MS.328         	11.387         	0.965
MS.329         	11.365         	1.053
MS.330         	11.342         	0.993
MS.331         	11.32          	1.025
MS.332         	11.297         	0.973
MS.333         	11.275         	1.011
MS.334         	11.252         	0.997
MS.335         	11.23          	1.045
MS.336         	11.207         	0.806
MS.337         	11.185         	0.761
MS.338         	11.162         	0.784
MS.339         	11.14          	0.79
MS.340         	11.117         	1.007
MS.341         	11.095         	0.781
MS.342         	11.073         	1.005
MS.343         	11.05          	0.749
MS.344         	11.03          	0.973
MS.345         	11.007         	0.989
MS.346         	10.985         	0.699
MS.347         	10.962         	0.747
MS.348         	10.94          	0.965
MS.349         	10.92          	0.663
MS.350         	10.898         	0.675
MS.351         	10.875         	0.729
MS.352         	10.855         	0.916
MS.353         	10.832         	0.632
MS.354         	10.81          	0.88
MS.355         	10.79          	0.638
MS.356         	10.767         	0.634
MS.357         	10.745         	0.675
MS.358         	10.725         	0.661
MS.359         	10.702         	0.632
MS.360         	10.682         	0.659
MS.361         	10.66          	0.641
MS.362         	10.64          	0.562
MS.363         	10.617         	0.574
MS.364         	10.597         	0.554
MS.365         	10.575         	0.59
MS.366         	10.555         	0.51
MS.367         	10.532         	0.55
MS.368         	10.512         	0.508
MS.369         	10.49          	0.487
MS.370         	10.47          	0.485
MS.371         	10.45          	0.506
MS.372         	10.427         	0.502
MS.373         	10.407         	0.487
MS.374         	10.387         	0.497
MS.375         	10.365         	0.485
MS.376         	10.345         	0.461
MS.377         	10.325         	0.516
MS.378         	10.305         	0.497
MS.379         	10.282         	0.433
MS.380         	10.262         	0.439
MS.381         	10.242         	0.502
MS.382         	10.222         	0.447
MS.383         	10.202         	0.481
MS.384         	10.18          	0.449
MS.385         	10.16          	0.467
MS.386         	10.14          	0.489
MS.387         	10.12          	0.502
MS.388         	10.1           	0.433
MS.389         	10.08          	0.439
MS.390         	10.06          	0.457
MS.391         	10.04          	0.473
MS.392         	10.02          	0.477
MS.393         	10             	0.445
MS.394         	9.98           	0.433
MS.395         	9.96           	0.431
MS.396         	9.94           	0.437
MS.397         	9.92           	0.427
MS.398         	9.9            	0.435
MS.399         	9.88           	0.421
MS.400         	9.86           	0.435
MS.401         	9.84           	0.433
MS.402         	9.82           	0.437
MS.403         	9.802          	0.435
MS.404         	9.782          	0.417
MS.405         	9.762          	0.421
MS.406         	9.742          	0.465
MS.407         	9.722          	0.405
MS.408         	9.705          	0.395
MS.409         	9.685          	0.421
MS.410         	9.665          	0.423
MS.411         	9.645          	0.395
MS.412         	9.627          	0.405
MS.413         	9.608          	0.403
MS.414         	9.587          	0.409
MS.415         	9.57           	0.419
MS.416         	9.55           	0.413
MS.417         	9.53           	0.395
MS.418         	9.512          	0.407
MS.419         	9.492          	0.395
MS.420         	9.472          	0.417
MS.421         	9.455          	0.399
MS.422         	9.435          	0.387
MS.423         	9.417          	0.403
MS.424         	9.398          	0.338
MS.425         	9.38           	0.401
MS.426         	9.36           	0.336
MS.427         	9.342          	0.393
MS.428         	9.323          	0.395
MS.429         	9.305          	0.324
MS.430         	9.285          	0.344
MS.431         	9.267          	0.296
MS.432         	9.25           	0.381
MS.433         	9.23           	0.326
MS.434         	9.212          	0.26
MS.435         	9.193          	0.252
MS.436         	9.175          	0.385
MS.437         	9.158          	0.26
MS.438         	9.137          	0.348
MS.439         	9.12           	0.314
MS.440         	9.102          	0.33
MS.441         	9.085          	0.314
MS.442         	9.065          	0.26
MS.443         	9.047          	0.252
MS.444         	9.03           	0.218
MS.445         	9.012          	0.276
MS.446         	8.992          	0.22
MS.447         	8.975          	0.222
MS.448         	8.957          	0.218
MS.449         	8.94           	0.222
MS.450         	8.922          	0.25
MS.451         	8.905          	0.22
MS.452         	8.887          	0.22
MS.453         	8.867          	0.218
MS.454         	8.85           	0.216
MS.455         	8.832          	0.248
MS.456         	8.815          	0.216
MS.457         	8.797          	0.101
MS.458         	8.78           	0.097
MS.459         	8.762          	0.103
MS.460         	8.745          	0.22
MS.461         	8.727          	0.214
MS.462         	8.71           	0.22
MS.463         	8.693          	0.101
MS.464         	8.675          	0.216
MS.465         	8.658          	0.216
MS.466         	8.64           	0.099
MS.467         	8.622          	0.101
MS.468         	8.608          	0.103
MS.469         	8.59           	0.222
MS.470         	8.573          	0.099
MS.471         	8.555          	0.103
MS.472         	8.537          	0.103
MS.473         	8.52           	0.097
MS.474         	8.505          	0.097
MS.475         	8.488          	0.099
MS.476         	8.47           	0.105
MS.477         	8.452          	0.099
MS.478         	8.435          	0.105
MS.479         	8.42           	0.099
MS.480         	8.403          	0.101
MS.481         	8.385          	0.103
MS.482         	8.37           	0.101
MS.483         	8.352          	0.103
MS.484         	8.335          	0.101
MS.485         	8.32           	0.099
MS.486         	8.302          	0.105
MS.487         	8.285          	0.095
MS.488         	8.27           	0.105
MS.489         	8.252          	0.105
MS.490         	8.235          	0.099
MS.491         	8.22           	0.103
MS.492         	8.202          	0.089
MS.493         	8.188          	0.097
MS.494         	8.17           	0.103
MS.495         	8.155          	0.103
MS.496         	8.137          	0.105
MS.497         	8.122          	0.097
MS.498         	8.105          	0.101
MS.499         	8.09           	0.097
MS.500         	8.073          	0.101
MS.501         	8.057          	0.093
MS.502         	8.04           	0.099
MS.503         	8.025          	0.101
MS.504         	8.007          	0.101
MS.505         	7.992          	0.097
MS.506         	7.977          	0.097
MS.507         	7.96           	0.099
MS.508         	7.945          	0.105
MS.509         	7.93           	0.099
MS.510         	7.912          	0.097
MS.511         	7.898          	0.099
MS.512         	7.882          	0.105
MS.513         	7.865          	0.099
MS.514         	7.85           	0.077
MS.515         	7.835          	0.099
MS.516         	7.817          	0.103
MS.517         	7.802          	0.099
MS.518         	7.787          	0.101
MS.519         	7.773          	0.103
MS.520         	7.757          	0.099
MS.521         	7.74           	0.081
MS.522         	7.725          	0.077
MS.523         	7.71           	0.101
MS.524         	7.695          	0.075
MS.525         	7.68           	0.081
MS.526         	7.665          	0.081
MS.527         	7.648          	0.081
MS.528         	7.632          	0.077
MS.529         	7.617          	0.079
MS.530         	7.602          	0.077
MS.531         	7.587          	0.079
MS.532         	7.572          	0.073
MS.533         	7.557          	0.079
MS.534         	7.543          	0.077
MS.535         	7.527          	0.079
MS.536         	7.512          	0.075
MS.537         	7.497          	0.077
MS.538         	7.482          	0.075
MS.539         	7.467          	0.079
MS.540         	7.452          	0.075
MS.541         	7.438          	0.079
MS.542         	7.422          	0.07
MS.543         	7.407          	0.077
MS.544         	7.392          	0.077
MS.545         	7.378          	0.079
MS.546         	7.362          	0.077
MS.547         	7.347          	0.077
MS.548         	7.335          	0.077
MS.549         	7.32           	0.073
MS.550         	7.305          	0.081
MS.551         	7.29           	0.07
MS.552         	7.275          	0.075
MS.553         	7.26           	0.077
MS.554         	7.247          	0.079
MS.555         	7.233          	0.077
MS.556         	7.217          	0.075
MS.557         	7.202          	0.075
MS.558         	7.19           	0.075
MS.559         	7.175          	0.07
MS.560         	7.16           	0.081
MS.561         	7.145          	0.075
MS.562         	7.132          	0.073
MS.563         	7.117          	0.073
MS.564         	7.102          	0.073
MS.565         	7.09           	0.068
MS.566         	7.075          	0.075
MS.567         	7.06           	0.073
MS.568         	7.047          	0.075
MS.569         	7.032          	0.073
MS.570         	7.017          	0.075
MS.571         	7.005          	0.068
MS.572         	6.99           	0.075
MS.573         	6.977          	0.07
MS.574         	6.962          	0.073
MS.575         	6.947          	0.07
MS.576         	6.935          	0.075
MS.577         	6.92           	0.073
MS.578         	6.907          	0.073
MS.579         	6.892          	0.068
MS.580         	6.88           	0.075
MS.581         	6.865          	0.07
MS.582         	6.852          	0.075
MS.583         	6.837          	0.07
MS.584         	6.825          	0.07
MS.585         	6.81           	0.07
MS.586         	6.797          	0.068
MS.587         	6.782          	0.07
MS.588         	6.77           	0.07
MS.589         	6.757          	0.073
MS.590         	6.742          	0.075
MS.591         	6.73           	0.073
MS.592         	6.715          	0.07
MS.593         	6.702          	0.073
MS.594         	6.69           	0.073
MS.595         	6.675          	0.075
MS.596         	6.662          	0.073
MS.597         	6.65           	0.07
MS.598         	6.635          	0.073
MS.599         	6.622          	0.07
MS.600         	6.61           	0.073
MS.601         	6.597          	0.07
MS.602         	6.582          	0.066
MS.603         	6.57           	0.073
MS.604         	6.557          	0.068
MS.605         	6.545          	0.077
MS.606         	6.53           	0.066
MS.607         	6.517          	0.073
MS.608         	6.505          	0.07
MS.609         	6.492          	0.073
MS.610         	6.477          	0.073
MS.611         	6.465          	0.07
MS.612         	6.452          	0.066
MS.613         	6.44           	0.075
MS.614         	6.427          	0.066
MS.615         	6.415          	0.07
MS.616         	6.402          	0.07
MS.617         	6.387          	0.07
MS.618         	6.375          	0.068
MS.619         	6.362          	0.073
MS.620         	6.35           	0.077
MS.621         	6.338          	0.07
MS.622         	6.325          	0.066
MS.623         	6.312          	0.07
MS.624         	6.3            	0.066
MS.625         	6.287          	0.073
MS.626         	6.275          	0.068
MS.627         	6.262          	0.07
MS.628         	6.25           	0.068
MS.629         	6.237          	0.073
MS.630         	6.225          	0.07
MS.631         	6.213          	0.07
MS.632         	6.2            	0.073
MS.633         	6.188          	0.07
MS.634         	6.175          	0.07
MS.635         	6.162          	0.073
MS.636         	6.15           	0.07
MS.637         	6.137          	0.07
MS.638         	6.125          	0.024
MS.639         	6.112          	0.02
MS.640         	6.102          	0.024
MS.641         	6.09           	0.066
MS.642         	6.077          	0.038
MS.643         	6.065          	0.02
MS.644         	6.052          	0.02
MS.645         	6.04           	0.07
MS.646         	6.027          	0.02
MS.647         	6.017          	0.022
MS.648         	6.005          	0.022
MS.649         	5.992          	0.02
MS.650         	5.98           	0.073
MS.651         	5.967          	0.022
MS.652         	5.957          	0.024
MS.653         	5.945          	0.022
MS.654         	5.932          	0.022
MS.655         	5.92           	0.022
MS.656         	5.91           	0.022
MS.657         	5.898          	0.022
MS.658         	5.885          	0.02
MS.659         	5.875          	0.022
MS.660         	5.862          	0.018
MS.661         	5.85           	0.022
MS.662         	5.84           	0.02
MS.663         	5.827          	0.024
MS.664         	5.815          	0.018
MS.665         	5.805          	0.026
MS.666         	5.793          	0.02
MS.667         	5.78           	0.024
MS.668         	5.77           	0.022
MS.669         	5.757          	0.024
MS.670         	5.745          	0.022
MS.671         	5.735          	0.022
MS.672         	5.722          	0.02
MS.673         	5.713          	0.022
MS.674         	5.7            	0.018
MS.675         	5.69           	0.022
MS.676         	5.677          	0.018
MS.677         	5.665          	0.02
MS.678         	5.655          	0.02
MS.679         	5.642          	0.02
MS.680         	5.632          	0.02
MS.681         	5.62           	0.018
MS.682         	5.61           	0.018
MS.683         	5.597          	0.02
MS.684         	5.588          	0.024
MS.685         	5.577          	0.022
MS.686         	5.565          	0.02
MS.687         	5.555          	0.018
MS.688         	5.543          	0.024
MS.689         	5.532          	0.022
MS.690         	5.52           	0.026
MS.691         	5.51           	0.022
MS.692         	5.497          	0.024
MS.693         	5.487          	0.022
MS.694         	5.477          	0.024
MS.695         	5.465          	0.016
MS.696         	5.455          	0.022
MS.697         	5.445          	0.02
MS.698         	5.432          	0.02
MS.699         	5.422          	0.02
MS.700         	5.412          	0.02
MS.701         	5.4            	0.018
MS.702         	5.39           	0.022
MS.703         	5.38           	0.02
MS.704         	5.367          	0.018
MS.705         	5.358          	0.02
MS.706         	5.347          	0.02
MS.707         	5.335          	0.022
MS.708         	5.325          	0.022
MS.709         	5.315          	0.022
MS.710         	5.305          	0.024
MS.711         	5.293          	0.022
MS.712         	5.282          	0.02
MS.713         	5.273          	0.02
MS.714         	5.262          	0.02
MS.715         	5.253          	0.022
MS.716         	5.24           	0.02
MS.717         	5.23           	0.022
MS.718         	5.22           	0.022
MS.719         	5.21           	0.022
MS.720         	5.2            	0.02
MS.721         	5.19           	0.022
MS.722         	5.177          	0.022
MS.723         	5.168          	0.022
MS.724         	5.157          	0.02
MS.725         	5.148          	0.018
MS.726         	5.137          	0.024
MS.727         	5.128          	0.006
MS.728         	5.117          	0.022
MS.729         	5.108          	0.018
MS.730         	5.097          	0.02
MS.731         	5.085          	0.02
MS.732         	5.075          	0.008
MS.733         	5.065          	0.018
MS.734         	5.055          	0.01
MS.735         	5.045          	0.02
MS.736         	5.035          	0.022
MS.737         	5.025          	0.018
MS.738         	5.015          	0.01
MS.739         	5.005          	0.022
DERIVED EXCITABILITY VARIABLES
Program = QTracP 3/4/2020
Threshold method = 6 (optimised for CAP, using data for present condition only)
SR method = 1 (using actual data values)
6.                 	0.000               	Peak response\(mV)
9.                 	33.3                	Temperature ( C)
17.                	68                  	Age (years)
18.                	2                   	Sex (M=1, F=2)

EXTRA VARIABLES

MScPeak(mV) = 5.75
MScS5(mA) = 9.16
MScS50(mA) = 13.53
MScS95(mA) = 16.22
MScNSteps = 3
MScSteps(%) = 11.7
MScStepMax(%) = 4.9
MScD50 = 40
MScSlope = 4.71
MSFPeakAmp(mV) = 5.91
MSFNUnits = 110
MSFMeanUnitAmp(uV) = 53.7
MSFHuntTime(m) = 2.96
MSFError(%) = 3.48
MSFNLarge = 23.53
MSFMedianAmp(%) = 0.637
MSFMedianAmp(mV) = 0.0376
MSFHalfAmpAmp(%) = 1.2
MSFHalfAmpAmp(mV) = 0.071
MSFLargestAmp(%) = 5.21
MSFLargestAmp(mV) = 0.308
MSFMeanRS(%) = 2
MSFOpts = 10106121
MScDuration(min) = 7
MSFTraces = 692
MSFSizeLimit(uV) = 14.8
MSFLimitType = 1
MSFSmallestAmp(uV) = 15.6

EXTRA WAVEFORMS


!MScan Model
!110
	1	6.11	0.38	2
	2	6.56	0.47	2
	3	7.72	0.41	2
	4	8.79	1.54	2
	5	8.88	0.43	2
	6	9.02	0.75	2
	7	9.21	1.18	2
	8	9.29	0.32	2
	9	9.39	0.63	2
	10	9.47	0.28	2
	11	9.66	0.3	2
	12	9.88	0.35	2
	13	10.19	0.57	2
	14	10.39	0.51	2
	15	10.51	0.49	2
	16	10.56	0.41	2
	17	10.61	0.62	2
	18	10.7	0.9	2
	19	10.97	3.54	2
	20	11.07	3.03	2
	21	11.54	0.8	2
	22	11.68	1.38	2
	23	11.99	1.21	2
	24	12.13	1.48	2
	25	12.2	1.94	2
	26	12.3	1.89	2
	27	12.43	2.62	2
	28	12.5	1.61	2
	29	12.56	2.11	2
	30	12.68	2.67	2
	31	12.91	3.24	2
	32	12.97	0.99	2
	33	13.01	0.69	2
	34	13.05	0.66	2
	35	13.09	0.95	2
	36	13.13	1.01	2
	37	13.17	1.2	2
	38	13.21	0.79	2
	39	13.23	0.51	2
	40	13.26	0.5	2
	41	13.29	0.44	2
	42	13.31	0.43	2
	43	13.33	0.28	2
	44	13.34	0.28	2
	45	13.35	0.28	2
	46	13.39	0.64	2
	47	13.44	0.82	2
	48	13.5	0.51	2
	49	13.58	0.49	2
	50	13.64	0.4	2
	51	13.67	0.26	2
	52	13.7	0.4	2
	53	13.73	0.34	2
	54	13.77	0.33	2
	55	13.8	0.28	2
	56	13.83	0.42	2
	57	13.86	0.47	2
	58	13.87	0.3	2
	59	13.89	0.3	2
	60	13.9	0.3	2
	61	14.03	1.64	2
	62	14.09	0.95	2
	63	14.16	1.76	2
	64	14.21	1.1	2
	65	14.24	0.57	2
	66	14.27	0.51	2
	67	14.3	0.98	2
	68	14.33	0.88	2
	69	14.36	0.88	2
	70	14.39	0.72	2
	71	14.42	0.79	2
	72	14.44	0.62	2
	73	14.47	0.6	2
	74	14.51	0.83	2
	75	14.55	0.82	2
	76	14.59	0.65	2
	77	14.62	0.35	2
	78	14.64	0.35	2
	79	14.67	0.44	2
	80	14.69	0.46	2
	81	14.72	0.43	2
	82	14.74	0.38	2
	83	14.77	0.38	2
	84	14.88	1.26	2
	85	14.97	0.54	1.6
	86	15.07	0.58	2
	87	15.12	0.4	2
	88	15.15	0.29	2
	89	15.17	0.48	2
	90	15.22	0.71	2
	91	15.27	0.77	2
	92	15.31	0.73	2
	93	15.36	0.87	2
	94	15.42	1.14	2
	95	15.51	1.38	2
	96	15.7	2.37	2
	97	15.76	0.68	2
	98	15.83	1.47	2
	99	16.01	3	2
	100	16.26	5.21	2
	101	16.4	1.7	2
	102	16.51	1.14	2
	103	16.62	1.31	2
	104	16.81	0.82	2
	105	17	0.46	2
	106	17.1	0.28	2
	107	17.31	0.58	2
	108	17.93	0.7	2
	109	18.07	0.27	2
	110	18.28	0.42	2

