File:              	C:\Qtrac\Data\ME2C30707B.QZD
Name:              	 HA08E
Protocol:          	MSCAN-MV
Date:              	7/7/23
Date of birth:     	8/7/04
Age:               	18
Sex:               	F
Temperature:       	32.6
S/R sites:         	Knee CF-TA
NC/disease:        	NC
Operator:          	BY
Comments:
M-SCAN DATA (Repeat 3/3, 36.4-28.1m)
Scanpts: 74, 86, 618, 664
Stim. (mA)     	Amp. (mV)
MS.1           	29             	5.582
MS.2           	29             	5.585
MS.3           	29             	5.558
MS.4           	29             	5.583
MS.5           	29             	5.611
MS.6           	29             	5.564
MS.7           	29             	5.551
MS.8           	29             	5.568
MS.9           	29             	5.61
MS.10          	29             	5.582
MS.11          	29             	5.607
MS.12          	29             	5.585
MS.13          	29             	5.58
MS.14          	29             	5.566
MS.15          	29             	5.623
MS.16          	29             	5.565
MS.17          	29             	5.554
MS.18          	29             	5.586
MS.19          	29             	5.574
MS.20          	29             	5.565
MS.21          	29             	5.564
MS.22          	29             	5.605
MS.23          	29             	5.605
MS.24          	28.942         	5.615
MS.25          	28.885         	5.569
MS.26          	28.827         	5.604
MS.27          	28.77          	5.588
MS.28          	28.712         	5.604
MS.29          	28.655         	5.588
MS.30          	28.597         	5.563
MS.31          	28.54          	5.536
MS.32          	28.483         	5.573
MS.33          	28.425         	5.518
MS.34          	28.37          	5.536
MS.35          	28.312         	5.605
MS.36          	28.255         	5.602
MS.37          	28.2           	5.583
MS.38          	28.142         	5.551
MS.39          	28.087         	5.56
MS.40          	28.03          	5.584
MS.41          	27.975         	5.583
MS.42          	27.917         	5.593
MS.43          	27.862         	5.59
MS.44          	27.807         	5.563
MS.45          	27.752         	5.619
MS.46          	27.695         	5.56
MS.47          	27.64          	5.639
MS.48          	27.585         	5.634
MS.49          	27.53          	5.601
MS.50          	27.475         	5.627
MS.51          	27.42          	5.593
MS.52          	27.365         	5.637
MS.53          	27.31          	5.524
MS.54          	27.257         	5.566
MS.55          	27.202         	5.566
MS.56          	27.147         	5.573
MS.57          	27.092         	5.596
MS.58          	27.04          	5.615
MS.59          	26.985         	5.586
MS.60          	26.932         	5.583
MS.61          	26.877         	5.586
MS.62          	26.825         	5.582
MS.63          	26.77          	5.583
MS.64          	26.717         	5.58
MS.65          	26.662         	5.598
MS.66          	26.61          	5.613
MS.67          	26.557         	5.578
MS.68          	26.505         	5.59
MS.69          	26.45          	5.567
MS.70          	26.397         	5.58
MS.71          	26.345         	5.604
MS.72          	26.292         	5.593
MS.73          	26.24          	5.615
MS.74          	26.188         	5.607
MS.75          	26.135         	5.641
MS.76          	26.082         	5.615
MS.77          	26.03          	5.559
MS.78          	25.98          	5.582
MS.79          	25.927         	5.608
MS.80          	25.875         	5.641
MS.81          	25.825         	5.604
MS.82          	25.772         	5.61
MS.83          	25.72          	5.595
MS.84          	25.67          	5.613
MS.85          	25.618         	5.593
MS.86          	25.567         	5.616
MS.87          	25.515         	5.643
MS.88          	25.465         	5.585
MS.89          	25.415         	5.585
MS.90          	25.362         	5.578
MS.91          	25.312         	5.604
MS.92          	25.262         	5.558
MS.93          	25.212         	5.598
MS.94          	25.16          	5.605
MS.95          	25.11          	5.576
MS.96          	25.06          	5.558
MS.97          	25.01          	5.611
MS.98          	24.96          	5.552
MS.99          	24.91          	5.629
MS.100         	24.86          	5.637
MS.101         	24.81          	5.615
MS.102         	24.762         	5.629
MS.103         	24.712         	5.633
MS.104         	24.663         	5.61
MS.105         	24.612         	5.634
MS.106         	24.565         	5.615
MS.107         	24.515         	5.593
MS.108         	24.467         	5.612
MS.109         	24.417         	5.604
MS.110         	24.368         	5.616
MS.111         	24.32          	5.616
MS.112         	24.272         	5.617
MS.113         	24.222         	5.62
MS.114         	24.175         	5.598
MS.115         	24.125         	5.617
MS.116         	24.077         	5.597
MS.117         	24.03          	5.543
MS.118         	23.983         	5.627
MS.119         	23.935         	5.613
MS.120         	23.885         	5.592
MS.121         	23.837         	5.624
MS.122         	23.79          	5.581
MS.123         	23.743         	5.595
MS.124         	23.695         	5.646
MS.125         	23.647         	5.638
MS.126         	23.6           	5.551
MS.127         	23.555         	5.597
MS.128         	23.507         	5.543
MS.129         	23.46          	5.547
MS.130         	23.413         	5.579
MS.131         	23.368         	5.594
MS.132         	23.32          	5.54
MS.133         	23.272         	5.536
MS.134         	23.227         	5.585
MS.135         	23.18          	5.579
MS.136         	23.135         	5.561
MS.137         	23.087         	5.593
MS.138         	23.042         	5.577
MS.139         	22.995         	5.548
MS.140         	22.95          	5.565
MS.141         	22.903         	5.594
MS.142         	22.858         	5.605
MS.143         	22.812         	5.546
MS.144         	22.767         	5.609
MS.145         	22.72          	5.617
MS.146         	22.675         	5.579
MS.147         	22.63          	5.624
MS.148         	22.585         	5.504
MS.149         	22.54          	5.58
MS.150         	22.495         	5.533
MS.151         	22.45          	5.577
MS.152         	22.405         	5.54
MS.153         	22.36          	5.543
MS.154         	22.315         	5.578
MS.155         	22.27          	5.558
MS.156         	22.227         	5.597
MS.157         	22.182         	5.577
MS.158         	22.137         	5.598
MS.159         	22.095         	5.603
MS.160         	22.05          	5.576
MS.161         	22.005         	5.593
MS.162         	21.962         	5.497
MS.163         	21.917         	5.573
MS.164         	21.875         	5.538
MS.165         	21.83          	5.553
MS.166         	21.788         	5.556
MS.167         	21.743         	5.482
MS.168         	21.7           	5.39
MS.169         	21.657         	5.574
MS.170         	21.612         	5.605
MS.171         	21.57          	5.488
MS.172         	21.528         	5.581
MS.173         	21.483         	5.522
MS.174         	21.44          	5.455
MS.175         	21.397         	5.372
MS.176         	21.355         	5.44
MS.177         	21.312         	5.43
MS.178         	21.27          	5.42
MS.179         	21.227         	5.391
MS.180         	21.185         	5.474
MS.181         	21.142         	5.426
MS.182         	21.1           	5.41
MS.183         	21.057         	5.389
MS.184         	21.017         	5.349
MS.185         	20.975         	5.327
MS.186         	20.932         	5.442
MS.187         	20.89          	5.336
MS.188         	20.85          	5.302
MS.189         	20.807         	5.35
MS.190         	20.765         	5.297
MS.191         	20.725         	5.254
MS.192         	20.682         	5.31
MS.193         	20.642         	5.323
MS.194         	20.6           	5.32
MS.195         	20.56          	5.357
MS.196         	20.517         	5.334
MS.197         	20.477         	5.287
MS.198         	20.435         	5.243
MS.199         	20.395         	5.362
MS.200         	20.355         	5.192
MS.201         	20.312         	5.216
MS.202         	20.272         	5.226
MS.203         	20.233         	5.27
MS.204         	20.192         	5.347
MS.205         	20.153         	5.262
MS.206         	20.112         	5.259
MS.207         	20.073         	5.221
MS.208         	20.032         	5.401
MS.209         	19.993         	5.315
MS.210         	19.952         	5.231
MS.211         	19.913         	5.258
MS.212         	19.872         	5.213
MS.213         	19.833         	5.122
MS.214         	19.792         	5.195
MS.215         	19.752         	5.175
MS.216         	19.712         	5.135
MS.217         	19.675         	5.167
MS.218         	19.635         	5.121
MS.219         	19.595         	5.233
MS.220         	19.557         	5.188
MS.221         	19.517         	5.133
MS.222         	19.477         	5.097
MS.223         	19.44          	5.139
MS.224         	19.4           	5.073
MS.225         	19.362         	5.148
MS.226         	19.323         	5.145
MS.227         	19.285         	5.125
MS.228         	19.245         	5.098
MS.229         	19.208         	5.142
MS.230         	19.17          	5.031
MS.231         	19.13          	4.984
MS.232         	19.092         	5.074
MS.233         	19.055         	4.985
MS.234         	19.017         	4.969
MS.235         	18.977         	4.965
MS.236         	18.94          	4.949
MS.237         	18.903         	4.901
MS.238         	18.865         	5.003
MS.239         	18.827         	4.961
MS.240         	18.79          	4.93
MS.241         	18.753         	4.984
MS.242         	18.715         	4.868
MS.243         	18.677         	4.847
MS.244         	18.64          	4.857
MS.245         	18.602         	4.852
MS.246         	18.565         	4.864
MS.247         	18.528         	4.769
MS.248         	18.49          	4.8
MS.249         	18.455         	4.639
MS.250         	18.417         	4.784
MS.251         	18.38          	4.675
MS.252         	18.345         	4.809
MS.253         	18.307         	4.598
MS.254         	18.27          	4.656
MS.255         	18.235         	4.463
MS.256         	18.198         	4.6
MS.257         	18.163         	4.666
MS.258         	18.125         	4.451
MS.259         	18.09          	4.635
MS.260         	18.052         	4.561
MS.261         	18.017         	4.362
MS.262         	17.98          	4.275
MS.263         	17.945         	4.39
MS.264         	17.91          	4.412
MS.265         	17.872         	4.268
MS.266         	17.837         	4.542
MS.267         	17.802         	4.389
MS.268         	17.765         	4.486
MS.269         	17.73          	4.309
MS.270         	17.695         	4.25
MS.271         	17.66          	4.272
MS.272         	17.625         	4.109
MS.273         	17.59          	4.313
MS.274         	17.555         	4.088
MS.275         	17.52          	3.981
MS.276         	17.485         	4.059
MS.277         	17.45          	4.256
MS.278         	17.415         	4.052
MS.279         	17.38          	3.884
MS.280         	17.345         	4.299
MS.281         	17.31          	3.974
MS.282         	17.275         	3.967
MS.283         	17.24          	4.272
MS.284         	17.208         	3.991
MS.285         	17.172         	4.041
MS.286         	17.137         	3.699
MS.287         	17.102         	4.064
MS.288         	17.07          	3.894
MS.289         	17.035         	3.881
MS.290         	17.003         	3.646
MS.291         	16.967         	3.746
MS.292         	16.932         	4.007
MS.293         	16.9           	3.741
MS.294         	16.865         	3.815
MS.295         	16.833         	3.716
MS.296         	16.797         	3.724
MS.297         	16.765         	3.541
MS.298         	16.733         	3.729
MS.299         	16.698         	3.574
MS.300         	16.665         	3.633
MS.301         	16.632         	3.619
MS.302         	16.597         	3.595
MS.303         	16.565         	3.77
MS.304         	16.532         	3.439
MS.305         	16.5           	3.25
MS.306         	16.465         	3.569
MS.307         	16.432         	3.425
MS.308         	16.4           	3.293
MS.309         	16.368         	3.349
MS.310         	16.335         	3.204
MS.311         	16.302         	3.378
MS.312         	16.27          	3.235
MS.313         	16.237         	3.122
MS.314         	16.205         	3.149
MS.315         	16.172         	3.3
MS.316         	16.14          	3.018
MS.317         	16.108         	3.304
MS.318         	16.075         	3.214
MS.319         	16.042         	3.046
MS.320         	16.012         	2.968
MS.321         	15.98          	2.913
MS.322         	15.947         	2.978
MS.323         	15.915         	2.987
MS.324         	15.882         	2.969
MS.325         	15.852         	3.015
MS.326         	15.82          	2.94
MS.327         	15.787         	3.008
MS.328         	15.757         	2.786
MS.329         	15.725         	2.645
MS.330         	15.695         	2.781
MS.331         	15.662         	2.78
MS.332         	15.632         	2.758
MS.333         	15.6           	2.698
MS.334         	15.57          	2.792
MS.335         	15.537         	2.583
MS.336         	15.507         	2.741
MS.337         	15.475         	2.457
MS.338         	15.445         	2.592
MS.339         	15.415         	2.535
MS.340         	15.382         	2.488
MS.341         	15.352         	2.35
MS.342         	15.322         	2.451
MS.343         	15.292         	2.415
MS.344         	15.26          	2.496
MS.345         	15.23          	2.365
MS.346         	15.2           	2.234
MS.347         	15.17          	2.454
MS.348         	15.14          	2.53
MS.349         	15.11          	2.368
MS.350         	15.08          	2.318
MS.351         	15.05          	2.278
MS.352         	15.017         	2.316
MS.353         	14.987         	2.147
MS.354         	14.957         	2.228
MS.355         	14.93          	2.228
MS.356         	14.9           	2.156
MS.357         	14.87          	2.006
MS.358         	14.84          	1.975
MS.359         	14.81          	1.922
MS.360         	14.78          	2.027
MS.361         	14.75          	1.964
MS.362         	14.722         	1.965
MS.363         	14.693         	1.977
MS.364         	14.662         	1.859
MS.365         	14.632         	1.99
MS.366         	14.605         	1.706
MS.367         	14.575         	1.812
MS.368         	14.545         	1.658
MS.369         	14.517         	1.722
MS.370         	14.487         	1.697
MS.371         	14.457         	1.741
MS.372         	14.43          	1.823
MS.373         	14.4           	1.501
MS.374         	14.372         	1.541
MS.375         	14.342         	1.642
MS.376         	14.315         	1.487
MS.377         	14.285         	1.641
MS.378         	14.257         	1.301
MS.379         	14.23          	1.44
MS.380         	14.2           	1.519
MS.381         	14.172         	1.467
MS.382         	14.145         	1.374
MS.383         	14.115         	1.394
MS.384         	14.087         	1.383
MS.385         	14.06          	1.363
MS.386         	14.032         	1.242
MS.387         	14.002         	1.324
MS.388         	13.975         	1.258
MS.389         	13.947         	1.247
MS.390         	13.92          	1.194
MS.391         	13.892         	1.072
MS.392         	13.865         	1.133
MS.393         	13.837         	1.064
MS.394         	13.807         	0.925
MS.395         	13.78          	1.149
MS.396         	13.752         	1.097
MS.397         	13.725         	0.888
MS.398         	13.697         	0.97
MS.399         	13.672         	0.895
MS.400         	13.645         	0.796
MS.401         	13.617         	0.814
MS.402         	13.59          	0.807
MS.403         	13.562         	0.907
MS.404         	13.535         	0.786
MS.405         	13.507         	0.656
MS.406         	13.48          	0.745
MS.407         	13.455         	0.743
MS.408         	13.427         	0.576
MS.409         	13.4           	0.665
MS.410         	13.375         	0.651
MS.411         	13.347         	0.658
MS.412         	13.32          	0.649
MS.413         	13.295         	0.488
MS.414         	13.267         	0.466
MS.415         	13.24          	0.505
MS.416         	13.215         	0.47
MS.417         	13.188         	0.403
MS.418         	13.162         	0.361
MS.419         	13.135         	0.406
MS.420         	13.11          	0.407
MS.421         	13.082         	0.432
MS.422         	13.057         	0.394
MS.423         	13.03          	0.309
MS.424         	13.005         	0.264
MS.425         	12.977         	0.266
MS.426         	12.952         	0.234
MS.427         	12.927         	0.238
MS.428         	12.9           	0.206
MS.429         	12.875         	0.262
MS.430         	12.85          	0.209
MS.431         	12.822         	0.241
MS.432         	12.797         	0.181
MS.433         	12.773         	0.045
MS.434         	12.747         	0.199
MS.435         	12.722         	0.143
MS.436         	12.695         	0.1
MS.437         	12.67          	0.029
MS.438         	12.645         	0.085
MS.439         	12.62          	0.063
MS.440         	12.595         	0.009
MS.441         	12.57          	0.002
MS.442         	12.545         	-0.061
MS.443         	12.52          	0.000
MS.444         	12.495         	-0.036
MS.445         	12.47          	-0.046
MS.446         	12.445         	-0.084
MS.447         	12.42          	-0.093
MS.448         	12.395         	-0.114
MS.449         	12.37          	-0.181
MS.450         	12.345         	-0.165
MS.451         	12.32          	-0.231
MS.452         	12.297         	-0.261
MS.453         	12.273         	-0.108
MS.454         	12.247         	-0.207
MS.455         	12.222         	-0.25
MS.456         	12.197         	-0.206
MS.457         	12.175         	-0.218
MS.458         	12.15          	-0.232
MS.459         	12.125         	-0.259
MS.460         	12.1           	-0.309
MS.461         	12.077         	-0.41
MS.462         	12.052         	-0.411
MS.463         	12.028         	-0.354
MS.464         	12.005         	-0.381
MS.465         	11.98          	-0.342
MS.466         	11.957         	-0.338
MS.467         	11.932         	-0.378
MS.468         	11.91          	-0.327
MS.469         	11.885         	-0.464
MS.470         	11.863         	-0.432
MS.471         	11.837         	-0.443
MS.472         	11.815         	-0.413
MS.473         	11.79          	-0.486
MS.474         	11.767         	-0.427
MS.475         	11.742         	-0.479
MS.476         	11.72          	-0.493
MS.477         	11.697         	-0.513
MS.478         	11.672         	-0.53
MS.479         	11.65          	-0.518
MS.480         	11.627         	-0.547
MS.481         	11.602         	-0.52
MS.482         	11.58          	-0.577
MS.483         	11.557         	-0.588
MS.484         	11.535         	-0.623
MS.485         	11.51          	-0.636
MS.486         	11.488         	-0.674
MS.487         	11.465         	-0.609
MS.488         	11.443         	-0.673
MS.489         	11.42          	-0.656
MS.490         	11.398         	-0.645
MS.491         	11.372         	-0.687
MS.492         	11.35          	-0.694
MS.493         	11.327         	-0.661
MS.494         	11.305         	-0.64
MS.495         	11.282         	-0.686
MS.496         	11.26          	-0.695
MS.497         	11.238         	-0.661
MS.498         	11.215         	-0.739
MS.499         	11.193         	-0.735
MS.500         	11.17          	-0.719
MS.501         	11.148         	-0.712
MS.502         	11.125         	-0.753
MS.503         	11.105         	-0.728
MS.504         	11.082         	-0.781
MS.505         	11.06          	-0.836
MS.506         	11.037         	-0.8
MS.507         	11.015         	-0.828
MS.508         	10.992         	-0.818
MS.509         	10.972         	-0.842
MS.510         	10.95          	-0.846
MS.511         	10.927         	-0.82
MS.512         	10.905         	-0.855
MS.513         	10.885         	-0.845
MS.514         	10.863         	-0.812
MS.515         	10.84          	-0.81
MS.516         	10.82          	-0.875
MS.517         	10.797         	-0.873
MS.518         	10.775         	-0.873
MS.519         	10.755         	-0.871
MS.520         	10.733         	-0.883
MS.521         	10.712         	-0.914
MS.522         	10.69          	-0.875
MS.523         	10.667         	-0.892
MS.524         	10.648         	-0.921
MS.525         	10.625         	-0.864
MS.526         	10.605         	-0.903
MS.527         	10.582         	-0.922
MS.528         	10.562         	-0.834
MS.529         	10.542         	-0.879
MS.530         	10.52          	-0.892
MS.531         	10.5           	-0.886
MS.532         	10.477         	-0.975
MS.533         	10.457         	-0.925
MS.534         	10.438         	-0.966
MS.535         	10.415         	-0.96
MS.536         	10.395         	-0.978
MS.537         	10.375         	-0.97
MS.538         	10.352         	-0.95
MS.539         	10.332         	-0.975
MS.540         	10.312         	-0.933
MS.541         	10.292         	-0.986
MS.542         	10.27          	-0.999
MS.543         	10.25          	-1.008
MS.544         	10.23          	-0.954
MS.545         	10.21          	-1.002
MS.546         	10.19          	-0.961
MS.547         	10.167         	-0.959
MS.548         	10.148         	-0.995
MS.549         	10.127         	-0.948
MS.550         	10.108         	-0.952
MS.551         	10.087         	-1.016
MS.552         	10.068         	-0.995
MS.553         	10.047         	-0.996
MS.554         	10.028         	-1.02
MS.555         	10.007         	-1.014
MS.556         	9.988          	-0.992
MS.557         	9.967          	-0.993
MS.558         	9.948          	-1.016
MS.559         	9.927          	-0.998
MS.560         	9.907          	-1.016
MS.561         	9.887          	-1.05
MS.562         	9.867          	-1.032
MS.563         	9.847          	-0.994
MS.564         	9.827          	-1.017
MS.565         	9.81           	-1.048
MS.566         	9.79           	-1.034
MS.567         	9.77           	-0.959
MS.568         	9.75           	-1.006
MS.569         	9.73           	-1.013
MS.570         	9.712          	-1.02
MS.571         	9.693          	-1.031
MS.572         	9.672          	-0.997
MS.573         	9.653          	-1.025
MS.574         	9.635          	-0.995
MS.575         	9.615          	-1.008
MS.576         	9.595          	-1.043
MS.577         	9.577          	-1.011
MS.578         	9.557          	-1.013
MS.579         	9.537          	-1.012
MS.580         	9.52           	-1.026
MS.581         	9.5            	-1.03
MS.582         	9.48           	-1.017
MS.583         	9.462          	-1.02
MS.584         	9.443          	-1.034
MS.585         	9.425          	-1.041
MS.586         	9.405          	-1.043
MS.587         	9.387          	-0.995
MS.588         	9.367          	-1.002
MS.589         	9.35           	-1.005
MS.590         	9.33           	-1.027
MS.591         	9.312          	-1.031
MS.592         	9.292          	-1.025
MS.593         	9.275          	-1.04
MS.594         	9.255          	-1.013
MS.595         	9.238          	-1.001
MS.596         	9.22           	-1.006
MS.597         	9.2            	-0.992
MS.598         	9.182          	-1.012
MS.599         	9.165          	-1.002
MS.600         	9.145          	-1.039
MS.601         	9.127          	-0.994
MS.602         	9.11           	-1.045
MS.603         	9.09           	-1.063
MS.604         	9.073          	-1.036
MS.605         	9.055          	-1.006
MS.606         	9.037          	-1.049
MS.607         	9.017          	-1.025
MS.608         	9              	-1.038
MS.609         	8.983          	-1.021
MS.610         	8.965          	-1.028
MS.611         	8.948          	-1.052
MS.612         	8.93           	-1.032
MS.613         	8.91           	-1.028
MS.614         	8.892          	-1.006
MS.615         	8.875          	-0.999
MS.616         	8.858          	-1.011
MS.617         	8.84           	-1.047
MS.618         	8.823          	-1.025
MS.619         	8.805          	-1.03
MS.620         	8.787          	-1.021
MS.621         	8.77           	-1.011
MS.622         	8.752          	-1.026
MS.623         	8.735          	-1.025
MS.624         	8.717          	-1.038
MS.625         	8.7            	-0.992
MS.626         	8.682          	-1.011
MS.627         	8.665          	-1.025
MS.628         	8.648          	-1.046
MS.629         	8.63           	-1.031
MS.630         	8.613          	-1.039
MS.631         	8.595          	-1.039
MS.632         	8.58           	-1.018
MS.633         	8.562          	-1.023
MS.634         	8.545          	-1.022
MS.635         	8.528          	-1.027
MS.636         	8.51           	-1.003
MS.637         	8.492          	-1.034
MS.638         	8.477          	-1.024
MS.639         	8.46           	-1
MS.640         	8.443          	-1.041
MS.641         	8.425          	-1.018
MS.642         	8.41           	-1
MS.643         	8.392          	-1.031
MS.644         	8.375          	-1.019
MS.645         	8.358          	-1.033
MS.646         	8.342          	-1.035
MS.647         	8.325          	-1.039
MS.648         	8.307          	-1.031
MS.649         	8.292          	-1.017
MS.650         	8.275          	-1.013
MS.651         	8.26           	-1.002
MS.652         	8.242          	-1.027
MS.653         	8.225          	-1.016
MS.654         	8.21           	-1.027
MS.655         	8.193          	-1.038
MS.656         	8.177          	-0.989
MS.657         	8.16           	-1.008
MS.658         	8.145          	-1.031
MS.659         	8.127          	-1.005
MS.660         	8.113          	-1.022
MS.661         	8.095          	-1.02
MS.662         	8.08           	-1.022
MS.663         	8.062          	-1.048
MS.664         	8.047          	-1.01
DERIVED EXCITABILITY VARIABLES
Program = QTracP 27/06/2023
Threshold method = 6 (optimised for CAP, using data for present condition only)
SR method = 1 (using actual data values)
6.                 	0.000               	Peak response\(mV)
9.                 	32.6                	Temperature ( C)
17.                	18                  	Age (years)
18.                	2                   	Sex (M=1, F=2)

EXTRA VARIABLES

MScPeak(mV) = 6.6
MScS5(mA) = 13.04
MScS50(mA) = 16.33
MScNSteps = 1
MScSteps(%) = 2.1
MScStepMax(%) = 2.1
MScD50 = 61
MScSlope = 3.7
MScDuration(min) = 8.8
MSFTraces = 591
MSFPeakAmp(mV) = 6.63
MSFNUnits = 139
MSFMeanUnitAmp(uV) = 47.7
MSFHuntTime(m) = 1.89
MSFError(%) = 1.64
MSFNLarge = 41.01
MSFMedianAmp(%) = 0.592
MSFMedianAmp(mV) = 0.0393
MSFHalfAmpAmp(%) = 0.755
MSFHalfAmpAmp(mV) = 0.0501
MSFLargestAmp(%) = 3.35
MSFLargestAmp(mV) = 0.222
MSFMeanRS(%) = 1.98
MSFSizeLimit(uV) = 22.1
MSFLimitType = 1
MSFSmallestAmp(uV) = 22.4
MSFOpts = 10104222032
MSFSDMax = 22
MSFSDMin = 13.8

EXTRA WAVEFORMS


!MScan Model
!139
	1	10.03	0.42	1.98
	2	10.42	0.71	1.98
	3	10.48	0.41	1.98
	4	10.69	0.69	1.98
	5	10.87	0.45	1.98
	6	11.05	0.76	1.98
	7	11.13	0.67	1.98
	8	11.21	0.68	1.98
	9	11.39	0.75	1.98
	10	11.48	0.35	1.98
	11	11.53	0.53	1.98
	12	11.58	0.52	1.98
	13	11.67	0.65	1.98
	14	11.75	0.67	1.98
	15	11.82	0.61	1.98
	16	11.92	0.76	1.98
	17	12	0.41	1.98
	18	12.07	0.51	1.98
	19	12.12	0.54	1.98
	20	12.17	0.75	1.98
	21	12.25	0.49	1.98
	22	12.33	0.7	1.98
	23	12.39	0.62	1.98
	24	12.45	0.59	1.98
	25	12.49	0.55	1.98
	26	12.53	0.4	1.98
	27	12.56	0.4	1.98
	28	12.6	0.35	1.98
	29	12.66	0.59	1.98
	30	12.69	0.41	1.98
	31	12.75	0.67	1.98
	32	12.81	0.65	1.98
	33	12.87	0.48	1.98
	34	12.93	0.55	1.98
	35	12.97	0.55	1.98
	36	13.02	0.6	1.98
	37	13.09	0.67	1.98
	38	13.14	0.5	1.98
	39	13.18	0.42	1.98
	40	13.2	0.34	1.98
	41	13.22	0.34	1.98
	42	13.27	0.59	1.98
	43	13.29	0.37	1.98
	44	13.32	0.38	1.98
	45	13.34	0.46	1.98
	46	13.37	0.42	1.98
	47	13.4	0.41	1.98
	48	13.42	0.45	1.98
	49	13.45	0.45	1.98
	50	13.51	0.59	1.98
	51	13.54	0.42	1.98
	52	13.58	0.55	1.98
	53	13.62	0.57	1.98
	54	13.66	0.63	1.98
	55	13.69	0.5	1.98
	56	13.71	0.42	1.98
	57	13.74	0.38	1.98
	58	13.77	0.42	1.98
	59	13.79	0.47	1.98
	60	13.82	0.43	1.98
	61	13.84	0.38	1.98
	62	13.86	0.38	1.98
	63	13.9	0.69	1.98
	64	13.92	0.37	1.98
	65	13.94	0.37	1.98
	66	14	0.95	1.98
	67	14.06	0.94	1.98
	68	14.17	1.41	1.98
	69	14.28	1.08	1.98
	70	14.36	1.41	1.98
	71	14.42	0.82	1.98
	72	14.48	1.06	1.98
	73	14.54	0.79	1.98
	74	14.58	0.62	1.98
	75	14.62	0.38	1.98
	76	14.67	0.65	1.98
	77	14.72	0.85	1.98
	78	14.78	1.25	1.98
	79	14.82	0.48	1.98
	80	14.86	0.48	1.98
	81	14.9	0.49	1.98
	82	14.92	0.38	1.98
	83	14.93	0.41	1.98
	84	14.95	0.41	1.98
	85	15.04	1.62	1.98
	86	15.18	1.47	2.37
	87	15.33	1.12	1.98
	88	15.37	0.49	1.98
	89	15.41	0.61	1.98
	90	15.5	1.12	1.98
	91	15.57	0.9	1.98
	92	15.62	0.5	1.98
	93	15.66	0.97	1.98
	94	15.71	0.57	1.98
	95	15.76	0.79	1.98
	96	15.83	0.44	1.98
	97	15.9	0.99	1.98
	98	16.04	1.69	1.98
	99	16.17	1.64	1.98
	100	16.27	0.96	1.98
	101	16.35	1.35	1.98
	102	16.42	0.93	1.98
	103	16.47	0.54	1.98
	104	16.53	0.77	1.98
	105	16.62	1.41	1.98
	106	16.72	1.97	1.98
	107	16.72	0.49	1.98
	108	16.73	1.25	1.98
	109	16.88	1.36	1.98
	110	17.03	1.26	1.98
	111	17.03	0.51	1.98
	112	17.59	3.35	1.98
	113	17.73	0.89	1.98
	114	17.95	2.1	1.98
	115	18.05	0.44	1.98
	116	18.19	2.13	1.98
	117	18.3	0.91	1.98
	118	18.42	0.84	1.98
	119	18.47	0.53	1.98
	120	18.5	0.4	1.98
	121	18.54	0.38	1.98
	122	18.58	0.34	1.98
	123	18.62	0.34	1.98
	124	18.67	0.52	1.98
	125	18.85	1	1.98
	126	18.97	0.59	1.98
	127	19.08	0.61	1.98
	128	19.18	0.51	1.98
	129	19.25	0.42	1.98
	130	19.35	0.46	1.98
	131	19.63	0.69	1.98
	132	19.79	0.59	1.98
	133	19.9	0.35	1.98
	134	20.48	0.93	1.98
	135	20.92	0.98	1.98
	136	21.21	0.96	1.98
	137	21.33	0.64	1.98
	138	21.69	0.99	1.98
	139	23.23	0.73	1.98

