File:              	C:\Qtrac\Data\ME2C30629B.QZD
Name:              	 RO11A
Protocol:          	MSCAN-MV
Date:              	29/6/23
Date of birth:     	11/8/01
Age:               	21
Sex:               	F
Temperature:       	33.3
S/R sites:         	Knee CF-TA
NC/disease:        	NC
Operator:          	BY
Comments:
M-SCAN DATA (Repeat 3/3, 25.4-20.1m)
Scanpts: 5, 12, 399, 444
Stim. (mA)     	Amp. (mV)
MS.1           	19.5           	5.641
MS.2           	19.5           	5.602
MS.3           	19.5           	5.718
MS.4           	19.5           	5.576
MS.5           	19.5           	5.64
MS.6           	19.5           	5.602
MS.7           	19.5           	5.616
MS.8           	19.5           	5.677
MS.9           	19.5           	5.54
MS.10          	19.5           	5.652
MS.11          	19.5           	5.605
MS.12          	19.5           	5.652
MS.13          	19.5           	5.724
MS.14          	19.5           	5.531
MS.15          	19.5           	5.754
MS.16          	19.5           	5.635
MS.17          	19.5           	5.62
MS.18          	19.5           	5.656
MS.19          	19.5           	5.615
MS.20          	19.5           	5.706
MS.21          	19.5           	5.558
MS.22          	19.5           	5.607
MS.23          	19.5           	5.658
MS.24          	19.46          	5.73
MS.25          	19.422         	5.505
MS.26          	19.382         	5.58
MS.27          	19.345         	5.449
MS.28          	19.305         	5.36
MS.29          	19.267         	5.519
MS.30          	19.23          	5.497
MS.31          	19.19          	5.448
MS.32          	19.153         	5.46
MS.33          	19.115         	5.526
MS.34          	19.075         	5.364
MS.35          	19.038         	5.324
MS.36          	19             	5.393
MS.37          	18.962         	5.314
MS.38          	18.922         	5.275
MS.39          	18.885         	5.283
MS.40          	18.847         	5.324
MS.41          	18.81          	5.242
MS.42          	18.772         	5.293
MS.43          	18.735         	5.182
MS.44          	18.698         	5.187
MS.45          	18.66          	5.233
MS.46          	18.622         	5.28
MS.47          	18.585         	5.164
MS.48          	18.55          	5.108
MS.49          	18.512         	5.01
MS.50          	18.475         	5.098
MS.51          	18.438         	5.034
MS.52          	18.4           	4.958
MS.53          	18.365         	5.15
MS.54          	18.327         	5.042
MS.55          	18.29          	4.935
MS.56          	18.255         	4.953
MS.57          	18.217         	4.89
MS.58          	18.182         	4.929
MS.59          	18.145         	4.944
MS.60          	18.11          	4.971
MS.61          	18.073         	4.833
MS.62          	18.038         	4.745
MS.63          	18             	4.891
MS.64          	17.965         	4.823
MS.65          	17.93          	4.656
MS.66          	17.892         	4.799
MS.67          	17.858         	4.659
MS.68          	17.823         	4.769
MS.69          	17.785         	4.719
MS.70          	17.75          	4.706
MS.71          	17.715         	4.573
MS.72          	17.68          	4.628
MS.73          	17.645         	4.606
MS.74          	17.61          	4.512
MS.75          	17.575         	4.433
MS.76          	17.54          	4.515
MS.77          	17.503         	4.523
MS.78          	17.47          	4.487
MS.79          	17.435         	4.413
MS.80          	17.4           	4.255
MS.81          	17.365         	4.322
MS.82          	17.33          	4.34
MS.83          	17.295         	4.052
MS.84          	17.26          	4.299
MS.85          	17.225         	4.22
MS.86          	17.192         	4.059
MS.87          	17.157         	4.055
MS.88          	17.122         	3.99
MS.89          	17.087         	4.024
MS.90          	17.055         	4.018
MS.91          	17.02          	4.037
MS.92          	16.987         	3.877
MS.93          	16.952         	3.978
MS.94          	16.917         	3.901
MS.95          	16.885         	3.926
MS.96          	16.85          	3.983
MS.97          	16.817         	3.839
MS.98          	16.785         	3.848
MS.99          	16.75          	3.715
MS.100         	16.717         	3.738
MS.101         	16.682         	3.839
MS.102         	16.65          	3.687
MS.103         	16.618         	3.647
MS.104         	16.583         	3.682
MS.105         	16.55          	3.741
MS.106         	16.517         	3.639
MS.107         	16.485         	3.6
MS.108         	16.452         	3.568
MS.109         	16.417         	3.528
MS.110         	16.385         	3.41
MS.111         	16.352         	3.498
MS.112         	16.32          	3.398
MS.113         	16.288         	3.479
MS.114         	16.255         	3.455
MS.115         	16.222         	3.303
MS.116         	16.19          	3.353
MS.117         	16.157         	3.422
MS.118         	16.125         	3.006
MS.119         	16.092         	3.259
MS.120         	16.062         	3.126
MS.121         	16.03          	3.138
MS.122         	15.997         	3.203
MS.123         	15.965         	2.94
MS.124         	15.932         	3.173
MS.125         	15.902         	3.041
MS.126         	15.87          	3.029
MS.127         	15.837         	2.997
MS.128         	15.807         	3.029
MS.129         	15.775         	2.9
MS.130         	15.742         	2.831
MS.131         	15.712         	2.737
MS.132         	15.68          	2.767
MS.133         	15.65          	2.784
MS.134         	15.617         	2.826
MS.135         	15.587         	2.651
MS.136         	15.555         	2.728
MS.137         	15.525         	2.526
MS.138         	15.492         	2.541
MS.139         	15.462         	2.531
MS.140         	15.432         	2.51
MS.141         	15.4           	2.535
MS.142         	15.37          	2.457
MS.143         	15.34          	2.299
MS.144         	15.307         	2.317
MS.145         	15.277         	2.496
MS.146         	15.247         	2.349
MS.147         	15.217         	2.415
MS.148         	15.188         	2.195
MS.149         	15.157         	2.153
MS.150         	15.125         	2.189
MS.151         	15.095         	2.066
MS.152         	15.065         	1.963
MS.153         	15.035         	2.08
MS.154         	15.005         	2.055
MS.155         	14.975         	1.965
MS.156         	14.945         	1.89
MS.157         	14.915         	1.804
MS.158         	14.885         	1.772
MS.159         	14.855         	1.825
MS.160         	14.827         	1.776
MS.161         	14.797         	1.736
MS.162         	14.767         	1.821
MS.163         	14.737         	1.75
MS.164         	14.707         	1.702
MS.165         	14.68          	1.614
MS.166         	14.65          	1.614
MS.167         	14.62          	1.687
MS.168         	14.59          	1.511
MS.169         	14.562         	1.512
MS.170         	14.532         	1.598
MS.171         	14.505         	1.5
MS.172         	14.475         	1.544
MS.173         	14.445         	1.345
MS.174         	14.417         	1.337
MS.175         	14.387         	1.318
MS.176         	14.36          	1.321
MS.177         	14.33          	1.353
MS.178         	14.302         	1.368
MS.179         	14.273         	1.229
MS.180         	14.245         	1.354
MS.181         	14.217         	1.078
MS.182         	14.188         	1.168
MS.183         	14.16          	1.105
MS.184         	14.132         	1.074
MS.185         	14.102         	1.178
MS.186         	14.075         	1.039
MS.187         	14.047         	1.048
MS.188         	14.02          	1.055
MS.189         	13.99          	0.896
MS.190         	13.962         	0.972
MS.191         	13.935         	0.931
MS.192         	13.907         	0.903
MS.193         	13.88          	0.85
MS.194         	13.852         	0.876
MS.195         	13.825         	0.867
MS.196         	13.797         	0.809
MS.197         	13.77          	0.791
MS.198         	13.742         	0.783
MS.199         	13.715         	0.811
MS.200         	13.688         	0.75
MS.201         	13.66          	0.74
MS.202         	13.632         	0.699
MS.203         	13.605         	0.687
MS.204         	13.577         	0.634
MS.205         	13.55          	0.636
MS.206         	13.523         	0.509
MS.207         	13.497         	0.474
MS.208         	13.47          	0.443
MS.209         	13.443         	0.501
MS.210         	13.415         	0.398
MS.211         	13.387         	0.362
MS.212         	13.362         	0.341
MS.213         	13.335         	0.408
MS.214         	13.307         	0.283
MS.215         	13.282         	0.383
MS.216         	13.255         	0.325
MS.217         	13.23          	0.28
MS.218         	13.202         	0.275
MS.219         	13.175         	0.209
MS.220         	13.15          	0.231
MS.221         	13.122         	0.157
MS.222         	13.097         	0.258
MS.223         	13.07          	0.083
MS.224         	13.045         	0.053
MS.225         	13.02          	0.112
MS.226         	12.992         	0.065
MS.227         	12.967         	0.051
MS.228         	12.94          	0.099
MS.229         	12.915         	0.084
MS.230         	12.89          	0.063
MS.231         	12.865         	0.037
MS.232         	12.837         	-0.02
MS.233         	12.812         	0.02
MS.234         	12.787         	-0.082
MS.235         	12.762         	-0.06
MS.236         	12.735         	-0.073
MS.237         	12.71          	-0.059
MS.238         	12.685         	-0.099
MS.239         	12.66          	-0.023
MS.240         	12.635         	-0.045
MS.241         	12.61          	-0.04
MS.242         	12.585         	-0.137
MS.243         	12.557         	-0.19
MS.244         	12.532         	-0.139
MS.245         	12.507         	-0.194
MS.246         	12.483         	-0.178
MS.247         	12.457         	-0.121
MS.248         	12.432         	-0.201
MS.249         	12.41          	-0.144
MS.250         	12.385         	-0.2
MS.251         	12.36          	-0.261
MS.252         	12.335         	-0.317
MS.253         	12.31          	-0.345
MS.254         	12.285         	-0.272
MS.255         	12.26          	-0.345
MS.256         	12.238         	-0.314
MS.257         	12.212         	-0.291
MS.258         	12.188         	-0.306
MS.259         	12.162         	-0.325
MS.260         	12.14          	-0.394
MS.261         	12.115         	-0.438
MS.262         	12.09          	-0.385
MS.263         	12.068         	-0.396
MS.264         	12.042         	-0.469
MS.265         	12.017         	-0.481
MS.266         	11.995         	-0.463
MS.267         	11.97          	-0.491
MS.268         	11.945         	-0.463
MS.269         	11.922         	-0.506
MS.270         	11.898         	-0.481
MS.271         	11.875         	-0.507
MS.272         	11.85          	-0.489
MS.273         	11.827         	-0.531
MS.274         	11.802         	-0.548
MS.275         	11.78          	-0.563
MS.276         	11.757         	-0.542
MS.277         	11.733         	-0.595
MS.278         	11.71          	-0.577
MS.279         	11.688         	-0.574
MS.280         	11.662         	-0.621
MS.281         	11.64          	-0.601
MS.282         	11.617         	-0.576
MS.283         	11.592         	-0.649
MS.284         	11.57          	-0.621
MS.285         	11.547         	-0.602
MS.286         	11.525         	-0.648
MS.287         	11.5           	-0.707
MS.288         	11.477         	-0.659
MS.289         	11.455         	-0.643
MS.290         	11.432         	-0.66
MS.291         	11.41          	-0.742
MS.292         	11.387         	-0.699
MS.293         	11.363         	-0.73
MS.294         	11.34          	-0.81
MS.295         	11.318         	-0.742
MS.296         	11.295         	-0.743
MS.297         	11.273         	-0.786
MS.298         	11.25          	-0.754
MS.299         	11.227         	-0.786
MS.300         	11.205         	-0.755
MS.301         	11.182         	-0.784
MS.302         	11.16          	-0.709
MS.303         	11.137         	-0.826
MS.304         	11.117         	-0.845
MS.305         	11.095         	-0.829
MS.306         	11.073         	-0.811
MS.307         	11.05          	-0.851
MS.308         	11.028         	-0.832
MS.309         	11.005         	-0.841
MS.310         	10.983         	-0.86
MS.311         	10.962         	-0.782
MS.312         	10.94          	-0.862
MS.313         	10.917         	-0.839
MS.314         	10.895         	-0.901
MS.315         	10.875         	-0.793
MS.316         	10.852         	-0.894
MS.317         	10.83          	-0.855
MS.318         	10.81          	-0.877
MS.319         	10.787         	-0.891
MS.320         	10.765         	-0.862
MS.321         	10.745         	-0.916
MS.322         	10.722         	-0.903
MS.323         	10.702         	-0.88
MS.324         	10.68          	-0.85
MS.325         	10.66          	-0.918
MS.326         	10.637         	-0.958
MS.327         	10.617         	-0.892
MS.328         	10.595         	-0.94
MS.329         	10.575         	-0.978
MS.330         	10.552         	-0.895
MS.331         	10.532         	-0.838
MS.332         	10.51          	-0.952
MS.333         	10.49          	-0.876
MS.334         	10.47          	-0.934
MS.335         	10.448         	-0.944
MS.336         	10.427         	-0.919
MS.337         	10.407         	-0.919
MS.338         	10.385         	-0.96
MS.339         	10.365         	-0.948
MS.340         	10.345         	-0.969
MS.341         	10.323         	-0.967
MS.342         	10.302         	-0.93
MS.343         	10.282         	-0.958
MS.344         	10.262         	-0.959
MS.345         	10.24          	-0.947
MS.346         	10.22          	-0.958
MS.347         	10.2           	-0.982
MS.348         	10.18          	-0.93
MS.349         	10.16          	-0.949
MS.350         	10.14          	-0.965
MS.351         	10.12          	-0.953
MS.352         	10.1           	-0.961
MS.353         	10.077         	-0.994
MS.354         	10.057         	-0.961
MS.355         	10.037         	-0.985
MS.356         	10.017         	-0.956
MS.357         	9.997          	-1
MS.358         	9.977          	-0.966
MS.359         	9.957          	-0.964
MS.360         	9.938          	-0.986
MS.361         	9.917          	-0.995
MS.362         	9.9            	-0.988
MS.363         	9.88           	-0.995
MS.364         	9.86           	-0.967
MS.365         	9.84           	-0.981
MS.366         	9.82           	-1.005
MS.367         	9.8            	-0.961
MS.368         	9.78           	-0.931
MS.369         	9.76           	-0.975
MS.370         	9.742          	-1.016
MS.371         	9.722          	-0.993
MS.372         	9.702          	-0.966
MS.373         	9.682          	-1.005
MS.374         	9.665          	-0.996
MS.375         	9.645          	-0.974
MS.376         	9.625          	-0.994
MS.377         	9.608          	-0.994
MS.378         	9.587          	-0.988
MS.379         	9.568          	-1.003
MS.380         	9.55           	-0.974
MS.381         	9.53           	-0.994
MS.382         	9.51           	-1.008
MS.383         	9.492          	-0.992
MS.384         	9.472          	-0.978
MS.385         	9.455          	-0.984
MS.386         	9.435          	-1.001
MS.387         	9.415          	-0.982
MS.388         	9.398          	-0.964
MS.389         	9.377          	-0.981
MS.390         	9.36           	-0.994
MS.391         	9.34           	-0.992
MS.392         	9.323          	-0.98
MS.393         	9.302          	-0.988
MS.394         	9.285          	-0.991
MS.395         	9.267          	-0.986
MS.396         	9.247          	-0.956
MS.397         	9.23           	-0.975
MS.398         	9.21           	-0.957
MS.399         	9.193          	-0.975
MS.400         	9.175          	-0.984
MS.401         	9.155          	-0.967
MS.402         	9.137          	-1.004
MS.403         	9.12           	-1.002
MS.404         	9.102          	-0.987
MS.405         	9.082          	-0.969
MS.406         	9.065          	-0.941
MS.407         	9.047          	-0.966
MS.408         	9.03           	-0.987
MS.409         	9.01           	-0.981
MS.410         	8.992          	-0.98
MS.411         	8.975          	-0.981
MS.412         	8.957          	-0.972
MS.413         	8.94           	-0.98
MS.414         	8.92           	-0.934
MS.415         	8.903          	-0.994
MS.416         	8.885          	-0.961
MS.417         	8.867          	-1
MS.418         	8.85           	-1.003
MS.419         	8.832          	-0.959
MS.420         	8.815          	-0.932
MS.421         	8.797          	-0.959
MS.422         	8.78           	-0.981
MS.423         	8.762          	-0.937
MS.424         	8.745          	-0.972
MS.425         	8.727          	-0.956
MS.426         	8.71           	-1.003
MS.427         	8.693          	-0.976
MS.428         	8.675          	-0.981
MS.429         	8.658          	-0.98
MS.430         	8.64           	-0.979
MS.431         	8.622          	-0.973
MS.432         	8.605          	-0.942
MS.433         	8.587          	-1.01
MS.434         	8.573          	-0.964
MS.435         	8.555          	-0.982
MS.436         	8.537          	-0.972
MS.437         	8.52           	-0.958
MS.438         	8.502          	-0.988
MS.439         	8.485          	-0.993
MS.440         	8.47           	-0.991
MS.441         	8.452          	-0.974
MS.442         	8.435          	-1
MS.443         	8.417          	-0.976
MS.444         	8.403          	-0.933
DERIVED EXCITABILITY VARIABLES
Program = QTracP 27/06/2023
Threshold method = 6 (optimised for CAP, using data for present condition only)
SR method = 1 (using actual data values)
6.                 	0.000               	Peak response\(mV)
9.                 	33.3                	Temperature ( C)
17.                	21                  	Age (years)
18.                	2                   	Sex (M=1, F=2)

EXTRA VARIABLES

MScPeak(mV) = 6.61
MScS5(mA) = 13.29
MScS50(mA) = 16.2
MScNSteps = 2
MScSteps(%) = 4.4
MScStepMax(%) = 2.4
MScD50 = 56
MScSlope = 4.59
MScDuration(min) = 5.9
MSFTraces = 440
MSFPeakAmp(mV) = 6.6
MSFNUnits = 174
MSFMeanUnitAmp(uV) = 37.9
MSFHuntTime(m) = 1.58
MSFError(%) = 2.15
MSFNLarge = 64.22
MSFMedianAmp(%) = 0.524
MSFMedianAmp(mV) = 0.0346
MSFHalfAmpAmp(%) = 0.593
MSFHalfAmpAmp(mV) = 0.0391
MSFLargestAmp(%) = 2
MSFLargestAmp(mV) = 0.132
MSFMeanRS(%) = 2
MSFSizeLimit(uV) = 22
MSFLimitType = 1
MSFSmallestAmp(uV) = 22.2
MSFOpts = 10104222032
MSFSDMax = 42.4
MSFSDMin = 20

EXTRA WAVEFORMS


!MScan Model
!174
	1	10.36	0.49	2
	2	10.69	0.54	2
	3	10.94	1.33	2
	4	11.23	0.75	2
	5	11.34	0.49	2
	6	11.41	0.6	2
	7	11.5	0.51	2
	8	11.55	0.42	2
	9	11.6	0.34	2
	10	11.69	0.52	2
	11	11.81	0.83	2
	12	11.93	0.59	2
	13	12.01	0.59	2
	14	12.06	0.4	2
	15	12.12	0.62	2
	16	12.17	0.41	2
	17	12.23	0.42	2
	18	12.29	0.75	2
	19	12.34	0.49	2
	20	12.39	0.38	2
	21	12.44	0.35	2
	22	12.51	0.83	2
	23	12.61	0.64	2
	24	12.67	0.41	2
	25	12.72	0.39	2
	26	12.79	0.48	2
	27	12.86	0.6	2
	28	12.9	0.38	2
	29	12.95	0.4	2
	30	13.01	0.59	2
	31	13.06	0.61	2
	32	13.09	0.34	2
	33	13.12	0.4	2
	34	13.15	0.42	2
	35	13.22	0.59	2
	36	13.27	0.65	2
	37	13.29	0.35	2
	38	13.34	0.64	2
	39	13.38	0.56	2
	40	13.41	0.38	2
	41	13.44	0.46	2
	42	13.47	0.48	2
	43	13.49	0.37	2
	44	13.52	0.53	2
	45	13.55	0.62	2
	46	13.59	0.61	2
	47	13.63	0.77	2
	48	13.69	0.83	2
	49	13.73	0.58	2
	50	13.76	0.55	2
	51	13.83	0.62	2
	52	13.86	0.48	2
	53	13.9	0.5	2
	54	13.93	0.38	2
	55	13.96	0.44	2
	56	14	0.37	2
	57	14.03	0.38	2
	58	14.06	0.5	2
	59	14.1	0.53	2
	60	14.13	0.49	2
	61	14.17	0.55	2
	62	14.2	0.52	2
	63	14.23	0.48	2
	64	14.26	0.45	2
	65	14.3	0.41	2
	66	14.33	0.51	2
	67	14.36	0.53	2
	68	14.39	0.48	2
	69	14.42	0.43	2
	70	14.45	0.45	2
	71	14.48	0.44	2
	72	14.51	0.38	2
	73	14.53	0.38	2
	74	14.56	0.39	2
	75	14.58	0.41	2
	76	14.61	0.41	2
	77	14.63	0.42	2
	78	14.69	0.7	2
	79	14.72	0.35	2
	80	14.74	0.37	2
	81	14.77	0.37	2
	82	14.8	0.35	2
	83	14.82	0.35	2
	84	14.85	0.5	2
	85	14.87	0.51	2
	86	14.9	0.45	2
	87	14.92	0.36	2
	88	14.96	0.6	2
	89	15	0.61	2
	90	15.02	0.4	2
	91	15.04	0.45	2
	92	15.06	0.45	2
	93	15.08	0.61	2
	94	15.11	0.76	2
	95	15.14	0.58	2
	96	15.18	0.48	2
	97	15.21	0.56	2
	98	15.25	0.74	2
	99	15.29	0.79	2
	100	15.33	0.71	2
	101	15.37	0.63	2
	102	15.39	0.35	2
	103	15.42	0.35	2
	104	15.44	0.34	2
	105	15.48	0.99	2
	106	15.53	0.38	2
	107	15.56	0.59	2
	108	15.59	0.78	2
	109	15.64	0.78	2
	110	15.67	0.61	2
	111	15.71	0.63	2
	112	15.75	0.76	2
	113	15.79	0.68	2
	114	15.84	0.64	2
	115	15.93	1.56	2
	116	16.02	1.19	2
	117	16.1	1.11	2
	118	16.17	1.06	2
	119	16.22	0.8	2
	120	16.27	0.8	2
	121	16.32	0.8	2
	122	16.35	0.54	2
	123	16.39	0.53	2
	124	16.42	0.45	2
	125	16.46	0.41	2
	126	16.49	0.41	2
	127	16.52	0.4	2
	128	16.55	0.43	2
	129	16.59	0.43	2
	130	16.62	0.4	2
	131	16.65	0.4	2
	132	16.69	0.46	2
	133	16.73	0.43	2
	134	16.8	0.68	2
	135	16.85	0.52	2
	136	16.89	0.49	2
	137	16.94	0.51	2
	138	16.99	0.62	2
	139	17.04	0.56	2
	140	17.1	0.5	2
	141	17.15	1.13	2
	142	17.22	0.49	2
	143	17.25	0.48	2
	144	17.29	0.56	2
	145	17.32	0.58	2
	146	17.36	0.68	2
	147	17.4	0.71	2
	148	17.45	0.5	2
	149	17.49	0.62	2
	150	17.54	0.79	2
	151	17.6	0.98	2
	152	17.66	0.65	2
	153	17.72	0.6	2
	154	17.78	0.67	2
	155	17.84	0.67	2
	156	17.92	0.8	2
	157	18.01	0.81	2
	158	18.1	0.74	2
	159	18.19	0.98	2
	160	18.26	0.58	2
	161	18.33	0.52	2
	162	18.39	0.61	2
	163	18.47	0.76	2
	164	18.56	0.67	2
	165	18.63	0.59	2
	166	18.7	0.42	2
	167	18.76	0.5	2
	168	18.85	0.64	2
	169	18.89	0.34	2
	170	18.93	0.35	2
	171	18.99	0.54	2
	172	19.12	0.72	2
	173	19.28	2	2
	174	19.48	0.71	2

