File:              	C:\Qtrac\Data\ME2C30621A.QZD
Name:              	 RO11A
Protocol:          	MSCAN-MV
Date:              	21/6/23
Date of birth:     	11/8/01
Age:               	21
Sex:               	F
Temperature:       	33.0
S/R sites:         	Knee CF-TA
NC/disease:        	NC
Operator:          	BY
Comments:
M-SCAN DATA (Repeat 1/4, 9.7-3.8m)
Scanpts: 29, 44, 462, 489
Stim. (mA)     	Amp. (mV)
MS.1           	22.5           	5.321
MS.2           	22.5           	5.359
MS.3           	22.5           	5.33
MS.4           	22.5           	5.352
MS.5           	22.5           	5.357
MS.6           	22.5           	5.364
MS.7           	22.5           	5.385
MS.8           	22.5           	5.405
MS.9           	22.5           	5.404
MS.10          	22.5           	5.385
MS.11          	22.5           	5.369
MS.12          	22.5           	5.37
MS.13          	22.5           	5.363
MS.14          	22.5           	5.389
MS.15          	22.5           	5.378
MS.16          	22.5           	5.383
MS.17          	22.5           	5.421
MS.18          	22.5           	5.357
MS.19          	22.5           	5.43
MS.20          	22.5           	5.424
MS.21          	22.5           	5.373
MS.22          	22.5           	5.425
MS.23          	22.5           	5.373
MS.24          	22.41          	5.366
MS.25          	22.365         	5.358
MS.26          	22.32          	5.357
MS.27          	22.275         	5.411
MS.28          	22.233         	5.383
MS.29          	22.188         	5.393
MS.30          	22.142         	5.343
MS.31          	22.097         	5.363
MS.32          	22.055         	5.392
MS.33          	22.01          	5.369
MS.34          	21.967         	5.423
MS.35          	21.922         	5.411
MS.36          	21.877         	5.425
MS.37          	21.835         	5.349
MS.38          	21.792         	5.391
MS.39          	21.747         	5.364
MS.40          	21.705         	5.403
MS.41          	21.66          	5.383
MS.42          	21.618         	5.378
MS.43          	21.575         	5.366
MS.44          	21.532         	5.413
MS.45          	21.487         	5.269
MS.46          	21.445         	5.412
MS.47          	21.403         	5.383
MS.48          	21.36          	5.359
MS.49          	21.317         	5.333
MS.50          	21.275         	5.291
MS.51          	21.233         	5.229
MS.52          	21.19          	5.43
MS.53          	21.147         	5.259
MS.54          	21.105         	5.32
MS.55          	21.062         	5.352
MS.56          	21.02          	5.365
MS.57          	20.98          	5.25
MS.58          	20.938         	5.347
MS.59          	20.895         	5.289
MS.60          	20.852         	5.199
MS.61          	20.812         	5.297
MS.62          	20.77          	5.314
MS.63          	20.727         	5.292
MS.64          	20.688         	5.316
MS.65          	20.645         	5.297
MS.66          	20.605         	5.414
MS.67          	20.562         	5.326
MS.68          	20.522         	5.364
MS.69          	20.483         	5.195
MS.70          	20.44          	5.231
MS.71          	20.4           	5.259
MS.72          	20.36          	5.212
MS.73          	20.317         	5.206
MS.74          	20.278         	5.306
MS.75          	20.237         	5.212
MS.76          	20.198         	5.183
MS.77          	20.155         	5.242
MS.78          	20.115         	5.162
MS.79          	20.075         	5.279
MS.80          	20.035         	5.234
MS.81          	19.995         	5.217
MS.82          	19.955         	5.165
MS.83          	19.915         	5.215
MS.84          	19.875         	5.214
MS.85          	19.837         	5.153
MS.86          	19.797         	5.187
MS.87          	19.757         	5.258
MS.88          	19.717         	5.198
MS.89          	19.677         	5.129
MS.90          	19.64          	5.18
MS.91          	19.6           	5.197
MS.92          	19.56          	5.15
MS.93          	19.522         	5.223
MS.94          	19.483         	5.047
MS.95          	19.442         	5.204
MS.96          	19.405         	5.134
MS.97          	19.365         	5.146
MS.98          	19.327         	5.168
MS.99          	19.288         	4.973
MS.100         	19.25          	5.121
MS.101         	19.212         	5.108
MS.102         	19.172         	4.95
MS.103         	19.135         	4.989
MS.104         	19.097         	5.132
MS.105         	19.057         	5.081
MS.106         	19.02          	5.137
MS.107         	18.983         	5.114
MS.108         	18.945         	5.118
MS.109         	18.907         	5.052
MS.110         	18.87          	4.966
MS.111         	18.83          	4.806
MS.112         	18.792         	4.855
MS.113         	18.755         	4.839
MS.114         	18.717         	4.863
MS.115         	18.68          	4.694
MS.116         	18.645         	4.971
MS.117         	18.608         	4.734
MS.118         	18.57          	4.643
MS.119         	18.532         	4.705
MS.120         	18.495         	4.645
MS.121         	18.458         	4.747
MS.122         	18.422         	4.439
MS.123         	18.385         	4.664
MS.124         	18.347         	4.496
MS.125         	18.31          	4.602
MS.126         	18.275         	4.732
MS.127         	18.237         	4.502
MS.128         	18.202         	4.539
MS.129         	18.165         	4.55
MS.130         	18.13          	4.615
MS.131         	18.092         	4.581
MS.132         	18.057         	4.659
MS.133         	18.02          	4.467
MS.134         	17.985         	4.496
MS.135         	17.948         	4.568
MS.136         	17.913         	4.562
MS.137         	17.878         	4.413
MS.138         	17.84          	4.326
MS.139         	17.805         	4.412
MS.140         	17.77          	4.448
MS.141         	17.735         	4.357
MS.142         	17.7           	4.171
MS.143         	17.663         	4.393
MS.144         	17.628         	4.197
MS.145         	17.592         	4.345
MS.146         	17.557         	4.189
MS.147         	17.522         	4.312
MS.148         	17.487         	4.236
MS.149         	17.452         	3.976
MS.150         	17.417         	4.011
MS.151         	17.382         	4.2
MS.152         	17.347         	3.964
MS.153         	17.315         	4.111
MS.154         	17.28          	4.034
MS.155         	17.245         	4.04
MS.156         	17.21          	4.091
MS.157         	17.175         	4.164
MS.158         	17.142         	3.998
MS.159         	17.108         	3.896
MS.160         	17.073         	4
MS.161         	17.04          	3.699
MS.162         	17.005         	3.713
MS.163         	16.97          	3.865
MS.164         	16.938         	3.789
MS.165         	16.903         	3.663
MS.166         	16.87          	3.741
MS.167         	16.835         	3.816
MS.168         	16.802         	3.936
MS.169         	16.767         	3.848
MS.170         	16.735         	3.697
MS.171         	16.702         	3.809
MS.172         	16.667         	3.553
MS.173         	16.635         	3.595
MS.174         	16.602         	3.539
MS.175         	16.567         	3.603
MS.176         	16.535         	3.521
MS.177         	16.503         	3.834
MS.178         	16.47          	3.662
MS.179         	16.438         	3.67
MS.180         	16.405         	3.626
MS.181         	16.37          	3.443
MS.182         	16.337         	3.571
MS.183         	16.305         	3.539
MS.184         	16.272         	3.498
MS.185         	16.24          	3.559
MS.186         	16.208         	3.536
MS.187         	16.175         	3.575
MS.188         	16.142         	3.636
MS.189         	16.11          	3.532
MS.190         	16.08          	3.463
MS.191         	16.047         	3.381
MS.192         	16.015         	3.52
MS.193         	15.983         	3.36
MS.194         	15.95          	3.521
MS.195         	15.92          	3.413
MS.196         	15.887         	3.554
MS.197         	15.855         	3.536
MS.198         	15.822         	3.513
MS.199         	15.792         	3.416
MS.200         	15.76          	3.509
MS.201         	15.73          	3.489
MS.202         	15.697         	3.389
MS.203         	15.667         	3.353
MS.204         	15.635         	3.401
MS.205         	15.602         	3.399
MS.206         	15.572         	3.269
MS.207         	15.542         	3.261
MS.208         	15.51          	3.291
MS.209         	15.48          	3.254
MS.210         	15.447         	3.205
MS.211         	15.417         	3.224
MS.212         	15.387         	3.305
MS.213         	15.355         	3.14
MS.214         	15.325         	3.154
MS.215         	15.295         	3.174
MS.216         	15.265         	3.082
MS.217         	15.233         	3.177
MS.218         	15.202         	3.08
MS.219         	15.172         	3.12
MS.220         	15.142         	3.126
MS.221         	15.112         	2.886
MS.222         	15.082         	2.833
MS.223         	15.052         	3.112
MS.224         	15.023         	2.919
MS.225         	14.992         	3.045
MS.226         	14.962         	2.943
MS.227         	14.932         	2.956
MS.228         	14.902         	3.014
MS.229         	14.872         	2.967
MS.230         	14.842         	2.923
MS.231         	14.812         	2.811
MS.232         	14.782         	3.013
MS.233         	14.755         	2.77
MS.234         	14.725         	2.875
MS.235         	14.695         	2.591
MS.236         	14.665         	2.714
MS.237         	14.637         	2.759
MS.238         	14.608         	2.778
MS.239         	14.577         	2.621
MS.240         	14.55          	2.651
MS.241         	14.52          	2.832
MS.242         	14.49          	2.705
MS.243         	14.462         	2.633
MS.244         	14.432         	2.605
MS.245         	14.405         	2.512
MS.246         	14.375         	2.468
MS.247         	14.347         	2.479
MS.248         	14.318         	2.499
MS.249         	14.29          	2.489
MS.250         	14.26          	2.476
MS.251         	14.233         	2.462
MS.252         	14.205         	2.314
MS.253         	14.175         	2.324
MS.254         	14.148         	2.177
MS.255         	14.12          	2.224
MS.256         	14.09          	2.272
MS.257         	14.062         	2.2
MS.258         	14.035         	2.097
MS.259         	14.007         	2.059
MS.260         	13.977         	2.11
MS.261         	13.95          	2.05
MS.262         	13.922         	2.027
MS.263         	13.895         	2.138
MS.264         	13.867         	1.921
MS.265         	13.84          	1.765
MS.266         	13.812         	1.917
MS.267         	13.785         	1.751
MS.268         	13.757         	1.871
MS.269         	13.73          	1.875
MS.270         	13.702         	1.9
MS.271         	13.675         	1.837
MS.272         	13.648         	1.702
MS.273         	13.62          	1.65
MS.274         	13.592         	1.708
MS.275         	13.565         	1.902
MS.276         	13.537         	1.794
MS.277         	13.51          	1.487
MS.278         	13.485         	1.51
MS.279         	13.457         	1.467
MS.280         	13.43          	1.417
MS.281         	13.403         	1.375
MS.282         	13.377         	1.407
MS.283         	13.35          	1.467
MS.284         	13.322         	1.283
MS.285         	13.297         	1.397
MS.286         	13.27          	1.286
MS.287         	13.242         	1.093
MS.288         	13.217         	1.226
MS.289         	13.19          	1.149
MS.290         	13.165         	1.074
MS.291         	13.137         	1.232
MS.292         	13.112         	1.094
MS.293         	13.085         	1.175
MS.294         	13.06          	1.069
MS.295         	13.032         	1.152
MS.296         	13.007         	1.115
MS.297         	12.983         	1.108
MS.298         	12.955         	1.122
MS.299         	12.93          	1.071
MS.300         	12.903         	0.981
MS.301         	12.877         	1.015
MS.302         	12.852         	0.999
MS.303         	12.827         	0.947
MS.304         	12.8           	0.964
MS.305         	12.775         	0.964
MS.306         	12.75          	1.033
MS.307         	12.725         	0.982
MS.308         	12.7           	1.01
MS.309         	12.672         	0.909
MS.310         	12.648         	1.014
MS.311         	12.622         	0.92
MS.312         	12.597         	0.849
MS.313         	12.572         	0.888
MS.314         	12.547         	0.872
MS.315         	12.523         	0.821
MS.316         	12.497         	0.812
MS.317         	12.472         	0.856
MS.318         	12.447         	0.801
MS.319         	12.422         	0.825
MS.320         	12.398         	0.729
MS.321         	12.372         	0.776
MS.322         	12.347         	0.842
MS.323         	12.322         	0.714
MS.324         	12.3           	0.692
MS.325         	12.275         	0.784
MS.326         	12.25          	0.805
MS.327         	12.225         	0.628
MS.328         	12.2           	0.765
MS.329         	12.177         	0.697
MS.330         	12.153         	0.667
MS.331         	12.127         	0.646
MS.332         	12.102         	0.624
MS.333         	12.08          	0.616
MS.334         	12.055         	0.606
MS.335         	12.032         	0.682
MS.336         	12.007         	0.627
MS.337         	11.983         	0.626
MS.338         	11.96          	0.599
MS.339         	11.935         	0.675
MS.340         	11.912         	0.602
MS.341         	11.887         	0.65
MS.342         	11.865         	0.57
MS.343         	11.84          	0.589
MS.344         	11.818         	0.568
MS.345         	11.792         	0.577
MS.346         	11.77          	0.532
MS.347         	11.745         	0.422
MS.348         	11.722         	0.458
MS.349         	11.7           	0.475
MS.350         	11.675         	0.469
MS.351         	11.653         	0.488
MS.352         	11.63          	0.551
MS.353         	11.605         	0.51
MS.354         	11.582         	0.437
MS.355         	11.56          	0.455
MS.356         	11.537         	0.417
MS.357         	11.512         	0.45
MS.358         	11.49          	0.446
MS.359         	11.467         	0.435
MS.360         	11.445         	0.35
MS.361         	11.422         	0.309
MS.362         	11.4           	0.385
MS.363         	11.375         	0.354
MS.364         	11.352         	0.317
MS.365         	11.33          	0.322
MS.366         	11.307         	0.289
MS.367         	11.285         	0.267
MS.368         	11.262         	0.324
MS.369         	11.24          	0.383
MS.370         	11.217         	0.292
MS.371         	11.195         	0.206
MS.372         	11.172         	0.255
MS.373         	11.15          	0.297
MS.374         	11.127         	0.292
MS.375         	11.108         	0.21
MS.376         	11.085         	0.238
MS.377         	11.062         	0.328
MS.378         	11.04          	0.24
MS.379         	11.017         	0.24
MS.380         	10.995         	0.212
MS.381         	10.975         	0.255
MS.382         	10.952         	0.197
MS.383         	10.93          	0.162
MS.384         	10.907         	0.171
MS.385         	10.887         	0.168
MS.386         	10.865         	0.229
MS.387         	10.842         	0.205
MS.388         	10.82          	0.164
MS.389         	10.8           	0.205
MS.390         	10.778         	0.227
MS.391         	10.757         	0.167
MS.392         	10.735         	0.195
MS.393         	10.712         	0.143
MS.394         	10.693         	0.19
MS.395         	10.67          	0.162
MS.396         	10.65          	0.153
MS.397         	10.627         	0.158
MS.398         	10.608         	0.175
MS.399         	10.585         	0.161
MS.400         	10.565         	0.205
MS.401         	10.542         	0.159
MS.402         	10.523         	0.164
MS.403         	10.502         	0.161
MS.404         	10.48          	0.167
MS.405         	10.46          	0.153
MS.406         	10.438         	0.164
MS.407         	10.417         	0.149
MS.408         	10.398         	0.149
MS.409         	10.375         	0.156
MS.410         	10.355         	0.174
MS.411         	10.335         	0.139
MS.412         	10.315         	0.145
MS.413         	10.292         	0.159
MS.414         	10.273         	0.162
MS.415         	10.252         	0.143
MS.416         	10.233         	0.145
MS.417         	10.212         	0.15
MS.418         	10.19          	0.106
MS.419         	10.17          	0.145
MS.420         	10.15          	0.134
MS.421         	10.13          	0.154
MS.422         	10.11          	0.108
MS.423         	10.09          	0.109
MS.424         	10.07          	0.145
MS.425         	10.05          	0.152
MS.426         	10.03          	0.129
MS.427         	10.01          	0.105
MS.428         	9.99           	0.104
MS.429         	9.97           	0.148
MS.430         	9.95           	0.103
MS.431         	9.93           	0.142
MS.432         	9.91           	0.157
MS.433         	9.89           	0.146
MS.434         	9.87           	0.125
MS.435         	9.85           	0.126
MS.436         	9.83           	0.104
MS.437         	9.81           	0.104
MS.438         	9.792          	0.101
MS.439         	9.773          	0.143
MS.440         	9.752          	0.102
MS.441         	9.733          	0.137
MS.442         	9.712          	0.126
MS.443         	9.695          	0.099
MS.444         	9.675          	0.101
MS.445         	9.655          	0.1
MS.446         	9.635          	0.099
MS.447         	9.617          	0.123
MS.448         	9.597          	0.099
MS.449         	9.577          	0.1
MS.450         	9.56           	0.101
MS.451         	9.54           	0.099
MS.452         	9.52           	0.1
MS.453         	9.502          	0.099
MS.454         	9.483          	0.098
MS.455         	9.465          	0.101
MS.456         	9.445          	0.098
MS.457         	9.427          	0.118
MS.458         	9.407          	0.099
MS.459         	9.387          	0.098
MS.460         	9.37           	0.098
MS.461         	9.352          	0.096
MS.462         	9.332          	0.096
MS.463         	9.315          	0.098
MS.464         	9.295          	0.096
MS.465         	9.278          	0.097
MS.466         	9.257          	0.097
MS.467         	9.24           	0.096
MS.468         	9.222          	0.095
MS.469         	9.202          	0.094
MS.470         	9.185          	0.095
MS.471         	9.165          	0.096
MS.472         	9.148          	0.096
MS.473         	9.13           	0.095
MS.474         	9.113          	0.097
MS.475         	9.092          	0.097
MS.476         	9.075          	0.094
MS.477         	9.057          	0.096
MS.478         	9.037          	0.093
MS.479         	9.02           	0.095
MS.480         	9.002          	0.095
MS.481         	8.985          	0.093
MS.482         	8.967          	0.093
MS.483         	8.948          	0.092
MS.484         	8.93           	0.093
MS.485         	8.912          	0.093
MS.486         	8.895          	0.092
MS.487         	8.877          	0.095
MS.488         	8.86           	0.094
MS.489         	8.842          	0.092
DERIVED EXCITABILITY VARIABLES
Program = QTracP 05/05/2023
Threshold method = 6 (optimised for CAP, using data for present condition only)
SR method = 1 (using actual data values)
6.                 	0.000               	Peak response\(mV)
9.                 	33                  	Temperature ( C)
17.                	21                  	Age (years)
18.                	2                   	Sex (M=1, F=2)

EXTRA VARIABLES

MScPeak(mV) = 5.29
MScS5(mA) = 11.12
MScS50(mA) = 14.6
MScS95(mA) = 19.16
MScNSteps = 3
MScSteps(%) = 7.3
MScStepMax(%) = 2.6
MScD50 = 60
MScSlope = 3.75
MScDuration(min) = 6.5
MSFTraces = 461
MSFPeakAmp(mV) = 5.29
MSFNUnits = 95
MSFMeanUnitAmp(uV) = 55.7
MSFHuntTime(m) = 1.24
MSFError(%) = 2.3
MSFNLarge = 27.29
MSFMedianAmp(%) = 0.815
MSFMedianAmp(mV) = 0.0431
MSFHalfAmpAmp(%) = 1.24
MSFHalfAmpAmp(mV) = 0.0656
MSFLargestAmp(%) = 3.04
MSFLargestAmp(mV) = 0.161
MSFMeanRS(%) = 2
MSFSizeLimit(uV) = 17.6
MSFLimitType = 1
MSFSmallestAmp(uV) = 21
MSFOpts = 10104222032
MSFSDMax = 25.4
MSFSDMin = 1.72

EXTRA WAVEFORMS


!MScan Model
!95
	1	9.85	0.51	2
	2	10.38	0.63	2
	3	10.82	0.77	2
	4	11.05	0.9	2
	5	11.2	0.81	2
	6	11.29	0.83	2
	7	11.36	0.48	2
	8	11.43	0.66	2
	9	11.52	0.67	2
	10	11.59	0.62	2
	11	11.66	0.72	2
	12	11.75	0.79	2
	13	11.86	0.74	2
	14	11.96	0.75	2
	15	12.1	1.17	2
	16	12.21	0.78	2
	17	12.28	0.52	2
	18	12.35	0.62	2
	19	12.42	0.72	2
	20	12.48	0.7	2
	21	12.54	0.46	2
	22	12.6	0.46	2
	23	12.65	0.49	2
	24	12.7	0.53	2
	25	12.76	0.65	2
	26	12.86	0.87	2
	27	12.98	0.95	2
	28	13.19	1.47	2
	29	13.25	1.31	2
	30	13.3	0.7	2
	31	13.31	0.75	2
	32	13.34	0.81	2
	33	13.39	1.1	2
	34	13.44	1.12	2
	35	13.5	1.05	2
	36	13.55	1.24	2
	37	13.61	1.25	2
	38	13.65	0.95	2
	39	13.66	1.21	2
	40	13.72	1.4	2
	41	13.78	1.26	2
	42	13.81	0.6	2
	43	13.84	0.56	2
	44	13.87	0.59	2
	45	13.9	0.62	2
	46	13.93	0.58	2
	47	13.95	0.49	2
	48	13.98	0.47	2
	49	14	0.4	2
	50	14.02	0.41	2
	51	14.05	0.46	2
	52	14.07	0.51	2
	53	14.09	0.53	2
	54	14.12	0.6	2
	55	14.15	0.65	2
	56	14.17	0.63	2
	57	14.2	0.59	2
	58	14.22	0.55	2
	59	14.26	0.73	2
	60	14.3	0.74	2
	61	14.34	0.67	2
	62	14.39	0.8	2
	63	14.45	1.25	2
	64	14.51	1.11	2
	65	14.59	1.14	2
	66	14.66	1.07	2
	67	14.83	2.2	2
	68	14.97	1.67	2
	69	15.12	1.75	2
	70	15.21	1.01	2
	71	15.3	0.98	2
	72	15.38	0.83	2
	73	15.44	0.85	2
	74	15.5	0.71	2
	75	15.55	0.65	2
	76	15.68	1.15	2
	77	16.01	2.34	2
	78	16.54	3.04	2
	79	16.83	2.46	2
	80	17.05	2.17	2
	81	17.21	1.99	2
	82	17.33	1.49	2
	83	17.45	1.72	2
	84	17.57	1.61	2
	85	17.66	0.94	2
	86	17.77	1.38	2
	87	17.96	1.55	2
	88	18.28	2.68	2
	89	18.47	2.22	2
	90	18.58	1.55	2
	91	18.7	1.44	2
	92	18.86	1.44	2
	93	19.13	2.58	2
	94	19.61	1.69	2
	95	20.6	2.74	2

