File:              	C:\Qtrac\Data\ME2C30705A.QZD
Name:              	 ME14L
Protocol:          	MSCAN-MV
Date:              	5/7/23
Date of birth:     	14/6/01
Age:               	22
Sex:               	M
Temperature:       	33.2
S/R sites:         	Knee CF-TA
NC/disease:        	NC
Operator:          	BY
Comments:
M-SCAN DATA (Repeat 1/3, 9.9-3.8m)
Scanpts: 1, 23, 448, 500
Stim. (mA)     	Amp. (mV)
MS.1           	18.5           	5.178
MS.2           	18.5           	5.142
MS.3           	18.5           	5.118
MS.4           	18.5           	5.111
MS.5           	18.5           	5.14
MS.6           	18.5           	5.146
MS.7           	18.5           	5.129
MS.8           	18.5           	5.106
MS.9           	18.5           	5.133
MS.10          	18.5           	5.11
MS.11          	18.5           	5.131
MS.12          	18.5           	5.123
MS.13          	18.5           	5.159
MS.14          	18.5           	5.125
MS.15          	18.5           	5.142
MS.16          	18.5           	5.114
MS.17          	18.5           	5.139
MS.18          	18.5           	5.146
MS.19          	18.5           	5.153
MS.20          	18.5           	5.117
MS.21          	18.5           	5.161
MS.22          	18.5           	5.184
MS.23          	18.5           	5.104
MS.24          	18.425         	5.138
MS.25          	18.39          	5.14
MS.26          	18.352         	5.115
MS.27          	18.315         	5.09
MS.28          	18.28          	5.106
MS.29          	18.243         	5.118
MS.30          	18.208         	5.084
MS.31          	18.17          	5.081
MS.32          	18.132         	5.095
MS.33          	18.097         	5.227
MS.34          	18.06          	5.036
MS.35          	18.025         	5.077
MS.36          	17.99          	5.104
MS.37          	17.952         	5.185
MS.38          	17.917         	5.203
MS.39          	17.882         	5.121
MS.40          	17.845         	5.166
MS.41          	17.81          	5.215
MS.42          	17.775         	5.03
MS.43          	17.74          	4.981
MS.44          	17.702         	5.128
MS.45          	17.667         	5.024
MS.46          	17.632         	5.114
MS.47          	17.597         	4.993
MS.48          	17.562         	5.15
MS.49          	17.528         	5.019
MS.50          	17.493         	4.976
MS.51          	17.458         	4.946
MS.52          	17.422         	5.021
MS.53          	17.387         	5.129
MS.54          	17.352         	4.951
MS.55          	17.317         	4.943
MS.56          	17.285         	5.067
MS.57          	17.25          	4.956
MS.58          	17.215         	4.949
MS.59          	17.18          	4.918
MS.60          	17.145         	5.106
MS.61          	17.112         	5.024
MS.62          	17.077         	4.941
MS.63          	17.042         	4.992
MS.64          	17.01          	4.933
MS.65          	16.975         	4.813
MS.66          	16.942         	4.98
MS.67          	16.907         	4.993
MS.68          	16.875         	5.004
MS.69          	16.84          	5.054
MS.70          	16.807         	5.001
MS.71          	16.772         	4.996
MS.72          	16.74          	4.965
MS.73          	16.705         	4.94
MS.74          	16.672         	4.889
MS.75          	16.64          	4.879
MS.76          	16.605         	4.924
MS.77          	16.573         	4.925
MS.78          	16.54          	4.937
MS.79          	16.507         	4.902
MS.80          	16.472         	4.896
MS.81          	16.44          	4.89
MS.82          	16.407         	4.975
MS.83          	16.375         	4.903
MS.84          	16.342         	4.961
MS.85          	16.31          	4.966
MS.86          	16.278         	4.853
MS.87          	16.245         	4.896
MS.88          	16.212         	4.888
MS.89          	16.18          	4.859
MS.90          	16.147         	4.93
MS.91          	16.115         	4.903
MS.92          	16.083         	4.814
MS.93          	16.05          	4.813
MS.94          	16.02          	4.877
MS.95          	15.987         	4.843
MS.96          	15.955         	4.833
MS.97          	15.922         	4.808
MS.98          	15.89          	4.806
MS.99          	15.86          	4.814
MS.100         	15.827         	4.64
MS.101         	15.795         	4.769
MS.102         	15.765         	4.73
MS.103         	15.733         	4.761
MS.104         	15.702         	4.689
MS.105         	15.67          	4.644
MS.106         	15.64          	4.581
MS.107         	15.608         	4.697
MS.108         	15.577         	4.676
MS.109         	15.545         	4.631
MS.110         	15.515         	4.588
MS.111         	15.483         	4.595
MS.112         	15.452         	4.587
MS.113         	15.422         	4.665
MS.114         	15.39          	4.392
MS.115         	15.36          	4.62
MS.116         	15.33          	4.518
MS.117         	15.297         	4.478
MS.118         	15.267         	4.526
MS.119         	15.237         	4.464
MS.120         	15.207         	4.437
MS.121         	15.177         	4.365
MS.122         	15.148         	4.464
MS.123         	15.115         	4.452
MS.124         	15.085         	4.192
MS.125         	15.055         	4.454
MS.126         	15.025         	4.406
MS.127         	14.995         	4.392
MS.128         	14.965         	4.335
MS.129         	14.935         	4.38
MS.130         	14.905         	4.133
MS.131         	14.877         	4.152
MS.132         	14.847         	4.275
MS.133         	14.818         	4.25
MS.134         	14.787         	4.325
MS.135         	14.757         	4.116
MS.136         	14.727         	4.084
MS.137         	14.7           	4.075
MS.138         	14.67          	4.028
MS.139         	14.64          	3.998
MS.140         	14.61          	4.114
MS.141         	14.582         	3.973
MS.142         	14.552         	4.111
MS.143         	14.523         	3.95
MS.144         	14.495         	4.001
MS.145         	14.465         	4.005
MS.146         	14.438         	3.845
MS.147         	14.407         	4.105
MS.148         	14.38          	3.814
MS.149         	14.35          	3.87
MS.150         	14.322         	3.984
MS.151         	14.292         	4.065
MS.152         	14.265         	3.97
MS.153         	14.235         	3.753
MS.154         	14.207         	3.945
MS.155         	14.18          	3.692
MS.156         	14.15          	3.746
MS.157         	14.122         	3.602
MS.158         	14.095         	3.718
MS.159         	14.065         	3.702
MS.160         	14.037         	3.543
MS.161         	14.01          	3.772
MS.162         	13.983         	3.689
MS.163         	13.955         	3.496
MS.164         	13.925         	3.553
MS.165         	13.898         	3.527
MS.166         	13.87          	3.514
MS.167         	13.842         	3.454
MS.168         	13.815         	3.545
MS.169         	13.787         	3.542
MS.170         	13.76          	3.528
MS.171         	13.733         	3.661
MS.172         	13.705         	3.575
MS.173         	13.677         	3.425
MS.174         	13.65          	3.35
MS.175         	13.622         	3.401
MS.176         	13.595         	3.226
MS.177         	13.568         	3.458
MS.178         	13.542         	3.378
MS.179         	13.515         	3.322
MS.180         	13.487         	3.25
MS.181         	13.46          	3.193
MS.182         	13.432         	3.157
MS.183         	13.407         	3.197
MS.184         	13.38          	3.205
MS.185         	13.352         	3.116
MS.186         	13.327         	3.237
MS.187         	13.3           	3.137
MS.188         	13.273         	3.176
MS.189         	13.247         	3.025
MS.190         	13.22          	3.015
MS.191         	13.195         	2.983
MS.192         	13.167         	2.975
MS.193         	13.142         	2.986
MS.194         	13.115         	2.982
MS.195         	13.09          	2.852
MS.196         	13.062         	2.831
MS.197         	13.037         	2.782
MS.198         	13.01          	2.764
MS.199         	12.985         	2.788
MS.200         	12.957         	2.927
MS.201         	12.932         	2.802
MS.202         	12.907         	2.676
MS.203         	12.88          	2.78
MS.204         	12.855         	2.728
MS.205         	12.83          	2.702
MS.206         	12.805         	2.545
MS.207         	12.778         	2.762
MS.208         	12.752         	2.58
MS.209         	12.727         	2.645
MS.210         	12.702         	2.444
MS.211         	12.677         	2.478
MS.212         	12.653         	2.293
MS.213         	12.625         	2.573
MS.214         	12.6           	2.34
MS.215         	12.575         	2.424
MS.216         	12.55          	2.438
MS.217         	12.525         	2.353
MS.218         	12.5           	2.299
MS.219         	12.475         	2.313
MS.220         	12.45          	2.311
MS.221         	12.425         	2.147
MS.222         	12.4           	2.286
MS.223         	12.375         	2.11
MS.224         	12.352         	2.184
MS.225         	12.327         	2.158
MS.226         	12.302         	2.225
MS.227         	12.278         	2.088
MS.228         	12.252         	2.097
MS.229         	12.227         	1.88
MS.230         	12.205         	2.069
MS.231         	12.18          	2.075
MS.232         	12.155         	2.003
MS.233         	12.13          	1.942
MS.234         	12.108         	1.962
MS.235         	12.082         	2.049
MS.236         	12.057         	1.649
MS.237         	12.035         	1.666
MS.238         	12.01          	1.932
MS.239         	11.988         	1.924
MS.240         	11.962         	1.844
MS.241         	11.938         	1.811
MS.242         	11.915         	1.811
MS.243         	11.89          	1.776
MS.244         	11.867         	1.763
MS.245         	11.842         	1.796
MS.246         	11.82          	1.619
MS.247         	11.795         	1.742
MS.248         	11.773         	1.731
MS.249         	11.75          	1.509
MS.250         	11.725         	1.4
MS.251         	11.702         	1.517
MS.252         	11.677         	1.387
MS.253         	11.655         	1.292
MS.254         	11.632         	1.519
MS.255         	11.61          	1.274
MS.256         	11.585         	1.359
MS.257         	11.562         	1.396
MS.258         	11.54          	1.304
MS.259         	11.517         	1.222
MS.260         	11.492         	1.231
MS.261         	11.47          	1.282
MS.262         	11.447         	1.403
MS.263         	11.425         	1.272
MS.264         	11.403         	1.192
MS.265         	11.38          	1.157
MS.266         	11.355         	1.188
MS.267         	11.332         	1.153
MS.268         	11.31          	1.138
MS.269         	11.287         	1.168
MS.270         	11.265         	1.108
MS.271         	11.242         	1.082
MS.272         	11.22          	0.987
MS.273         	11.197         	1.048
MS.274         	11.175         	1.174
MS.275         	11.153         	1.025
MS.276         	11.132         	1.075
MS.277         	11.11          	1.136
MS.278         	11.087         	1.033
MS.279         	11.065         	1.005
MS.280         	11.042         	0.927
MS.281         	11.02          	0.779
MS.282         	10.997         	0.922
MS.283         	10.977         	0.923
MS.284         	10.955         	0.912
MS.285         	10.932         	0.97
MS.286         	10.91          	0.751
MS.287         	10.89          	0.716
MS.288         	10.867         	0.745
MS.289         	10.845         	0.687
MS.290         	10.825         	0.701
MS.291         	10.802         	0.798
MS.292         	10.78          	0.78
MS.293         	10.76          	0.71
MS.294         	10.738         	0.7
MS.295         	10.717         	0.609
MS.296         	10.695         	0.753
MS.297         	10.672         	0.653
MS.298         	10.653         	0.593
MS.299         	10.63          	0.63
MS.300         	10.61          	0.557
MS.301         	10.587         	0.605
MS.302         	10.568         	0.688
MS.303         	10.545         	0.724
MS.304         	10.525         	0.424
MS.305         	10.505         	0.504
MS.306         	10.483         	0.473
MS.307         	10.462         	0.468
MS.308         	10.443         	0.407
MS.309         	10.42          	0.502
MS.310         	10.4           	0.58
MS.311         	10.38          	0.375
MS.312         	10.358         	0.437
MS.313         	10.337         	0.434
MS.314         	10.318         	0.45
MS.315         	10.295         	0.446
MS.316         	10.275         	0.425
MS.317         	10.255         	0.367
MS.318         	10.235         	0.393
MS.319         	10.215         	0.295
MS.320         	10.193         	0.411
MS.321         	10.172         	0.392
MS.322         	10.153         	0.422
MS.323         	10.132         	0.272
MS.324         	10.113         	0.3
MS.325         	10.092         	0.29
MS.326         	10.073         	0.276
MS.327         	10.052         	0.29
MS.328         	10.032         	0.295
MS.329         	10.012         	0.278
MS.330         	9.992          	0.364
MS.331         	9.972          	0.234
MS.332         	9.952          	0.274
MS.333         	9.932          	0.228
MS.334         	9.912          	0.272
MS.335         	9.892          	0.206
MS.336         	9.872          	0.289
MS.337         	9.852          	0.219
MS.338         	9.832          	0.17
MS.339         	9.812          	0.248
MS.340         	9.795          	0.237
MS.341         	9.775          	0.184
MS.342         	9.755          	0.157
MS.343         	9.735          	0.095
MS.344         	9.715          	0.211
MS.345         	9.698          	0.179
MS.346         	9.677          	0.202
MS.347         	9.657          	0.115
MS.348         	9.637          	0.111
MS.349         	9.62           	0.063
MS.350         	9.6            	0.165
MS.351         	9.58           	0.04
MS.352         	9.562          	0.037
MS.353         	9.542          	0.06
MS.354         	9.523          	0.063
MS.355         	9.505          	0.147
MS.356         	9.485          	0.035
MS.357         	9.467          	0.061
MS.358         	9.448          	0.2
MS.359         	9.43           	0.07
MS.360         	9.41           	0.082
MS.361         	9.39           	0.14
MS.362         	9.372          	-0.011
MS.363         	9.352          	0.059
MS.364         	9.335          	0.021
MS.365         	9.318          	0.135
MS.366         	9.297          	0.042
MS.367         	9.28           	0.043
MS.368         	9.26           	0.032
MS.369         	9.242          	-0.005
MS.370         	9.222          	0.035
MS.371         	9.205          	-0.017
MS.372         	9.188          	-0.003
MS.373         	9.167          	0.034
MS.374         	9.15           	0.005
MS.375         	9.132          	-0.031
MS.376         	9.113          	0.019
MS.377         	9.095          	0.035
MS.378         	9.077          	0.009
MS.379         	9.06           	0.023
MS.380         	9.04           	0.06
MS.381         	9.023          	0.016
MS.382         	9.005          	0.018
MS.383         	8.988          	-0.004
MS.384         	8.97           	-0.014
MS.385         	8.95           	0.012
MS.386         	8.932          	0.007
MS.387         	8.915          	0.031
MS.388         	8.898          	0.019
MS.389         	8.88           	0.002
MS.390         	8.863          	-0.005
MS.391         	8.845          	0.048
MS.392         	8.827          	-0.007
MS.393         	8.81           	-0.005
MS.394         	8.792          	-0.03
MS.395         	8.775          	-0.025
MS.396         	8.755          	-0.039
MS.397         	8.74           	0.015
MS.398         	8.722          	0.004
MS.399         	8.705          	0.016
MS.400         	8.688          	-0.007
MS.401         	8.67           	-0.03
MS.402         	8.653          	0.018
MS.403         	8.635          	-0.031
MS.404         	8.617          	-0.016
MS.405         	8.6            	-0.042
MS.406         	8.582          	-0.031
MS.407         	8.565          	-0.003
MS.408         	8.547          	-0.019
MS.409         	8.533          	0.018
MS.410         	8.515          	-0.01
MS.411         	8.497          	-0.004
MS.412         	8.48           	-0.013
MS.413         	8.462          	-0.041
MS.414         	8.448          	-0.009
MS.415         	8.43           	-0.005
MS.416         	8.412          	-0.015
MS.417         	8.395          	-0.013
MS.418         	8.38           	-0.032
MS.419         	8.363          	-0.005
MS.420         	8.345          	-0.027
MS.421         	8.33           	-0.012
MS.422         	8.312          	-0.013
MS.423         	8.295          	0.005
MS.424         	8.28           	-0.005
MS.425         	8.262          	-0.005
MS.426         	8.247          	-0.012
MS.427         	8.23           	-0.032
MS.428         	8.212          	-0.031
MS.429         	8.198          	-0.033
MS.430         	8.18           	-0.023
MS.431         	8.165          	-0.009
MS.432         	8.148          	-0.031
MS.433         	8.132          	-0.031
MS.434         	8.115          	-0.031
MS.435         	8.1            	-0.011
MS.436         	8.082          	-0.029
MS.437         	8.068          	-0.032
MS.438         	8.05           	-0.01
MS.439         	8.035          	-0.032
MS.440         	8.017          	-0.032
MS.441         	8.002          	-0.009
MS.442         	7.987          	-0.031
MS.443         	7.97           	-0.032
MS.444         	7.955          	-0.01
MS.445         	7.94           	-0.032
MS.446         	7.922          	-0.029
MS.447         	7.907          	-0.032
MS.448         	7.892          	-0.031
MS.449         	7.875          	-0.033
MS.450         	7.86           	-0.027
MS.451         	7.845          	-0.03
MS.452         	7.827          	-0.029
MS.453         	7.812          	-0.031
MS.454         	7.797          	-0.028
MS.455         	7.782          	-0.031
MS.456         	7.765          	-0.032
MS.457         	7.75           	-0.029
MS.458         	7.735          	-0.031
MS.459         	7.72           	-0.032
MS.460         	7.705          	-0.029
MS.461         	7.69           	-0.028
MS.462         	7.672          	-0.03
MS.463         	7.657          	-0.032
MS.464         	7.642          	-0.029
MS.465         	7.628          	-0.031
MS.466         	7.612          	-0.029
MS.467         	7.597          	-0.027
MS.468         	7.582          	-0.031
MS.469         	7.567          	-0.043
MS.470         	7.552          	-0.031
MS.471         	7.537          	-0.034
MS.472         	7.523          	-0.031
MS.473         	7.507          	-0.029
MS.474         	7.492          	-0.027
MS.475         	7.477          	-0.03
MS.476         	7.462          	-0.031
MS.477         	7.447          	-0.029
MS.478         	7.432          	-0.028
MS.479         	7.418          	-0.032
MS.480         	7.402          	-0.027
MS.481         	7.387          	-0.029
MS.482         	7.372          	-0.031
MS.483         	7.357          	-0.027
MS.484         	7.342          	-0.03
MS.485         	7.327          	-0.028
MS.486         	7.315          	-0.027
MS.487         	7.3            	-0.03
MS.488         	7.285          	-0.028
MS.489         	7.27           	-0.029
MS.490         	7.255          	-0.029
MS.491         	7.24           	-0.03
MS.492         	7.227          	-0.029
MS.493         	7.212          	-0.026
MS.494         	7.197          	-0.026
MS.495         	7.182          	-0.026
MS.496         	7.17           	-0.03
MS.497         	7.155          	-0.029
MS.498         	7.14           	-0.029
MS.499         	7.125          	-0.027
MS.500         	7.112          	-0.026
DERIVED EXCITABILITY VARIABLES
Program = QTracP 27/06/2023
Threshold method = 6 (optimised for CAP, using data for present condition only)
SR method = 1 (using actual data values)
6.                 	0.000               	Peak response\(mV)
9.                 	33.2                	Temperature ( C)
17.                	22                  	Age (years)
18.                	1                   	Sex (M=1, F=2)

EXTRA VARIABLES

MScPeak(mV) = 5.16
MScS5(mA) = 9.92
MScS50(mA) = 12.77
MScS95(mA) = 16.5
MScNSteps = 2
MScSteps(%) = 4.3
MScStepMax(%) = 2.2
MScD50 = 57
MScSlope = 4.57
MScDuration(min) = 6.7
MSFTraces = 500
MSFPeakAmp(mV) = 5.16
MSFNUnits = 86
MSFMeanUnitAmp(uV) = 60.1
MSFHuntTime(m) = 2.35
MSFError(%) = 2.46
MSFNLarge = 30.06
MSFMedianAmp(%) = 1.07
MSFMedianAmp(mV) = 0.0551
MSFHalfAmpAmp(%) = 1.23
MSFHalfAmpAmp(mV) = 0.0636
MSFLargestAmp(%) = 3.05
MSFLargestAmp(mV) = 0.158
MSFMeanRS(%) = 2.01
MSFSizeLimit(uV) = 17.2
MSFLimitType = 1
MSFSmallestAmp(uV) = 18.2
MSFOpts = 10104222032
MSFSDMax = 22
MSFSDMin = 2.67

EXTRA WAVEFORMS


!MScan Model
!86
	1	8.58	0.44	2.01
	2	9.33	1.5	2.01
	3	9.67	1.59	2.01
	4	9.68	0.78	2.01
	5	9.88	0.88	2.01
	6	9.98	0.8	2.01
	7	10.08	0.92	2.01
	8	10.19	0.84	2.01
	9	10.32	1.37	2.01
	10	10.42	1.15	2.01
	11	10.51	1.09	2.01
	12	10.6	0.35	2.01
	13	10.62	1.32	2.01
	14	10.72	1.43	2.01
	15	10.8	1.23	2.01
	16	10.87	1.08	2.01
	17	10.93	0.89	2.01
	18	11.01	1.52	2.01
	19	11.11	0.74	2.01
	20	11.18	1.49	2.01
	21	11.28	1.57	2.01
	22	11.39	1.58	2.01
	23	11.46	1.19	2.01
	24	11.52	1.16	2.01
	25	11.57	0.98	2.01
	26	11.62	0.9	2.01
	27	11.7	1.3	2.01
	28	11.77	1.65	2.01
	29	11.83	1.41	2.01
	30	11.91	1.61	2.01
	31	11.99	1.83	2.01
	32	12.08	1.68	2.01
	33	12.15	1.44	2.01
	34	12.22	1.35	2.01
	35	12.3	1.32	2.01
	36	12.36	1.16	2.01
	37	12.42	1.23	2.01
	38	12.47	0.93	2.01
	39	12.51	0.92	2.01
	40	12.56	0.94	2.01
	41	12.6	0.96	2.01
	42	12.65	0.93	2.01
	43	12.7	0.85	2.01
	44	12.74	0.82	2.01
	45	12.78	0.82	2.01
	46	12.83	0.87	2.01
	47	12.87	0.92	2.01
	48	12.92	0.92	2.01
	49	12.96	0.81	2.01
	50	13	0.72	2.01
	51	13.03	0.69	2.01
	52	13.07	0.65	2.01
	53	13.11	0.64	2.01
	54	13.14	0.65	2.01
	55	13.18	0.65	2.01
	56	13.22	0.75	2.01
	57	13.26	0.85	2.01
	58	13.31	0.87	2.01
	59	13.36	0.85	2.01
	60	13.4	0.8	2.01
	61	13.45	0.75	2.01
	62	13.51	1.04	2.01
	63	13.58	1.05	2.01
	64	13.67	1.35	2.01
	65	13.78	1.5	2.01
	66	13.9	1.56	2.01
	67	14.04	2.2	2.01
	68	14.18	1.97	2.01
	69	14.32	1.65	2.01
	70	14.47	2.18	2.01
	71	14.62	1.89	2.01
	72	14.78	2.72	2.01
	73	14.93	1.13	2.01
	74	15.02	1.23	2.01
	75	15.14	1.54	2.01
	76	15.26	1.21	2.01
	77	15.37	1.16	2.01
	78	15.48	1.12	2.01
	79	15.56	0.77	2.01
	80	15.64	0.73	2.01
	81	15.74	0.95	2.01
	82	15.84	0.79	2.01
	83	15.93	0.69	2.01
	84	16.06	0.82	2.01
	85	16.34	1.35	2.01
	86	17.55	3.05	2.01

