File:              	C:\Qtrac\Data\ME2C30712A.QZD
Name:              	 JA20R
Protocol:          	MSCAN-MV
Date:              	12/7/23
Date of birth:     	20/10/00
Age:               	22
Sex:               	F
Temperature:       	33.5
S/R sites:         	Knee CF-TA
NC/disease:        	NC
Operator:          	BY
Comments:
M-SCAN DATA (Repeat 3/3, 30.2-20.1m)
Scanpts: 8, 23, 675, 692
Stim. (mA)     	Amp. (mV)
MS.1           	11.5           	4.618
MS.2           	11.5           	4.59
MS.3           	11.5           	4.484
MS.4           	11.5           	4.62
MS.5           	11.5           	4.6
MS.6           	11.5           	4.608
MS.7           	11.5           	4.548
MS.8           	11.5           	4.54
MS.9           	11.5           	4.512
MS.10          	11.5           	4.515
MS.11          	11.5           	4.611
MS.12          	11.5           	4.539
MS.13          	11.5           	4.557
MS.14          	11.5           	4.548
MS.15          	11.5           	4.523
MS.16          	11.5           	4.575
MS.17          	11.5           	4.543
MS.18          	11.5           	4.578
MS.19          	11.5           	4.482
MS.20          	11.5           	4.529
MS.21          	11.5           	4.531
MS.22          	11.5           	4.564
MS.23          	11.5           	4.538
MS.24          	11.477         	4.51
MS.25          	11.455         	4.543
MS.26          	11.43          	4.507
MS.27          	11.407         	4.546
MS.28          	11.385         	4.482
MS.29          	11.363         	4.456
MS.30          	11.34          	4.473
MS.31          	11.318         	4.521
MS.32          	11.295         	4.488
MS.33          	11.273         	4.485
MS.34          	11.25          	4.504
MS.35          	11.227         	4.445
MS.36          	11.205         	4.428
MS.37          	11.182         	4.452
MS.38          	11.16          	4.47
MS.39          	11.137         	4.439
MS.40          	11.115         	4.384
MS.41          	11.092         	4.405
MS.42          	11.07          	4.409
MS.43          	11.05          	4.433
MS.44          	11.028         	4.418
MS.45          	11.005         	4.451
MS.46          	10.983         	4.406
MS.47          	10.96          	4.42
MS.48          	10.94          	4.412
MS.49          	10.917         	4.349
MS.50          	10.895         	4.367
MS.51          	10.872         	4.308
MS.52          	10.852         	4.326
MS.53          	10.83          	4.319
MS.54          	10.807         	4.293
MS.55          	10.787         	4.324
MS.56          	10.765         	4.316
MS.57          	10.745         	4.224
MS.58          	10.722         	4.213
MS.59          	10.7           	4.29
MS.60          	10.68          	4.244
MS.61          	10.657         	4.189
MS.62          	10.637         	4.161
MS.63          	10.615         	4.141
MS.64          	10.595         	4.205
MS.65          	10.573         	4.184
MS.66          	10.552         	4.277
MS.67          	10.532         	4.172
MS.68          	10.51          	4.204
MS.69          	10.49          	4.167
MS.70          	10.467         	4.164
MS.71          	10.448         	4.177
MS.72          	10.427         	4.091
MS.73          	10.405         	4.23
MS.74          	10.385         	4.225
MS.75          	10.365         	4.291
MS.76          	10.342         	4.161
MS.77          	10.323         	4.199
MS.78          	10.302         	4.112
MS.79          	10.282         	4.127
MS.80          	10.26          	4.106
MS.81          	10.24          	4.052
MS.82          	10.22          	3.961
MS.83          	10.2           	3.95
MS.84          	10.18          	3.956
MS.85          	10.16          	3.912
MS.86          	10.137         	3.825
MS.87          	10.117         	3.887
MS.88          	10.097         	3.907
MS.89          	10.077         	3.801
MS.90          	10.057         	3.817
MS.91          	10.037         	3.79
MS.92          	10.017         	3.776
MS.93          	9.997          	3.772
MS.94          	9.977          	3.783
MS.95          	9.957          	3.84
MS.96          	9.938          	3.791
MS.97          	9.917          	3.82
MS.98          	9.898          	3.727
MS.99          	9.877          	3.796
MS.100         	9.858          	3.766
MS.101         	9.84           	3.79
MS.102         	9.82           	3.732
MS.103         	9.8            	3.777
MS.104         	9.78           	3.638
MS.105         	9.76           	3.752
MS.106         	9.74           	3.622
MS.107         	9.722          	3.586
MS.108         	9.702          	3.631
MS.109         	9.682          	3.584
MS.110         	9.662          	3.586
MS.111         	9.645          	3.542
MS.112         	9.625          	3.544
MS.113         	9.605          	3.549
MS.114         	9.587          	3.544
MS.115         	9.568          	3.564
MS.116         	9.547          	3.573
MS.117         	9.53           	3.522
MS.118         	9.51           	3.446
MS.119         	9.49           	3.524
MS.120         	9.472          	3.41
MS.121         	9.452          	3.378
MS.122         	9.435          	3.433
MS.123         	9.415          	3.43
MS.124         	9.398          	3.367
MS.125         	9.377          	3.378
MS.126         	9.36           	3.373
MS.127         	9.34           	3.365
MS.128         	9.323          	3.368
MS.129         	9.302          	3.347
MS.130         	9.285          	3.394
MS.131         	9.265          	3.343
MS.132         	9.247          	3.326
MS.133         	9.23           	3.353
MS.134         	9.21           	3.23
MS.135         	9.193          	3.287
MS.136         	9.175          	3.161
MS.137         	9.155          	3.222
MS.138         	9.137          	3.154
MS.139         	9.12           	3.186
MS.140         	9.1            	3.159
MS.141         	9.082          	3.063
MS.142         	9.065          	3.06
MS.143         	9.045          	3.068
MS.144         	9.028          	3.066
MS.145         	9.01           	3.027
MS.146         	8.992          	2.881
MS.147         	8.975          	2.827
MS.148         	8.955          	3.004
MS.149         	8.938          	3.002
MS.150         	8.92           	2.947
MS.151         	8.903          	2.885
MS.152         	8.885          	2.826
MS.153         	8.867          	2.965
MS.154         	8.85           	2.826
MS.155         	8.832          	2.875
MS.156         	8.815          	2.9
MS.157         	8.797          	2.879
MS.158         	8.78           	2.864
MS.159         	8.762          	2.92
MS.160         	8.745          	2.774
MS.161         	8.727          	2.618
MS.162         	8.71           	2.663
MS.163         	8.693          	2.673
MS.164         	8.675          	2.692
MS.165         	8.658          	2.548
MS.166         	8.64           	2.643
MS.167         	8.622          	2.571
MS.168         	8.605          	2.482
MS.169         	8.587          	2.487
MS.170         	8.57           	2.578
MS.171         	8.552          	2.458
MS.172         	8.537          	2.579
MS.173         	8.52           	2.495
MS.174         	8.502          	2.499
MS.175         	8.485          	2.498
MS.176         	8.467          	2.459
MS.177         	8.452          	2.45
MS.178         	8.435          	2.442
MS.179         	8.417          	2.333
MS.180         	8.4            	2.358
MS.181         	8.385          	2.36
MS.182         	8.367          	2.363
MS.183         	8.35           	2.254
MS.184         	8.335          	2.398
MS.185         	8.318          	2.38
MS.186         	8.3            	2.386
MS.187         	8.285          	2.444
MS.188         	8.267          	2.451
MS.189         	8.25           	2.423
MS.190         	8.235          	2.476
MS.191         	8.217          	2.372
MS.192         	8.202          	2.349
MS.193         	8.185          	2.398
MS.194         	8.17           	2.294
MS.195         	8.153          	2.208
MS.196         	8.137          	2.299
MS.197         	8.12           	2.266
MS.198         	8.105          	2.288
MS.199         	8.087          	2.249
MS.200         	8.073          	2.258
MS.201         	8.055          	2.229
MS.202         	8.04           	2.247
MS.203         	8.023          	2.254
MS.204         	8.007          	2.205
MS.205         	7.992          	2.137
MS.206         	7.975          	2.093
MS.207         	7.96           	2.144
MS.208         	7.942          	2.117
MS.209         	7.927          	2.06
MS.210         	7.912          	2.061
MS.211         	7.895          	2.144
MS.212         	7.88           	2.119
MS.213         	7.865          	2.117
MS.214         	7.847          	2.104
MS.215         	7.832          	2.097
MS.216         	7.817          	2.211
MS.217         	7.802          	2.123
MS.218         	7.785          	2.063
MS.219         	7.77           	2.171
MS.220         	7.755          	2.167
MS.221         	7.74           	2.139
MS.222         	7.725          	2.031
MS.223         	7.707          	2.078
MS.224         	7.692          	2.054
MS.225         	7.677          	2.083
MS.226         	7.662          	2.066
MS.227         	7.648          	2.043
MS.228         	7.632          	2.083
MS.229         	7.617          	2.01
MS.230         	7.602          	2.177
MS.231         	7.587          	1.968
MS.232         	7.57           	2.056
MS.233         	7.555          	2.082
MS.234         	7.54           	2.068
MS.235         	7.525          	2.054
MS.236         	7.51           	1.976
MS.237         	7.495          	1.999
MS.238         	7.48           	2.01
MS.239         	7.465          	2.031
MS.240         	7.45           	1.929
MS.241         	7.435          	1.925
MS.242         	7.42           	1.865
MS.243         	7.407          	1.885
MS.244         	7.392          	1.873
MS.245         	7.378          	1.896
MS.246         	7.362          	1.938
MS.247         	7.347          	1.864
MS.248         	7.332          	1.866
MS.249         	7.317          	1.893
MS.250         	7.302          	1.934
MS.251         	7.29           	1.89
MS.252         	7.275          	1.838
MS.253         	7.26           	1.859
MS.254         	7.245          	1.854
MS.255         	7.23           	1.791
MS.256         	7.217          	1.851
MS.257         	7.202          	1.779
MS.258         	7.188          	1.881
MS.259         	7.172          	1.769
MS.260         	7.16           	2.009
MS.261         	7.145          	2.038
MS.262         	7.13           	2.003
MS.263         	7.115          	1.927
MS.264         	7.102          	1.958
MS.265         	7.087          	1.852
MS.266         	7.072          	1.818
MS.267         	7.06           	1.826
MS.268         	7.045          	1.863
MS.269         	7.03           	1.902
MS.270         	7.017          	1.888
MS.271         	7.003          	1.872
MS.272         	6.99           	1.841
MS.273         	6.975          	1.782
MS.274         	6.96           	1.74
MS.275         	6.947          	1.799
MS.276         	6.932          	1.755
MS.277         	6.92           	1.672
MS.278         	6.905          	1.724
MS.279         	6.892          	1.787
MS.280         	6.878          	1.738
MS.281         	6.865          	1.639
MS.282         	6.85           	1.821
MS.283         	6.837          	1.688
MS.284         	6.822          	1.64
MS.285         	6.81           	1.627
MS.286         	6.795          	1.631
MS.287         	6.782          	1.578
MS.288         	6.77           	1.647
MS.289         	6.755          	1.638
MS.290         	6.742          	1.506
MS.291         	6.727          	1.523
MS.292         	6.715          	1.528
MS.293         	6.702          	1.603
MS.294         	6.688          	1.537
MS.295         	6.675          	1.506
MS.296         	6.662          	1.578
MS.297         	6.648          	1.566
MS.298         	6.635          	1.566
MS.299         	6.622          	1.59
MS.300         	6.608          	1.454
MS.301         	6.595          	1.312
MS.302         	6.582          	1.389
MS.303         	6.57           	1.293
MS.304         	6.555          	1.321
MS.305         	6.543          	1.273
MS.306         	6.53           	1.295
MS.307         	6.517          	1.297
MS.308         	6.503          	1.154
MS.309         	6.49           	1.234
MS.310         	6.477          	1.315
MS.311         	6.465          	1.292
MS.312         	6.452          	1.274
MS.313         	6.44           	1.287
MS.314         	6.425          	1.236
MS.315         	6.412          	1.16
MS.316         	6.4            	1.151
MS.317         	6.387          	1.154
MS.318         	6.375          	1.136
MS.319         	6.362          	1.135
MS.320         	6.35           	1.108
MS.321         	6.338          	1.108
MS.322         	6.325          	1.024
MS.323         	6.312          	0.964
MS.324         	6.297          	1.029
MS.325         	6.285          	1.055
MS.326         	6.273          	1.061
MS.327         	6.26           	1.082
MS.328         	6.247          	1.12
MS.329         	6.235          	1.14
MS.330         	6.222          	1.09
MS.331         	6.21           	1.074
MS.332         	6.197          	1.108
MS.333         	6.188          	1.105
MS.334         	6.175          	1.013
MS.335         	6.162          	1.044
MS.336         	6.15           	1.015
MS.337         	6.137          	0.988
MS.338         	6.125          	0.979
MS.339         	6.112          	1.036
MS.340         	6.1            	0.952
MS.341         	6.088          	0.936
MS.342         	6.075          	1.082
MS.343         	6.065          	0.906
MS.344         	6.052          	0.96
MS.345         	6.04           	0.88
MS.346         	6.027          	0.811
MS.347         	6.015          	0.882
MS.348         	6.003          	0.875
MS.349         	5.992          	0.868
MS.350         	5.98           	0.903
MS.351         	5.967          	0.798
MS.352         	5.955          	0.792
MS.353         	5.945          	0.804
MS.354         	5.932          	0.76
MS.355         	5.92           	0.746
MS.356         	5.907          	0.726
MS.357         	5.898          	0.783
MS.358         	5.885          	0.689
MS.359         	5.872          	0.718
MS.360         	5.86           	0.702
MS.361         	5.85           	0.714
MS.362         	5.838          	0.709
MS.363         	5.825          	0.743
MS.364         	5.815          	0.754
MS.365         	5.802          	0.714
MS.366         	5.79           	0.73
MS.367         	5.78           	0.737
MS.368         	5.767          	0.728
MS.369         	5.757          	0.695
MS.370         	5.745          	0.703
MS.371         	5.733          	0.717
MS.372         	5.722          	0.632
MS.373         	5.71           	0.662
MS.374         	5.7            	0.654
MS.375         	5.688          	0.624
MS.376         	5.677          	0.646
MS.377         	5.665          	0.688
MS.378         	5.655          	0.649
MS.379         	5.642          	0.613
MS.380         	5.632          	0.588
MS.381         	5.62           	0.578
MS.382         	5.61           	0.621
MS.383         	5.597          	0.624
MS.384         	5.588          	0.601
MS.385         	5.575          	0.562
MS.386         	5.565          	0.544
MS.387         	5.552          	0.531
MS.388         	5.543          	0.505
MS.389         	5.53           	0.583
MS.390         	5.52           	0.497
MS.391         	5.51           	0.479
MS.392         	5.497          	0.503
MS.393         	5.487          	0.517
MS.394         	5.475          	0.505
MS.395         	5.465          	0.467
MS.396         	5.455          	0.486
MS.397         	5.443          	0.461
MS.398         	5.432          	0.466
MS.399         	5.422          	0.4
MS.400         	5.41           	0.443
MS.401         	5.4            	0.443
MS.402         	5.39           	0.425
MS.403         	5.378          	0.402
MS.404         	5.367          	0.415
MS.405         	5.358          	0.442
MS.406         	5.345          	0.414
MS.407         	5.335          	0.4
MS.408         	5.325          	0.464
MS.409         	5.315          	0.347
MS.410         	5.302          	0.389
MS.411         	5.293          	0.358
MS.412         	5.282          	0.37
MS.413         	5.273          	0.356
MS.414         	5.26           	0.328
MS.415         	5.25           	0.35
MS.416         	5.24           	0.343
MS.417         	5.23           	0.353
MS.418         	5.22           	0.322
MS.419         	5.21           	0.3
MS.420         	5.197          	0.304
MS.421         	5.188          	0.303
MS.422         	5.177          	0.294
MS.423         	5.168          	0.273
MS.424         	5.157          	0.303
MS.425         	5.148          	0.289
MS.426         	5.137          	0.294
MS.427         	5.125          	0.286
MS.428         	5.115          	0.281
MS.429         	5.105          	0.268
MS.430         	5.095          	0.275
MS.431         	5.085          	0.27
MS.432         	5.075          	0.269
MS.433         	5.065          	0.268
MS.434         	5.055          	0.27
MS.435         	5.045          	0.267
MS.436         	5.035          	0.264
MS.437         	5.025          	0.263
MS.438         	5.015          	0.262
MS.439         	5.005          	0.269
MS.440         	4.995          	0.27
MS.441         	4.985          	0.271
MS.442         	4.975          	0.272
MS.443         	4.965          	0.269
MS.444         	4.955          	0.264
MS.445         	4.945          	0.267
MS.446         	4.935          	0.269
MS.447         	4.925          	0.274
MS.448         	4.915          	0.267
MS.449         	4.905          	0.273
MS.450         	4.895          	0.269
MS.451         	4.885          	0.264
MS.452         	4.875          	0.275
MS.453         	4.867          	0.275
MS.454         	4.858          	0.269
MS.455         	4.847          	0.273
MS.456         	4.838          	0.276
MS.457         	4.827          	0.264
MS.458         	4.818          	0.278
MS.459         	4.807          	0.277
MS.460         	4.797          	0.281
MS.461         	4.79           	0.277
MS.462         	4.78           	0.28
MS.463         	4.77           	0.276
MS.464         	4.76           	0.28
MS.465         	4.75           	0.273
MS.466         	4.742          	0.272
MS.467         	4.733          	0.267
MS.468         	4.722          	0.274
MS.469         	4.713          	0.277
MS.470         	4.702          	0.275
MS.471         	4.695          	0.276
MS.472         	4.685          	0.281
MS.473         	4.675          	0.281
MS.474         	4.665          	0.279
MS.475         	4.657          	0.273
MS.476         	4.648          	0.275
MS.477         	4.637          	0.271
MS.478         	4.63           	0.272
MS.479         	4.62           	0.269
MS.480         	4.61           	0.27
MS.481         	4.602          	0.273
MS.482         	4.592          	0.273
MS.483         	4.582          	0.27
MS.484         	4.575          	0.272
MS.485         	4.565          	0.272
MS.486         	4.555          	0.266
MS.487         	4.548          	0.269
MS.488         	4.537          	0.275
MS.489         	4.527          	0.269
MS.490         	4.52           	0.273
MS.491         	4.51           	0.286
MS.492         	4.5            	0.266
MS.493         	4.492          	0.264
MS.494         	4.483          	0.273
MS.495         	4.475          	0.275
MS.496         	4.465          	0.27
MS.497         	4.457          	0.273
MS.498         	4.447          	0.276
MS.499         	4.438          	0.277
MS.500         	4.43           	0.28
MS.501         	4.42           	0.276
MS.502         	4.412          	0.274
MS.503         	4.402          	0.27
MS.504         	4.395          	0.278
MS.505         	4.385          	0.278
MS.506         	4.378          	0.272
MS.507         	4.367          	0.281
MS.508         	4.36           	0.276
MS.509         	4.35           	0.285
MS.510         	4.342          	0.269
MS.511         	4.332          	0.284
MS.512         	4.325          	0.282
MS.513         	4.315          	0.278
MS.514         	4.307          	0.278
MS.515         	4.3            	0.276
MS.516         	4.29           	0.28
MS.517         	4.282          	0.278
MS.518         	4.273          	0.281
MS.519         	4.265          	0.28
MS.520         	4.255          	0.281
MS.521         	4.247          	0.278
MS.522         	4.24           	0.28
MS.523         	4.23           	0.283
MS.524         	4.222          	0.285
MS.525         	4.213          	0.282
MS.526         	4.205          	0.281
MS.527         	4.197          	0.281
MS.528         	4.188          	0.28
MS.529         	4.18           	0.276
MS.530         	4.173          	0.279
MS.531         	4.162          	0.277
MS.532         	4.155          	0.276
MS.533         	4.148          	0.28
MS.534         	4.137          	0.278
MS.535         	4.13           	0.273
MS.536         	4.122          	0.268
MS.537         	4.115          	0.268
MS.538         	4.105          	0.27
MS.539         	4.097          	0.273
MS.540         	4.09           	0.27
MS.541         	4.08           	0.272
MS.542         	4.072          	0.27
MS.543         	4.065          	0.269
MS.544         	4.057          	0.264
MS.545         	4.048          	0.277
MS.546         	4.04           	0.27
MS.547         	4.032          	0.269
MS.548         	4.025          	0.264
MS.549         	4.015          	0.272
MS.550         	4.007          	0.264
MS.551         	4              	0.27
MS.552         	3.992          	0.272
MS.553         	3.985          	0.259
MS.554         	3.977          	0.244
MS.555         	3.967          	0.247
MS.556         	3.96           	0.248
MS.557         	3.952          	0.244
MS.558         	3.945          	0.251
MS.559         	3.938          	0.248
MS.560         	3.93           	0.245
MS.561         	3.92           	0.248
MS.562         	3.912          	0.247
MS.563         	3.905          	0.245
MS.564         	3.897          	0.248
MS.565         	3.89           	0.244
MS.566         	3.882          	0.242
MS.567         	3.875          	0.238
MS.568         	3.867          	0.245
MS.569         	3.86           	0.245
MS.570         	3.85           	0.24
MS.571         	3.842          	0.245
MS.572         	3.835          	0.237
MS.573         	3.827          	0.24
MS.574         	3.82           	0.234
MS.575         	3.812          	0.24
MS.576         	3.805          	0.242
MS.577         	3.797          	0.242
MS.578         	3.79           	0.24
MS.579         	3.783          	0.245
MS.580         	3.775          	0.239
MS.581         	3.767          	0.235
MS.582         	3.76           	0.245
MS.583         	3.752          	0.242
MS.584         	3.745          	0.236
MS.585         	3.737          	0.238
MS.586         	3.73           	0.241
MS.587         	3.722          	0.24
MS.588         	3.715          	0.242
MS.589         	3.707          	0.245
MS.590         	3.7            	0.245
MS.591         	3.692          	0.24
MS.592         	3.685          	0.244
MS.593         	3.678          	0.246
MS.594         	3.67           	0.237
MS.595         	3.662          	0.235
MS.596         	3.655          	0.239
MS.597         	3.647          	0.24
MS.598         	3.642          	0.236
MS.599         	3.635          	0.245
MS.600         	3.627          	0.244
MS.601         	3.62           	0.24
MS.602         	3.612          	0.239
MS.603         	3.605          	0.24
MS.604         	3.597          	0.234
MS.605         	3.59           	0.239
MS.606         	3.582          	0.243
MS.607         	3.577          	0.239
MS.608         	3.57           	0.237
MS.609         	3.562          	0.236
MS.610         	3.555          	0.239
MS.611         	3.547          	0.24
MS.612         	3.54           	0.242
MS.613         	3.533          	0.24
MS.614         	3.527          	0.244
MS.615         	3.52           	0.24
MS.616         	3.512          	0.239
MS.617         	3.505          	0.24
MS.618         	3.497          	0.243
MS.619         	3.492          	0.239
MS.620         	3.485          	0.22
MS.621         	3.477          	0.233
MS.622         	3.47           	0.242
MS.623         	3.462          	0.242
MS.624         	3.457          	0.229
MS.625         	3.45           	0.24
MS.626         	3.442          	0.239
MS.627         	3.435          	0.236
MS.628         	3.43           	0.236
MS.629         	3.422          	0.239
MS.630         	3.415          	0.24
MS.631         	3.41           	0.242
MS.632         	3.402          	0.23
MS.633         	3.395          	0.229
MS.634         	3.387          	0.23
MS.635         	3.382          	0.232
MS.636         	3.375          	0.225
MS.637         	3.367          	0.221
MS.638         	3.362          	0.217
MS.639         	3.355          	0.211
MS.640         	3.347          	0.212
MS.641         	3.342          	0.203
MS.642         	3.335          	0.2
MS.643         	3.327          	0.199
MS.644         	3.322          	0.2
MS.645         	3.315          	0.193
MS.646         	3.307          	0.2
MS.647         	3.303          	0.191
MS.648         	3.295          	0.191
MS.649         	3.287          	0.195
MS.650         	3.283          	0.186
MS.651         	3.275          	0.186
MS.652         	3.267          	0.183
MS.653         	3.262          	0.182
MS.654         	3.255          	0.189
MS.655         	3.25           	0.186
MS.656         	3.242          	0.182
MS.657         	3.235          	0.186
MS.658         	3.23           	0.179
MS.659         	3.222          	0.18
MS.660         	3.217          	0.182
MS.661         	3.21           	0.176
MS.662         	3.205          	0.186
MS.663         	3.197          	0.172
MS.664         	3.19           	0.178
MS.665         	3.185          	0.174
MS.666         	3.178          	0.169
MS.667         	3.172          	0.165
MS.668         	3.165          	0.17
MS.669         	3.16           	0.165
MS.670         	3.152          	0.17
MS.671         	3.148          	0.172
MS.672         	3.14           	0.165
MS.673         	3.135          	0.168
MS.674         	3.127          	0.165
MS.675         	3.122          	0.168
MS.676         	3.115          	0.162
MS.677         	3.11           	0.167
MS.678         	3.102          	0.163
MS.679         	3.097          	0.168
MS.680         	3.09           	0.167
MS.681         	3.085          	0.164
MS.682         	3.077          	0.159
MS.683         	3.072          	0.161
MS.684         	3.065          	0.164
MS.685         	3.06           	0.166
MS.686         	3.053          	0.161
MS.687         	3.047          	0.166
MS.688         	3.043          	0.165
MS.689         	3.035          	0.161
MS.690         	3.03           	0.161
MS.691         	3.023          	0.16
MS.692         	3.017          	0.17
MS.693         	3.01           	0.16
MS.694         	3.005          	0.162
MS.695         	3              	0.167
MS.696         	2.992          	0.165
MS.697         	2.987          	0.164
MS.698         	2.982          	0.159
MS.699         	2.975          	0.163
MS.700         	2.97           	0.165
MS.701         	2.962          	0.167
MS.702         	2.957          	0.169
MS.703         	2.952          	0.161
MS.704         	2.945          	0.164
MS.705         	2.94           	0.161
MS.706         	2.935          	0.161
MS.707         	2.928          	0.17
MS.708         	2.922          	0.162
MS.709         	2.918          	0.167
MS.710         	2.91           	0.167
MS.711         	2.905          	0.165
MS.712         	2.9            	0.172
MS.713         	2.892          	0.163
MS.714         	2.888          	0.167
MS.715         	2.882          	0.165
MS.716         	2.875          	0.174
MS.717         	2.87           	0.166
MS.718         	2.865          	0.172
MS.719         	2.857          	0.17
MS.720         	2.852          	0.176
MS.721         	2.847          	0.176
MS.722         	2.842          	0.167
MS.723         	2.835          	0.165
MS.724         	2.83           	0.167
MS.725         	2.825          	0.172
MS.726         	2.82           	0.172
MS.727         	2.812          	0.175
MS.728         	2.807          	0.168
MS.729         	2.803          	0.173
MS.730         	2.797          	0.179
MS.731         	2.79           	0.172
MS.732         	2.785          	0.168
MS.733         	2.78           	0.176
MS.734         	2.775          	0.176
MS.735         	2.767          	0.169
MS.736         	2.763          	0.165
MS.737         	2.757          	0.168
MS.738         	2.753          	0.172
MS.739         	2.747          	0.167
MS.740         	2.74           	0.173
MS.741         	2.735          	0.171
MS.742         	2.73           	0.175
MS.743         	2.725          	0.17
MS.744         	2.72           	0.165
MS.745         	2.715          	0.172
MS.746         	2.707          	0.175
MS.747         	2.702          	0.178
MS.748         	2.697          	0.17
MS.749         	2.692          	0.167
MS.750         	2.688          	0.173
MS.751         	2.682          	0.181
MS.752         	2.675          	0.174
MS.753         	2.67           	0.167
MS.754         	2.665          	0.175
MS.755         	2.66           	0.17
MS.756         	2.655          	0.174
MS.757         	2.65           	0.173
MS.758         	2.645          	0.169
MS.759         	2.64           	0.17
MS.760         	2.632          	0.17
MS.761         	2.628          	0.172
MS.762         	2.622          	0.161
MS.763         	2.617          	0.17
MS.764         	2.612          	0.172
MS.765         	2.607          	0.168
MS.766         	2.602          	0.167
MS.767         	2.597          	0.167
MS.768         	2.592          	0.17
MS.769         	2.587          	0.167
MS.770         	2.582          	0.172
MS.771         	2.577          	0.173
MS.772         	2.57           	0.165
MS.773         	2.565          	0.167
MS.774         	2.56           	0.169
MS.775         	2.555          	0.165
MS.776         	2.55           	0.17
MS.777         	2.545          	0.163
MS.778         	2.54           	0.172
MS.779         	2.535          	0.165
MS.780         	2.53           	0.16
MS.781         	2.525          	0.168
MS.782         	2.52           	0.168
MS.783         	2.515          	0.165
MS.784         	2.51           	0.162
MS.785         	2.505          	0.157
MS.786         	2.5            	0.17
MS.787         	2.495          	0.156
MS.788         	2.49           	0.162
MS.789         	2.485          	0.163
MS.790         	2.48           	0.157
MS.791         	2.475          	0.165
MS.792         	2.47           	0.159
MS.793         	2.465          	0.167
MS.794         	2.46           	0.157
MS.795         	2.455          	0.167
MS.796         	2.45           	0.159
MS.797         	2.445          	0.161
MS.798         	2.44           	0.161
MS.799         	2.435          	0.164
MS.800         	2.43           	0.17
MS.801         	2.428          	0.159
MS.802         	2.422          	0.162
MS.803         	2.418          	0.163
MS.804         	2.412          	0.163
MS.805         	2.408          	0.162
MS.806         	2.402          	0.154
MS.807         	2.398          	0.155
MS.808         	2.392          	0.153
DERIVED EXCITABILITY VARIABLES
Program = QTracP 27/06/2023
Threshold method = 6 (optimised for CAP, using data for present condition only)
SR method = 1 (using actual data values)
6.                 	0.000               	Peak response\(mV)
9.                 	33.5                	Temperature ( C)
17.                	22                  	Age (years)
18.                	2                   	Sex (M=1, F=2)

EXTRA VARIABLES

MScPeak(mV) = 4.39
MScS5(mA) = 3.37
MScS50(mA) = 7.88
MScS95(mA) = 10.47
MScNSteps = 2
MScSteps(%) = 4.1
MScStepMax(%) = 2.1
MScD50 = 64
MScSlope = 2.64
MScDuration(min) = 10.8
MSFTraces = 685
MSFPeakAmp(mV) = 4.38
MSFNUnits = 146
MSFMeanUnitAmp(uV) = 30
MSFHuntTime(m) = 1.92
MSFError(%) = 1.68
MSFNLarge = 49.97
MSFMedianAmp(%) = 0.611
MSFMedianAmp(mV) = 0.0267
MSFHalfAmpAmp(%) = 0.686
MSFHalfAmpAmp(mV) = 0.03
MSFLargestAmp(%) = 2.26
MSFLargestAmp(mV) = 0.0992
MSFMeanRS(%) = 2
MSFSizeLimit(uV) = 14.6
MSFLimitType = 1
MSFSmallestAmp(uV) = 15.3
MSFOpts = 10104222032
MSFSDMax = 30.3
MSFSDMin = 3.23

EXTRA WAVEFORMS


!MScan Model
!146
	1	3.23	0.57	2
	2	3.36	0.64	2
	3	3.4	0.37	2
	4	3.95	0.43	2
	5	4.05	0.44	2
	6	5.13	0.36	2
	7	5.19	0.61	2
	8	5.23	0.39	2
	9	5.26	0.61	2
	10	5.29	0.42	2
	11	5.33	0.55	2
	12	5.38	0.63	2
	13	5.42	0.69	2
	14	5.46	0.56	2
	15	5.49	0.69	2
	16	5.54	0.69	2
	17	5.58	0.67	2
	18	5.59	0.5	2
	19	5.64	0.85	2
	20	5.69	0.74	2
	21	5.72	0.41	2
	22	5.74	0.36	2
	23	5.86	1.05	2
	24	5.91	0.49	2
	25	5.93	0.84	2
	26	5.97	0.56	2
	27	5.98	0.44	2
	28	6.01	0.73	2
	29	6.04	0.87	2
	30	6.06	0.63	2
	31	6.09	0.66	2
	32	6.14	1.31	2
	33	6.33	1.68	2
	34	6.35	0.51	2
	35	6.37	0.64	2
	36	6.4	0.55	2
	37	6.43	0.97	2
	38	6.49	1.14	2
	39	6.51	0.66	2
	40	6.54	1.04	2
	41	6.55	0.53	2
	42	6.58	0.65	2
	43	6.59	0.49	2
	44	6.6	0.56	2
	45	6.63	1.48	2
	46	6.69	1.17	2
	47	6.74	1.03	2
	48	6.76	0.37	2
	49	6.79	0.49	2
	50	6.81	0.67	2
	51	6.86	0.95	2
	52	6.91	1	2
	53	6.95	1.34	2
	54	7.02	0.86	2
	55	7.32	0.97	2
	56	7.38	0.84	2
	57	7.42	0.51	2
	58	7.44	0.36	2
	59	7.46	0.51	2
	60	7.51	0.76	2
	61	7.68	1.85	2
	62	7.92	1.21	2
	63	7.97	0.55	2
	64	7.99	0.4	2
	65	8.02	0.55	2
	66	8.05	0.49	2
	67	8.08	0.57	2
	68	8.11	0.62	2
	69	8.14	0.8	2
	70	8.33	1.79	2
	71	8.4	0.61	2
	72	8.45	0.5	2
	73	8.49	0.58	2
	74	8.52	0.91	2
	75	8.56	0.85	2
	76	8.59	0.47	2
	77	8.61	0.43	2
	78	8.63	0.62	2
	79	8.65	0.66	2
	80	8.67	0.6	2
	81	8.68	0.49	2
	82	8.7	0.47	2
	83	8.72	0.52	2
	84	8.73	0.58	2
	85	8.75	0.72	2
	86	8.79	1.12	2
	87	8.82	0.67	2
	88	8.89	1.42	2
	89	8.93	0.69	2
	90	8.96	0.35	2
	91	8.98	0.43	2
	92	9	0.55	2
	93	9.02	0.47	2
	94	9.04	0.56	2
	95	9.07	0.43	2
	96	9.08	0.46	2
	97	9.09	0.46	2
	98	9.1	0.58	2
	99	9.13	0.97	2
	100	9.16	0.69	2
	101	9.17	0.48	2
	102	9.19	0.51	2
	103	9.21	0.53	2
	104	9.23	0.48	2
	105	9.25	0.5	2
	106	9.28	0.38	2
	107	9.31	0.67	2
	108	9.37	0.81	2
	109	9.41	0.47	2
	110	9.44	0.48	2
	111	9.47	0.63	2
	112	9.49	0.46	2
	113	9.54	0.69	2
	114	9.57	0.39	2
	115	9.6	0.7	2
	116	9.64	0.72	2
	117	9.67	0.64	2
	118	9.72	0.87	2
	119	9.76	0.64	2
	120	9.81	0.9	2
	121	9.86	0.7	2
	122	9.97	1.22	2
	123	10.01	0.58	2
	124	10.06	0.43	2
	125	10.1	0.99	2
	126	10.15	0.78	2
	127	10.16	0.39	2
	128	10.19	0.62	2
	129	10.21	0.57	2
	130	10.23	0.65	2
	131	10.24	0.38	2
	132	10.25	0.38	2
	133	10.28	0.95	2
	134	10.51	2.26	2
	135	10.62	0.46	2
	136	10.68	0.65	2
	137	10.72	0.42	2
	138	10.76	0.4	2
	139	10.8	0.55	2
	140	10.83	0.64	2
	141	10.88	0.6	2
	142	10.91	0.41	2
	143	11.02	0.86	2
	144	11.14	0.82	2
	145	11.27	0.68	2
	146	11.33	0.45	2

