File:              	C:\Qtrac\Data\ME2C30712C.QZD
Name:              	 MI19Y
Protocol:          	MSCAN-MV
Date:              	12/7/23
Date of birth:     	19/10/99
Age:               	23
Sex:               	F
Temperature:       	32.3
S/R sites:         	knee CF-TA
NC/disease:        	NC
Operator:          	BY
Comments:
M-SCAN DATA (Repeat 3/3, 33.6-24.6m)
Scanpts: 65, 81, 675, 722
Stim. (mA)     	Amp. (mV)
MS.1           	8              	6.666
MS.2           	8              	6.642
MS.3           	8              	6.67
MS.4           	8              	6.641
MS.5           	8              	6.653
MS.6           	8              	6.668
MS.7           	8              	6.651
MS.8           	8              	6.652
MS.9           	8              	6.658
MS.10          	8              	6.642
MS.11          	8              	6.645
MS.12          	8              	6.634
MS.13          	8              	6.663
MS.14          	8              	6.642
MS.15          	8              	6.65
MS.16          	8              	6.638
MS.17          	8              	6.649
MS.18          	8              	6.647
MS.19          	8              	6.641
MS.20          	8              	6.66
MS.21          	8              	6.65
MS.22          	8              	6.647
MS.23          	8              	6.628
MS.24          	7.985          	6.642
MS.25          	7.967          	6.641
MS.26          	7.952          	6.634
MS.27          	7.938          	6.641
MS.28          	7.92           	6.661
MS.29          	7.905          	6.646
MS.30          	7.89           	6.659
MS.31          	7.872          	6.642
MS.32          	7.857          	6.656
MS.33          	7.842          	6.643
MS.34          	7.825          	6.649
MS.35          	7.81           	6.622
MS.36          	7.795          	6.634
MS.37          	7.78           	6.628
MS.38          	7.762          	6.628
MS.39          	7.747          	6.619
MS.40          	7.732          	6.632
MS.41          	7.717          	6.618
MS.42          	7.702          	6.645
MS.43          	7.688          	6.677
MS.44          	7.67           	6.629
MS.45          	7.655          	6.644
MS.46          	7.64           	6.627
MS.47          	7.625          	6.71
MS.48          	7.61           	6.596
MS.49          	7.595          	6.613
MS.50          	7.58           	6.599
MS.51          	7.565          	6.623
MS.52          	7.55           	6.696
MS.53          	7.535          	6.676
MS.54          	7.52           	6.67
MS.55          	7.505          	6.619
MS.56          	7.49           	6.691
MS.57          	7.475          	6.67
MS.58          	7.46           	6.677
MS.59          	7.445          	6.664
MS.60          	7.43           	6.665
MS.61          	7.415          	6.666
MS.62          	7.4            	6.66
MS.63          	7.385          	6.646
MS.64          	7.37           	6.672
MS.65          	7.355          	6.631
MS.66          	7.34           	6.62
MS.67          	7.325          	6.705
MS.68          	7.312          	6.682
MS.69          	7.297          	6.636
MS.70          	7.282          	6.699
MS.71          	7.267          	6.691
MS.72          	7.253          	6.692
MS.73          	7.237          	6.683
MS.74          	7.225          	6.666
MS.75          	7.21           	6.663
MS.76          	7.195          	6.697
MS.77          	7.18           	6.663
MS.78          	7.168          	6.65
MS.79          	7.152          	6.687
MS.80          	7.137          	6.66
MS.81          	7.125          	6.68
MS.82          	7.11           	6.671
MS.83          	7.095          	6.658
MS.84          	7.08           	6.676
MS.85          	7.067          	6.671
MS.86          	7.052          	6.646
MS.87          	7.04           	6.638
MS.88          	7.025          	6.609
MS.89          	7.01           	6.693
MS.90          	6.997          	6.705
MS.91          	6.983          	6.683
MS.92          	6.97           	6.685
MS.93          	6.955          	6.662
MS.94          	6.94           	6.66
MS.95          	6.927          	6.609
MS.96          	6.912          	6.577
MS.97          	6.9            	6.553
MS.98          	6.885          	6.636
MS.99          	6.872          	6.63
MS.100         	6.858          	6.617
MS.101         	6.845          	6.568
MS.102         	6.83           	6.52
MS.103         	6.817          	6.606
MS.104         	6.802          	6.639
MS.105         	6.79           	6.583
MS.106         	6.777          	6.534
MS.107         	6.762          	6.619
MS.108         	6.75           	6.582
MS.109         	6.735          	6.572
MS.110         	6.722          	6.557
MS.111         	6.71           	6.5
MS.112         	6.695          	6.561
MS.113         	6.682          	6.554
MS.114         	6.67           	6.526
MS.115         	6.655          	6.533
MS.116         	6.642          	6.62
MS.117         	6.63           	6.533
MS.118         	6.615          	6.553
MS.119         	6.602          	6.469
MS.120         	6.59           	6.484
MS.121         	6.575          	6.495
MS.122         	6.562          	6.554
MS.123         	6.55           	6.494
MS.124         	6.537          	6.506
MS.125         	6.523          	6.467
MS.126         	6.51           	6.521
MS.127         	6.497          	6.5
MS.128         	6.485          	6.463
MS.129         	6.472          	6.512
MS.130         	6.46           	6.505
MS.131         	6.445          	6.532
MS.132         	6.432          	6.461
MS.133         	6.42           	6.477
MS.134         	6.407          	6.509
MS.135         	6.395          	6.55
MS.136         	6.382          	6.457
MS.137         	6.37           	6.522
MS.138         	6.358          	6.486
MS.139         	6.342          	6.513
MS.140         	6.33           	6.481
MS.141         	6.317          	6.466
MS.142         	6.305          	6.454
MS.143         	6.293          	6.489
MS.144         	6.28           	6.48
MS.145         	6.267          	6.466
MS.146         	6.255          	6.476
MS.147         	6.242          	6.46
MS.148         	6.23           	6.418
MS.149         	6.217          	6.42
MS.150         	6.205          	6.437
MS.151         	6.192          	6.44
MS.152         	6.18           	6.444
MS.153         	6.168          	6.413
MS.154         	6.155          	6.408
MS.155         	6.145          	6.459
MS.156         	6.132          	6.429
MS.157         	6.12           	6.44
MS.158         	6.108          	6.414
MS.159         	6.095          	6.429
MS.160         	6.082          	6.433
MS.161         	6.07           	6.417
MS.162         	6.057          	6.399
MS.163         	6.047          	6.368
MS.164         	6.035          	6.444
MS.165         	6.023          	6.393
MS.166         	6.01           	6.426
MS.167         	5.997          	6.377
MS.168         	5.985          	6.411
MS.169         	5.975          	6.404
MS.170         	5.963          	6.388
MS.171         	5.95           	6.402
MS.172         	5.938          	6.388
MS.173         	5.927          	6.387
MS.174         	5.915          	6.379
MS.175         	5.902          	6.367
MS.176         	5.89           	6.326
MS.177         	5.88           	6.371
MS.178         	5.867          	6.422
MS.179         	5.855          	6.346
MS.180         	5.845          	6.344
MS.181         	5.832          	6.326
MS.182         	5.82           	6.312
MS.183         	5.81           	6.365
MS.184         	5.797          	6.299
MS.185         	5.785          	6.311
MS.186         	5.775          	6.3
MS.187         	5.762          	6.345
MS.188         	5.753          	6.299
MS.189         	5.74           	6.274
MS.190         	5.727          	6.284
MS.191         	5.717          	6.204
MS.192         	5.705          	6.251
MS.193         	5.695          	6.25
MS.194         	5.682          	6.208
MS.195         	5.672          	6.302
MS.196         	5.66           	6.236
MS.197         	5.65           	6.183
MS.198         	5.637          	6.267
MS.199         	5.625          	6.247
MS.200         	5.615          	6.202
MS.201         	5.605          	6.198
MS.202         	5.592          	6.17
MS.203         	5.582          	6.21
MS.204         	5.57           	6.199
MS.205         	5.56           	6.147
MS.206         	5.547          	6.161
MS.207         	5.537          	6.128
MS.208         	5.525          	6.151
MS.209         	5.515          	6.156
MS.210         	5.505          	6.143
MS.211         	5.492          	6.155
MS.212         	5.483          	6.152
MS.213         	5.47           	6.172
MS.214         	5.46           	6.151
MS.215         	5.45           	6.111
MS.216         	5.438          	6.165
MS.217         	5.427          	6.119
MS.218         	5.418          	6.135
MS.219         	5.405          	6.144
MS.220         	5.395          	6.145
MS.221         	5.385          	6.075
MS.222         	5.372          	6.125
MS.223         	5.362          	6.066
MS.224         	5.352          	6.061
MS.225         	5.34           	6.088
MS.226         	5.33           	6.049
MS.227         	5.32           	6.056
MS.228         	5.31           	6.01
MS.229         	5.297          	6.025
MS.230         	5.287          	6.042
MS.231         	5.277          	5.956
MS.232         	5.267          	6.036
MS.233         	5.257          	5.983
MS.234         	5.245          	6.003
MS.235         	5.235          	5.955
MS.236         	5.225          	5.87
MS.237         	5.215          	5.908
MS.238         	5.205          	5.971
MS.239         	5.193          	5.892
MS.240         	5.182          	5.947
MS.241         	5.172          	5.884
MS.242         	5.162          	5.887
MS.243         	5.152          	5.854
MS.244         	5.142          	5.852
MS.245         	5.132          	5.803
MS.246         	5.122          	5.887
MS.247         	5.11           	5.789
MS.248         	5.1            	5.764
MS.249         	5.09           	5.735
MS.250         	5.08           	5.771
MS.251         	5.07           	5.704
MS.252         	5.06           	5.765
MS.253         	5.05           	5.717
MS.254         	5.04           	5.731
MS.255         	5.03           	5.666
MS.256         	5.02           	5.684
MS.257         	5.01           	5.685
MS.258         	5              	5.635
MS.259         	4.99           	5.679
MS.260         	4.98           	5.569
MS.261         	4.97           	5.656
MS.262         	4.96           	5.666
MS.263         	4.95           	5.632
MS.264         	4.94           	5.622
MS.265         	4.93           	5.556
MS.266         	4.92           	5.625
MS.267         	4.91           	5.569
MS.268         	4.9            	5.505
MS.269         	4.89           	5.635
MS.270         	4.882          	5.458
MS.271         	4.872          	5.572
MS.272         	4.862          	5.511
MS.273         	4.852          	5.513
MS.274         	4.842          	5.425
MS.275         	4.832          	5.53
MS.276         	4.822          	5.444
MS.277         	4.812          	5.363
MS.278         	4.805          	5.374
MS.279         	4.795          	5.419
MS.280         	4.785          	5.405
MS.281         	4.775          	5.463
MS.282         	4.765          	5.298
MS.283         	4.755          	5.323
MS.284         	4.747          	5.382
MS.285         	4.737          	5.255
MS.286         	4.727          	5.27
MS.287         	4.717          	5.266
MS.288         	4.71           	5.2
MS.289         	4.7            	5.26
MS.290         	4.69           	5.229
MS.291         	4.68           	5.203
MS.292         	4.673          	5.226
MS.293         	4.662          	5.108
MS.294         	4.652          	5.207
MS.295         	4.642          	5.053
MS.296         	4.635          	5.104
MS.297         	4.625          	5.02
MS.298         	4.615          	5.105
MS.299         	4.608          	5.099
MS.300         	4.597          	5.068
MS.301         	4.588          	5.067
MS.302         	4.58           	5.06
MS.303         	4.57           	4.96
MS.304         	4.56           	4.865
MS.305         	4.552          	4.907
MS.306         	4.543          	4.992
MS.307         	4.532          	4.824
MS.308         	4.525          	4.885
MS.309         	4.515          	4.792
MS.310         	4.505          	4.906
MS.311         	4.497          	4.846
MS.312         	4.487          	4.735
MS.313         	4.48           	4.736
MS.314         	4.47           	4.828
MS.315         	4.463          	4.804
MS.316         	4.452          	4.806
MS.317         	4.443          	4.662
MS.318         	4.435          	4.684
MS.319         	4.425          	4.777
MS.320         	4.418          	4.808
MS.321         	4.407          	4.693
MS.322         	4.4            	4.658
MS.323         	4.39           	4.651
MS.324         	4.382          	4.677
MS.325         	4.372          	4.578
MS.326         	4.365          	4.657
MS.327         	4.355          	4.637
MS.328         	4.347          	4.614
MS.329         	4.338          	4.441
MS.330         	4.33           	4.542
MS.331         	4.32           	4.519
MS.332         	4.312          	4.602
MS.333         	4.302          	4.514
MS.334         	4.295          	4.526
MS.335         	4.287          	4.451
MS.336         	4.277          	4.476
MS.337         	4.27           	4.366
MS.338         	4.26           	4.456
MS.339         	4.253          	4.41
MS.340         	4.242          	4.435
MS.341         	4.235          	4.412
MS.342         	4.227          	4.484
MS.343         	4.217          	4.379
MS.344         	4.21           	4.361
MS.345         	4.202          	4.325
MS.346         	4.193          	4.313
MS.347         	4.185          	4.281
MS.348         	4.177          	4.265
MS.349         	4.168          	4.271
MS.350         	4.16           	4.13
MS.351         	4.152          	4.28
MS.352         	4.142          	4.218
MS.353         	4.135          	4.208
MS.354         	4.128          	4.172
MS.355         	4.117          	4.191
MS.356         	4.11           	4.163
MS.357         	4.102          	4.203
MS.358         	4.092          	4.153
MS.359         	4.085          	4.203
MS.360         	4.077          	4.166
MS.361         	4.07           	4.208
MS.362         	4.06           	4.069
MS.363         	4.052          	4.181
MS.364         	4.045          	4.135
MS.365         	4.037          	4.083
MS.366         	4.027          	3.97
MS.367         	4.02           	4.056
MS.368         	4.012          	4.043
MS.369         	4.005          	4.047
MS.370         	3.997          	4.033
MS.371         	3.987          	3.926
MS.372         	3.98           	3.926
MS.373         	3.972          	3.973
MS.374         	3.965          	3.993
MS.375         	3.957          	4.029
MS.376         	3.95           	3.945
MS.377         	3.94           	3.953
MS.378         	3.932          	3.95
MS.379         	3.925          	3.898
MS.380         	3.918          	3.884
MS.381         	3.91           	3.963
MS.382         	3.902          	3.854
MS.383         	3.895          	3.781
MS.384         	3.885          	3.802
MS.385         	3.877          	3.819
MS.386         	3.87           	3.766
MS.387         	3.862          	3.802
MS.388         	3.855          	3.779
MS.389         	3.847          	3.638
MS.390         	3.84           	3.726
MS.391         	3.832          	3.607
MS.392         	3.825          	3.66
MS.393         	3.817          	3.751
MS.394         	3.81           	3.625
MS.395         	3.803          	3.63
MS.396         	3.795          	3.586
MS.397         	3.787          	3.434
MS.398         	3.78           	3.653
MS.399         	3.772          	3.501
MS.400         	3.765          	3.652
MS.401         	3.757          	3.439
MS.402         	3.75           	3.489
MS.403         	3.742          	3.356
MS.404         	3.735          	3.294
MS.405         	3.727          	3.336
MS.406         	3.72           	3.428
MS.407         	3.712          	3.251
MS.408         	3.705          	3.339
MS.409         	3.697          	3.345
MS.410         	3.69           	3.214
MS.411         	3.682          	3.269
MS.412         	3.675          	3.137
MS.413         	3.668          	3.163
MS.414         	3.66           	3.107
MS.415         	3.652          	3.165
MS.416         	3.645          	2.991
MS.417         	3.637          	3.025
MS.418         	3.63           	3.066
MS.419         	3.622          	2.935
MS.420         	3.617          	3.025
MS.421         	3.61           	2.905
MS.422         	3.602          	2.956
MS.423         	3.595          	2.889
MS.424         	3.587          	2.88
MS.425         	3.58           	2.889
MS.426         	3.572          	2.843
MS.427         	3.565          	2.775
MS.428         	3.56           	2.832
MS.429         	3.553          	2.791
MS.430         	3.545          	2.727
MS.431         	3.537          	2.781
MS.432         	3.53           	2.703
MS.433         	3.523          	2.734
MS.434         	3.517          	2.642
MS.435         	3.51           	2.628
MS.436         	3.502          	2.643
MS.437         	3.495          	2.496
MS.438         	3.487          	2.626
MS.439         	3.482          	2.484
MS.440         	3.475          	2.479
MS.441         	3.467          	2.552
MS.442         	3.46           	2.522
MS.443         	3.452          	2.422
MS.444         	3.447          	2.476
MS.445         	3.44           	2.437
MS.446         	3.432          	2.444
MS.447         	3.425          	2.236
MS.448         	3.42           	2.342
MS.449         	3.412          	2.343
MS.450         	3.405          	2.347
MS.451         	3.4            	2.281
MS.452         	3.392          	2.276
MS.453         	3.385          	2.189
MS.454         	3.377          	2.253
MS.455         	3.372          	2.188
MS.456         	3.365          	2.186
MS.457         	3.357          	2.161
MS.458         	3.352          	2.119
MS.459         	3.345          	2
MS.460         	3.337          	2.106
MS.461         	3.332          	2.12
MS.462         	3.325          	2.067
MS.463         	3.317          	2.018
MS.464         	3.312          	2.036
MS.465         	3.305          	2.067
MS.466         	3.297          	1.993
MS.467         	3.293          	1.989
MS.468         	3.285          	1.868
MS.469         	3.277          	1.946
MS.470         	3.273          	1.887
MS.471         	3.265          	1.804
MS.472         	3.26           	1.716
MS.473         	3.252          	1.757
MS.474         	3.245          	1.682
MS.475         	3.24           	1.79
MS.476         	3.232          	1.794
MS.477         	3.227          	1.595
MS.478         	3.22           	1.691
MS.479         	3.215          	1.644
MS.480         	3.207          	1.595
MS.481         	3.2            	1.633
MS.482         	3.195          	1.523
MS.483         	3.188          	1.557
MS.484         	3.182          	1.54
MS.485         	3.175          	1.54
MS.486         	3.17           	1.413
MS.487         	3.162          	1.357
MS.488         	3.158          	1.438
MS.489         	3.15           	1.398
MS.490         	3.145          	1.337
MS.491         	3.138          	1.266
MS.492         	3.132          	1.389
MS.493         	3.125          	1.34
MS.494         	3.12           	1.29
MS.495         	3.112          	1.158
MS.496         	3.107          	1.296
MS.497         	3.1            	1.114
MS.498         	3.095          	1.252
MS.499         	3.087          	1.158
MS.500         	3.082          	1.193
MS.501         	3.075          	1.094
MS.502         	3.07           	1.105
MS.503         	3.062          	1.115
MS.504         	3.057          	1.053
MS.505         	3.05           	1.035
MS.506         	3.045          	1.044
MS.507         	3.037          	1.028
MS.508         	3.033          	1.074
MS.509         	3.027          	0.869
MS.510         	3.02           	1.017
MS.511         	3.015          	0.966
MS.512         	3.007          	0.915
MS.513         	3.002          	0.925
MS.514         	2.997          	0.844
MS.515         	2.99           	0.898
MS.516         	2.985          	0.881
MS.517         	2.977          	0.901
MS.518         	2.972          	0.825
MS.519         	2.967          	0.869
MS.520         	2.96           	0.811
MS.521         	2.955          	0.769
MS.522         	2.95           	0.801
MS.523         	2.942          	0.692
MS.524         	2.938          	0.684
MS.525         	2.932          	0.628
MS.526         	2.925          	0.688
MS.527         	2.92           	0.678
MS.528         	2.912          	0.577
MS.529         	2.908          	0.66
MS.530         	2.902          	0.683
MS.531         	2.898          	0.617
MS.532         	2.89           	0.582
MS.533         	2.885          	0.557
MS.534         	2.88           	0.563
MS.535         	2.872          	0.551
MS.536         	2.867          	0.502
MS.537         	2.862          	0.503
MS.538         	2.855          	0.522
MS.539         	2.85           	0.517
MS.540         	2.845          	0.524
MS.541         	2.84           	0.489
MS.542         	2.832          	0.485
MS.543         	2.827          	0.433
MS.544         	2.822          	0.478
MS.545         	2.817          	0.427
MS.546         	2.81           	0.411
MS.547         	2.805          	0.403
MS.548         	2.8            	0.372
MS.549         	2.795          	0.428
MS.550         	2.787          	0.361
MS.551         	2.783          	0.342
MS.552         	2.777          	0.334
MS.553         	2.773          	0.356
MS.554         	2.765          	0.336
MS.555         	2.76           	0.375
MS.556         	2.755          	0.258
MS.557         	2.75           	0.382
MS.558         	2.745          	0.294
MS.559         	2.737          	0.318
MS.560         	2.732          	0.286
MS.561         	2.727          	0.294
MS.562         	2.722          	0.331
MS.563         	2.717          	0.315
MS.564         	2.712          	0.259
MS.565         	2.705          	0.255
MS.566         	2.7            	0.275
MS.567         	2.695          	0.271
MS.568         	2.69           	0.299
MS.569         	2.685          	0.294
MS.570         	2.68           	0.251
MS.571         	2.672          	0.216
MS.572         	2.668          	0.241
MS.573         	2.662          	0.245
MS.574         	2.658          	0.237
MS.575         	2.652          	0.22
MS.576         	2.648          	0.171
MS.577         	2.642          	0.227
MS.578         	2.638          	0.219
MS.579         	2.63           	0.167
MS.580         	2.625          	0.177
MS.581         	2.62           	0.208
MS.582         	2.615          	0.179
MS.583         	2.61           	0.201
MS.584         	2.605          	0.175
MS.585         	2.6            	0.19
MS.586         	2.595          	0.142
MS.587         	2.59           	0.186
MS.588         	2.585          	0.135
MS.589         	2.58           	0.164
MS.590         	2.575          	0.151
MS.591         	2.57           	0.164
MS.592         	2.562          	0.108
MS.593         	2.557          	0.143
MS.594         	2.553          	0.121
MS.595         	2.547          	0.142
MS.596         	2.543          	0.148
MS.597         	2.537          	0.143
MS.598         	2.533          	0.134
MS.599         	2.527          	0.154
MS.600         	2.523          	0.118
MS.601         	2.517          	0.124
MS.602         	2.513          	0.127
MS.603         	2.507          	0.121
MS.604         	2.503          	0.112
MS.605         	2.497          	0.124
MS.606         	2.492          	0.088
MS.607         	2.487          	0.101
MS.608         	2.482          	0.079
MS.609         	2.477          	0.087
MS.610         	2.472          	0.094
MS.611         	2.467          	0.088
MS.612         	2.462          	0.076
MS.613         	2.457          	0.098
MS.614         	2.452          	0.086
MS.615         	2.447          	0.082
MS.616         	2.442          	0.066
MS.617         	2.438          	0.056
MS.618         	2.435          	0.059
MS.619         	2.43           	0.078
MS.620         	2.425          	0.045
MS.621         	2.42           	0.045
MS.622         	2.415          	0.057
MS.623         	2.41           	0.044
MS.624         	2.405          	0.027
MS.625         	2.4            	0.061
MS.626         	2.395          	0.043
MS.627         	2.39           	0.038
MS.628         	2.385          	0.065
MS.629         	2.38           	0.029
MS.630         	2.375          	0.03
MS.631         	2.372          	0.032
MS.632         	2.367          	0.049
MS.633         	2.362          	0.016
MS.634         	2.357          	0.028
MS.635         	2.352          	0.016
MS.636         	2.347          	0.029
MS.637         	2.342          	0.027
MS.638         	2.337          	0.03
MS.639         	2.332          	0.017
MS.640         	2.33           	0.033
MS.641         	2.325          	0.024
MS.642         	2.32           	0.021
MS.643         	2.315          	0.013
MS.644         	2.31           	0.018
MS.645         	2.305          	0.014
MS.646         	2.3            	0.001
MS.647         	2.297          	0.013
MS.648         	2.293          	0.012
MS.649         	2.287          	0.007
MS.650         	2.283          	0.004
MS.651         	2.277          	0.012
MS.652         	2.275          	0.013
MS.653         	2.27           	-0.005
MS.654         	2.265          	0.001
MS.655         	2.26           	0.001
MS.656         	2.255          	-0.004
MS.657         	2.25           	-0.001
MS.658         	2.247          	0.029
MS.659         	2.243          	-0.001
MS.660         	2.237          	-0.001
MS.661         	2.232          	0.001
MS.662         	2.227          	0.000
MS.663         	2.225          	0.004
MS.664         	2.22           	-0.004
MS.665         	2.215          	-0.003
MS.666         	2.21           	-0.002
MS.667         	2.207          	-0.007
MS.668         	2.202          	-0.003
MS.669         	2.197          	-0.009
MS.670         	2.192          	-0.003
MS.671         	2.19           	-0.01
MS.672         	2.185          	-0.007
MS.673         	2.18           	-0.005
MS.674         	2.175          	-0.012
MS.675         	2.172          	-0.005
MS.676         	2.168          	-0.012
MS.677         	2.162          	-0.008
MS.678         	2.158          	-0.011
MS.679         	2.155          	-0.002
MS.680         	2.15           	-0.009
MS.681         	2.145          	-0.007
MS.682         	2.142          	-0.008
MS.683         	2.138          	-0.002
MS.684         	2.132          	-0.011
MS.685         	2.128          	-0.009
MS.686         	2.125          	-0.007
MS.687         	2.12           	-0.009
MS.688         	2.115          	-0.005
MS.689         	2.112          	-0.006
MS.690         	2.107          	-0.005
MS.691         	2.102          	-0.005
MS.692         	2.1            	-0.011
MS.693         	2.095          	-0.01
MS.694         	2.09           	-0.007
MS.695         	2.087          	-0.015
MS.696         	2.082          	-0.009
MS.697         	2.077          	-0.01
MS.698         	2.075          	-0.01
MS.699         	2.07           	-0.011
MS.700         	2.065          	-0.008
MS.701         	2.062          	-0.012
MS.702         	2.057          	-0.006
MS.703         	2.053          	-0.01
MS.704         	2.05           	-0.004
MS.705         	2.045          	-0.009
MS.706         	2.04           	-0.009
MS.707         	2.037          	-0.009
MS.708         	2.033          	-0.009
MS.709         	2.03           	-0.01
MS.710         	2.025          	-0.011
MS.711         	2.02           	-0.012
MS.712         	2.017          	-0.011
MS.713         	2.013          	-0.01
MS.714         	2.007          	-0.009
MS.715         	2.005          	-0.007
MS.716         	2              	-0.006
MS.717         	1.997          	-0.009
MS.718         	1.992          	-0.01
MS.719         	1.987          	-0.007
MS.720         	1.985          	-0.01
MS.721         	1.98           	-0.009
MS.722         	1.977          	-0.009
DERIVED EXCITABILITY VARIABLES
Program = QTracP 27/06/2023
Threshold method = 6 (optimised for CAP, using data for present condition only)
SR method = 1 (using actual data values)
6.                 	0.000               	Peak response\(mV)
9.                 	32.3                	Temperature ( C)
17.                	23                  	Age (years)
18.                	2                   	Sex (M=1, F=2)

EXTRA VARIABLES

MScPeak(mV) = 6.66
MScS5(mA) = 2.75
MScS50(mA) = 3.72
MScS95(mA) = 5.82
MScNSteps = 0
MScSteps(%) = 0.0
MScStepMax(%) = 0.0
MScD50 = 80
MScSlope = 2.75
MScDuration(min) = 9.6
MSFTraces = 658
MSFPeakAmp(mV) = 6.68
MSFNUnits = 189
MSFMeanUnitAmp(uV) = 35.3
MSFHuntTime(m) = 2.77
MSFError(%) = 0.98
MSFNLarge = 71.12
MSFMedianAmp(%) = 0.483
MSFMedianAmp(mV) = 0.0323
MSFHalfAmpAmp(%) = 0.539
MSFHalfAmpAmp(mV) = 0.036
MSFLargestAmp(%) = 1.19
MSFLargestAmp(mV) = 0.0796
MSFMeanRS(%) = 2
MSFSizeLimit(uV) = 22.2
MSFLimitType = 1
MSFSmallestAmp(uV) = 22.4
MSFOpts = 10104222032
MSFSDMax = 25
MSFSDMin = 2.62

EXTRA WAVEFORMS


!MScan Model
!189
	1	2.29	0.59	1.6
	2	2.41	0.37	2
	3	2.46	0.35	2
	4	2.49	0.35	2
	5	2.55	0.52	2
	6	2.61	0.63	2
	7	2.65	0.6	2
	8	2.68	0.55	2
	9	2.72	0.62	2
	10	2.75	0.59	2
	11	2.78	0.52	2
	12	2.8	0.58	2
	13	2.82	0.72	2
	14	2.85	0.71	2
	15	2.86	0.45	2
	16	2.88	0.62	2
	17	2.9	0.61	2
	18	2.91	0.47	2
	19	2.92	0.73	2
	20	2.94	0.68	2
	21	2.96	0.6	2
	22	2.96	0.35	2
	23	2.97	0.34	2
	24	2.98	0.41	2
	25	2.99	0.46	2
	26	3	0.49	2
	27	3.01	0.39	2
	28	3.02	0.39	2
	29	3.03	0.45	2
	30	3.04	0.47	2
	31	3.05	0.47	2
	32	3.06	0.47	2
	33	3.07	0.51	2
	34	3.08	0.43	2
	35	3.09	0.39	2
	36	3.1	0.41	2
	37	3.11	0.36	2
	38	3.11	0.35	2
	39	3.12	0.39	2
	40	3.13	0.44	2
	41	3.13	0.4	2
	42	3.14	0.39	2
	43	3.15	0.35	2
	44	3.16	0.37	2
	45	3.16	0.41	2
	46	3.17	0.49	2
	47	3.18	0.46	2
	48	3.19	0.41	2
	49	3.2	0.43	2
	50	3.2	0.42	2
	51	3.21	0.38	2
	52	3.22	0.41	2
	53	3.22	0.44	2
	54	3.23	0.4	2
	55	3.23	0.37	2
	56	3.24	0.37	2
	57	3.25	0.38	2
	58	3.25	0.38	2
	59	3.26	0.38	2
	60	3.27	0.39	2
	61	3.27	0.48	2
	62	3.28	0.37	2
	63	3.29	0.39	2
	64	3.3	0.47	2.2
	65	3.31	0.43	2
	66	3.31	0.41	2
	67	3.32	0.38	2
	68	3.33	0.38	2
	69	3.34	0.54	2
	70	3.35	0.62	2
	71	3.36	0.41	2
	72	3.37	0.75	2
	73	3.39	0.51	2
	74	3.39	0.35	2
	75	3.4	0.37	2
	76	3.41	0.4	2
	77	3.42	0.37	2
	78	3.43	0.37	2
	79	3.44	0.36	2
	80	3.44	0.38	2
	81	3.45	0.41	2
	82	3.46	0.39	2
	83	3.47	0.38	2
	84	3.47	0.37	2
	85	3.49	0.67	2
	86	3.5	0.35	2
	87	3.51	0.58	2
	88	3.52	0.57	2
	89	3.53	0.55	2
	90	3.54	0.71	2
	91	3.56	0.71	2
	92	3.57	0.51	2
	93	3.58	0.68	2
	94	3.6	0.71	2
	95	3.61	0.51	2
	96	3.62	0.54	2
	97	3.63	0.62	2
	98	3.64	0.36	2
	99	3.65	0.45	2
	100	3.66	0.41	2
	101	3.66	0.36	2
	102	3.67	0.38	2
	103	3.68	0.42	2
	104	3.69	0.62	2
	105	3.71	0.7	2
	106	3.72	0.75	2
	107	3.73	0.86	2
	108	3.75	0.78	2
	109	3.77	0.76	2
	110	3.78	0.69	2
	111	3.8	0.94	2
	112	3.83	1.02	2
	113	3.84	0.53	2
	114	3.85	0.43	2
	115	3.86	0.43	2
	116	3.88	0.43	2
	117	3.89	0.9	2
	118	3.93	0.76	2
	119	3.96	0.63	2
	120	3.99	1.02	2
	121	4.01	0.52	2
	122	4.04	0.59	2
	123	4.08	0.78	2
	124	4.12	0.88	2
	125	4.14	0.71	2
	126	4.16	0.47	2
	127	4.2	0.66	2
	128	4.22	0.49	2
	129	4.23	0.51	2
	130	4.26	0.76	2
	131	4.29	0.67	2
	132	4.31	0.48	2
	133	4.33	0.56	2
	134	4.35	0.62	2
	135	4.37	0.59	2
	136	4.4	0.57	2
	137	4.46	0.81	2
	138	4.49	0.65	2
	139	4.51	0.76	2
	140	4.52	0.81	2
	141	4.53	0.52	2
	142	4.55	0.57	2
	143	4.57	0.45	2
	144	4.58	0.49	2
	145	4.6	0.5	2
	146	4.62	0.51	2
	147	4.63	0.45	2
	148	4.65	0.44	2
	149	4.66	0.5	2
	150	4.68	0.49	2
	151	4.69	0.41	2
	152	4.71	0.37	2
	153	4.72	0.36	2
	154	4.74	0.42	2
	155	4.76	0.47	2
	156	4.77	0.43	2
	157	4.8	0.62	2
	158	4.82	0.61	2
	159	4.86	0.82	2
	160	4.9	0.77	2
	161	4.94	0.67	2
	162	4.97	0.64	2
	163	4.99	0.37	2
	164	5.02	0.54	2
	165	5.05	0.45	2
	166	5.08	0.69	2
	167	5.12	0.7	2
	168	5.16	0.63	2
	169	5.17	0.34	2
	170	5.2	0.47	2
	171	5.22	0.45	2
	172	5.24	0.37	2
	173	5.26	0.35	2
	174	5.29	0.34	2
	175	5.33	0.61	2
	176	5.38	0.7	2
	177	5.45	0.49	2
	178	5.65	0.47	2
	179	5.67	0.96	2
	180	5.7	0.5	2
	181	5.75	0.46	2
	182	5.8	0.44	2
	183	5.85	0.38	2
	184	5.9	0.35	2
	185	5.99	0.5	2
	186	6.15	0.6	2
	187	6.48	0.95	2
	188	6.79	1.19	2
	189	6.94	0.8	2

