File:              	C:\Qtrac\Data\ME2C30710C.QZD
Name:              	 ST26P
Protocol:          	MSCAN-MV
Date:              	10/7/23
Date of birth:     	26/5/03
Age:               	20
Sex:               	M
Temperature:       	33.2
S/R sites:         	Knee CF-TA
NC/disease:        	NC
Operator:          	BY
Comments:
M-SCAN DATA (Repeat 2/3, 22.5-14.2m)
Scanpts: 21, 49, 619, 671
Stim. (mA)     	Amp. (mV)
MS.1           	18             	8.117
MS.2           	18             	8.122
MS.3           	18             	8.129
MS.4           	18             	8.088
MS.5           	18             	8.08
MS.6           	18             	8.084
MS.7           	18             	8.063
MS.8           	18             	8.061
MS.9           	18             	8.062
MS.10          	18             	8.083
MS.11          	18             	8.071
MS.12          	18             	8.074
MS.13          	18             	8.072
MS.14          	18             	8.055
MS.15          	18             	8.06
MS.16          	18             	8.064
MS.17          	18             	8.116
MS.18          	18             	8.057
MS.19          	18             	8.063
MS.20          	18             	8.066
MS.21          	18             	8.034
MS.22          	18             	8.058
MS.23          	18             	8.063
MS.24          	17.965         	8.047
MS.25          	17.927         	8.054
MS.26          	17.892         	8.062
MS.27          	17.858         	8.04
MS.28          	17.82          	8.057
MS.29          	17.785         	8.052
MS.30          	17.75          	8.078
MS.31          	17.715         	8.049
MS.32          	17.68          	8.046
MS.33          	17.642         	8.054
MS.34          	17.608         	8.06
MS.35          	17.573         	8.051
MS.36          	17.538         	8.058
MS.37          	17.503         	8.053
MS.38          	17.467         	8.063
MS.39          	17.432         	8.055
MS.40          	17.397         	8.073
MS.41          	17.362         	8.054
MS.42          	17.33          	8.061
MS.43          	17.295         	8.062
MS.44          	17.26          	8.05
MS.45          	17.225         	8.056
MS.46          	17.19          	8.068
MS.47          	17.157         	8.036
MS.48          	17.122         	8.04
MS.49          	17.087         	8.069
MS.50          	17.055         	8.068
MS.51          	17.02          	8.072
MS.52          	16.985         	8.084
MS.53          	16.952         	8.05
MS.54          	16.917         	8.074
MS.55          	16.885         	8.033
MS.56          	16.85          	8.06
MS.57          	16.817         	8.051
MS.58          	16.782         	8.021
MS.59          	16.75          	8.052
MS.60          	16.715         	8.033
MS.61          	16.682         	8.033
MS.62          	16.65          	8.008
MS.63          	16.615         	8.019
MS.64          	16.583         	8.021
MS.65          	16.55          	8.051
MS.66          	16.517         	8.005
MS.67          	16.483         	7.984
MS.68          	16.45          	8.029
MS.69          	16.417         	8.019
MS.70          	16.385         	8.027
MS.71          	16.352         	8.019
MS.72          	16.32          	8.032
MS.73          	16.288         	8.021
MS.74          	16.255         	7.999
MS.75          	16.222         	8.034
MS.76          	16.19          	7.986
MS.77          	16.157         	8.004
MS.78          	16.125         	8.021
MS.79          	16.092         	8.021
MS.80          	16.06          	8.024
MS.81          	16.028         	8.034
MS.82          	15.997         	7.964
MS.83          	15.965         	7.988
MS.84          	15.932         	7.978
MS.85          	15.9           	8.006
MS.86          	15.87          	7.997
MS.87          	15.837         	7.99
MS.88          	15.805         	7.994
MS.89          	15.775         	7.971
MS.90          	15.742         	7.963
MS.91          	15.71          	7.979
MS.92          	15.68          	7.979
MS.93          	15.648         	8
MS.94          	15.617         	8.005
MS.95          	15.585         	8.008
MS.96          	15.555         	8
MS.97          	15.525         	7.984
MS.98          	15.492         	7.996
MS.99          	15.462         	8.008
MS.100         	15.43          	7.991
MS.101         	15.4           	7.932
MS.102         	15.37          	7.977
MS.103         	15.337         	7.974
MS.104         	15.307         	7.975
MS.105         	15.277         	7.982
MS.106         	15.247         	8.002
MS.107         	15.217         	7.999
MS.108         	15.185         	7.983
MS.109         	15.155         	7.985
MS.110         	15.125         	7.977
MS.111         	15.095         	8.005
MS.112         	15.065         	8.005
MS.113         	15.035         	7.99
MS.114         	15.005         	7.951
MS.115         	14.975         	7.951
MS.116         	14.945         	7.979
MS.117         	14.915         	7.958
MS.118         	14.885         	7.958
MS.119         	14.855         	7.9
MS.120         	14.825         	7.891
MS.121         	14.795         	7.94
MS.122         	14.767         	7.988
MS.123         	14.737         	7.917
MS.124         	14.707         	7.958
MS.125         	14.677         	7.946
MS.126         	14.65          	7.963
MS.127         	14.62          	7.886
MS.128         	14.59          	7.936
MS.129         	14.562         	7.882
MS.130         	14.532         	7.958
MS.131         	14.502         	7.928
MS.132         	14.475         	7.899
MS.133         	14.445         	7.877
MS.134         	14.417         	8.007
MS.135         	14.387         	7.941
MS.136         	14.36          	7.928
MS.137         	14.33          	7.943
MS.138         	14.302         	7.968
MS.139         	14.273         	7.878
MS.140         	14.245         	7.905
MS.141         	14.215         	7.957
MS.142         	14.188         	7.902
MS.143         	14.16          	7.949
MS.144         	14.13          	7.861
MS.145         	14.102         	7.838
MS.146         	14.075         	7.912
MS.147         	14.047         	7.891
MS.148         	14.017         	7.957
MS.149         	13.99          	7.864
MS.150         	13.962         	7.878
MS.151         	13.935         	7.841
MS.152         	13.907         	7.883
MS.153         	13.88          	7.861
MS.154         	13.85          	7.861
MS.155         	13.822         	7.739
MS.156         	13.795         	7.83
MS.157         	13.767         	7.706
MS.158         	13.74          	7.86
MS.159         	13.712         	7.757
MS.160         	13.685         	7.838
MS.161         	13.657         	7.682
MS.162         	13.632         	7.69
MS.163         	13.605         	7.815
MS.164         	13.577         	7.632
MS.165         	13.55          	7.837
MS.166         	13.523         	7.788
MS.167         	13.495         	7.762
MS.168         	13.467         	7.726
MS.169         	13.443         	7.786
MS.170         	13.415         	7.805
MS.171         	13.387         	7.656
MS.172         	13.362         	7.8
MS.173         	13.335         	7.805
MS.174         	13.307         	7.685
MS.175         	13.282         	7.693
MS.176         	13.255         	7.662
MS.177         	13.227         	7.552
MS.178         	13.202         	7.598
MS.179         	13.175         	7.765
MS.180         	13.15          	7.671
MS.181         	13.122         	7.626
MS.182         	13.097         	7.426
MS.183         	13.07          	7.489
MS.184         	13.045         	7.428
MS.185         	13.017         	7.542
MS.186         	12.992         	7.473
MS.187         	12.967         	7.449
MS.188         	12.94          	7.454
MS.189         	12.915         	7.523
MS.190         	12.89          	7.435
MS.191         	12.862         	7.492
MS.192         	12.837         	7.394
MS.193         	12.812         	7.515
MS.194         	12.787         	7.463
MS.195         	12.76          	7.351
MS.196         	12.735         	7.426
MS.197         	12.71          	7.504
MS.198         	12.685         	7.422
MS.199         	12.66          	7.355
MS.200         	12.635         	7.302
MS.201         	12.608         	7.535
MS.202         	12.582         	7.427
MS.203         	12.557         	7.399
MS.204         	12.532         	7.44
MS.205         	12.507         	7.499
MS.206         	12.483         	7.441
MS.207         	12.457         	7.414
MS.208         	12.432         	7.463
MS.209         	12.407         	7.382
MS.210         	12.382         	7.482
MS.211         	12.36          	7.463
MS.212         	12.335         	7.341
MS.213         	12.31          	7.432
MS.214         	12.285         	7.354
MS.215         	12.26          	7.434
MS.216         	12.235         	7.365
MS.217         	12.212         	7.485
MS.218         	12.188         	7.442
MS.219         	12.162         	7.415
MS.220         	12.137         	7.32
MS.221         	12.115         	7.435
MS.222         	12.09          	7.432
MS.223         	12.065         	7.437
MS.224         	12.042         	7.348
MS.225         	12.017         	7.393
MS.226         	11.992         	7.289
MS.227         	11.97          	7.381
MS.228         	11.945         	7.406
MS.229         	11.922         	7.31
MS.230         	11.898         	7.388
MS.231         	11.875         	7.247
MS.232         	11.85          	7.339
MS.233         	11.827         	7.209
MS.234         	11.802         	7.258
MS.235         	11.78          	7.289
MS.236         	11.755         	7.303
MS.237         	11.733         	7.317
MS.238         	11.71          	7.304
MS.239         	11.685         	7.172
MS.240         	11.662         	7.224
MS.241         	11.64          	7.241
MS.242         	11.615         	7.096
MS.243         	11.592         	7.284
MS.244         	11.57          	7.101
MS.245         	11.547         	7.13
MS.246         	11.523         	7.108
MS.247         	11.5           	7.206
MS.248         	11.477         	7.17
MS.249         	11.455         	7.146
MS.250         	11.432         	7.176
MS.251         	11.407         	7.123
MS.252         	11.385         	7.076
MS.253         	11.363         	7.107
MS.254         	11.34          	6.96
MS.255         	11.318         	6.927
MS.256         	11.295         	7.103
MS.257         	11.273         	7.038
MS.258         	11.25          	6.992
MS.259         	11.227         	7.05
MS.260         	11.205         	6.982
MS.261         	11.182         	7.034
MS.262         	11.16          	7.122
MS.263         	11.137         	6.916
MS.264         	11.115         	6.953
MS.265         	11.092         	6.935
MS.266         	11.073         	6.869
MS.267         	11.05          	6.787
MS.268         	11.028         	6.787
MS.269         	11.005         	6.82
MS.270         	10.983         	6.729
MS.271         	10.962         	6.761
MS.272         	10.94          	6.947
MS.273         	10.917         	6.692
MS.274         	10.895         	6.602
MS.275         	10.875         	6.741
MS.276         	10.852         	6.669
MS.277         	10.83          	6.589
MS.278         	10.81          	6.696
MS.279         	10.787         	6.594
MS.280         	10.765         	6.556
MS.281         	10.745         	6.69
MS.282         	10.722         	6.644
MS.283         	10.702         	6.626
MS.284         	10.68          	6.497
MS.285         	10.657         	6.317
MS.286         	10.637         	6.557
MS.287         	10.615         	6.472
MS.288         	10.595         	6.417
MS.289         	10.573         	6.353
MS.290         	10.552         	6.231
MS.291         	10.532         	6.396
MS.292         	10.51          	6.407
MS.293         	10.49          	6.292
MS.294         	10.467         	6.438
MS.295         	10.448         	6.227
MS.296         	10.427         	6.207
MS.297         	10.405         	6.106
MS.298         	10.385         	6.142
MS.299         	10.365         	6.072
MS.300         	10.342         	6.151
MS.301         	10.323         	6.155
MS.302         	10.302         	6.111
MS.303         	10.282         	6.14
MS.304         	10.26          	6.028
MS.305         	10.24          	5.878
MS.306         	10.22          	5.92
MS.307         	10.2           	5.923
MS.308         	10.18          	5.9
MS.309         	10.16          	5.759
MS.310         	10.14          	5.63
MS.311         	10.117         	5.551
MS.312         	10.097         	5.824
MS.313         	10.077         	5.596
MS.314         	10.057         	5.726
MS.315         	10.037         	5.791
MS.316         	10.017         	5.61
MS.317         	9.997          	5.624
MS.318         	9.977          	5.565
MS.319         	9.957          	5.657
MS.320         	9.938          	5.562
MS.321         	9.917          	5.494
MS.322         	9.898          	5.248
MS.323         	9.877          	5.559
MS.324         	9.86           	5.289
MS.325         	9.84           	5.36
MS.326         	9.82           	5.164
MS.327         	9.8            	5.168
MS.328         	9.78           	5.146
MS.329         	9.76           	5.162
MS.330         	9.742          	5.074
MS.331         	9.722          	5.055
MS.332         	9.702          	5.247
MS.333         	9.682          	4.899
MS.334         	9.662          	4.999
MS.335         	9.645          	5.054
MS.336         	9.625          	4.916
MS.337         	9.605          	4.693
MS.338         	9.587          	4.799
MS.339         	9.568          	4.767
MS.340         	9.547          	4.646
MS.341         	9.53           	4.611
MS.342         	9.51           	4.626
MS.343         	9.492          	4.636
MS.344         	9.472          	4.724
MS.345         	9.452          	4.425
MS.346         	9.435          	4.406
MS.347         	9.415          	4.398
MS.348         	9.398          	4.587
MS.349         	9.377          	4.34
MS.350         	9.36           	4.385
MS.351         	9.34           	4.451
MS.352         	9.323          	4.32
MS.353         	9.302          	4.158
MS.354         	9.285          	4.16
MS.355         	9.265          	4.21
MS.356         	9.247          	4.1
MS.357         	9.23           	4.207
MS.358         	9.21           	4.064
MS.359         	9.193          	4.174
MS.360         	9.175          	4.031
MS.361         	9.155          	3.979
MS.362         	9.137          	3.86
MS.363         	9.12           	3.809
MS.364         	9.1            	3.862
MS.365         	9.082          	3.986
MS.366         	9.065          	3.706
MS.367         	9.047          	3.708
MS.368         	9.028          	3.762
MS.369         	9.01           	3.646
MS.370         	8.992          	3.528
MS.371         	8.975          	3.563
MS.372         	8.957          	3.546
MS.373         	8.938          	3.56
MS.374         	8.92           	3.386
MS.375         	8.903          	3.469
MS.376         	8.885          	3.429
MS.377         	8.867          	3.467
MS.378         	8.85           	3.295
MS.379         	8.832          	3.309
MS.380         	8.815          	3.431
MS.381         	8.797          	3.185
MS.382         	8.78           	3.361
MS.383         	8.762          	3.204
MS.384         	8.745          	3.16
MS.385         	8.727          	3.197
MS.386         	8.71           	3.115
MS.387         	8.693          	3.244
MS.388         	8.675          	3.083
MS.389         	8.658          	3.076
MS.390         	8.64           	3.004
MS.391         	8.622          	3.043
MS.392         	8.605          	2.975
MS.393         	8.587          	2.908
MS.394         	8.57           	2.904
MS.395         	8.555          	2.934
MS.396         	8.537          	2.841
MS.397         	8.52           	2.834
MS.398         	8.502          	2.874
MS.399         	8.485          	2.816
MS.400         	8.467          	2.794
MS.401         	8.452          	2.693
MS.402         	8.435          	2.672
MS.403         	8.417          	2.654
MS.404         	8.4            	2.595
MS.405         	8.385          	2.599
MS.406         	8.367          	2.667
MS.407         	8.35           	2.61
MS.408         	8.335          	2.644
MS.409         	8.318          	2.604
MS.410         	8.3            	2.567
MS.411         	8.285          	2.543
MS.412         	8.267          	2.504
MS.413         	8.252          	2.419
MS.414         	8.235          	2.418
MS.415         	8.217          	2.55
MS.416         	8.202          	2.494
MS.417         	8.185          	2.36
MS.418         	8.17           	2.294
MS.419         	8.153          	2.297
MS.420         	8.137          	2.355
MS.421         	8.12           	2.355
MS.422         	8.105          	2.454
MS.423         	8.087          	2.202
MS.424         	8.073          	2.192
MS.425         	8.055          	2.195
MS.426         	8.04           	2.208
MS.427         	8.023          	2.117
MS.428         	8.007          	2.07
MS.429         	7.992          	2.023
MS.430         	7.975          	2.025
MS.431         	7.96           	1.976
MS.432         	7.942          	2.032
MS.433         	7.927          	1.962
MS.434         	7.912          	1.976
MS.435         	7.895          	1.899
MS.436         	7.88           	1.995
MS.437         	7.865          	1.846
MS.438         	7.85           	1.815
MS.439         	7.832          	1.793
MS.440         	7.817          	1.777
MS.441         	7.802          	1.647
MS.442         	7.787          	1.77
MS.443         	7.77           	1.793
MS.444         	7.755          	1.704
MS.445         	7.74           	1.522
MS.446         	7.725          	1.631
MS.447         	7.71           	1.516
MS.448         	7.692          	1.573
MS.449         	7.677          	1.519
MS.450         	7.662          	1.438
MS.451         	7.648          	1.505
MS.452         	7.632          	1.436
MS.453         	7.617          	1.328
MS.454         	7.602          	1.478
MS.455         	7.587          	1.385
MS.456         	7.572          	1.384
MS.457         	7.555          	1.562
MS.458         	7.54           	1.344
MS.459         	7.525          	1.38
MS.460         	7.51           	1.265
MS.461         	7.495          	1.317
MS.462         	7.48           	1.246
MS.463         	7.465          	1.26
MS.464         	7.45           	1.232
MS.465         	7.438          	1.265
MS.466         	7.422          	1.212
MS.467         	7.407          	1.202
MS.468         	7.392          	1.185
MS.469         	7.378          	1.142
MS.470         	7.362          	1.122
MS.471         	7.347          	1.09
MS.472         	7.332          	1.099
MS.473         	7.317          	0.969
MS.474         	7.302          	1.022
MS.475         	7.29           	1.017
MS.476         	7.275          	1.108
MS.477         	7.26           	1.018
MS.478         	7.245          	0.933
MS.479         	7.23           	0.984
MS.480         	7.217          	0.953
MS.481         	7.202          	0.963
MS.482         	7.188          	0.91
MS.483         	7.172          	0.927
MS.484         	7.16           	0.813
MS.485         	7.145          	0.829
MS.486         	7.13           	0.847
MS.487         	7.115          	0.737
MS.488         	7.102          	0.766
MS.489         	7.087          	0.764
MS.490         	7.072          	0.771
MS.491         	7.06           	0.676
MS.492         	7.045          	0.738
MS.493         	7.032          	0.703
MS.494         	7.017          	0.688
MS.495         	7.003          	0.652
MS.496         	6.99           	0.682
MS.497         	6.975          	0.634
MS.498         	6.962          	0.638
MS.499         	6.947          	0.607
MS.500         	6.932          	0.638
MS.501         	6.92           	0.582
MS.502         	6.905          	0.619
MS.503         	6.892          	0.486
MS.504         	6.878          	0.526
MS.505         	6.865          	0.493
MS.506         	6.85           	0.543
MS.507         	6.837          	0.518
MS.508         	6.822          	0.506
MS.509         	6.81           	0.442
MS.510         	6.797          	0.442
MS.511         	6.782          	0.436
MS.512         	6.77           	0.458
MS.513         	6.755          	0.463
MS.514         	6.742          	0.386
MS.515         	6.727          	0.405
MS.516         	6.715          	0.406
MS.517         	6.702          	0.399
MS.518         	6.688          	0.315
MS.519         	6.675          	0.414
MS.520         	6.662          	0.392
MS.521         	6.648          	0.329
MS.522         	6.635          	0.322
MS.523         	6.622          	0.278
MS.524         	6.608          	0.291
MS.525         	6.595          	0.295
MS.526         	6.582          	0.413
MS.527         	6.57           	0.272
MS.528         	6.555          	0.286
MS.529         	6.543          	0.236
MS.530         	6.53           	0.213
MS.531         	6.517          	0.214
MS.532         	6.503          	0.217
MS.533         	6.49           	0.298
MS.534         	6.477          	0.233
MS.535         	6.465          	0.195
MS.536         	6.452          	0.25
MS.537         	6.44           	0.172
MS.538         	6.425          	0.198
MS.539         	6.412          	0.196
MS.540         	6.4            	0.229
MS.541         	6.387          	0.264
MS.542         	6.375          	0.182
MS.543         	6.362          	0.125
MS.544         	6.35           	0.147
MS.545         	6.338          	0.114
MS.546         	6.325          	0.129
MS.547         	6.312          	0.12
MS.548         	6.3            	0.109
MS.549         	6.287          	0.089
MS.550         	6.273          	0.132
MS.551         	6.26           	0.095
MS.552         	6.247          	0.046
MS.553         	6.235          	0.091
MS.554         	6.222          	0.086
MS.555         	6.213          	0.071
MS.556         	6.2            	0.082
MS.557         	6.188          	0.017
MS.558         	6.175          	0.049
MS.559         	6.162          	0.038
MS.560         	6.15           	0.043
MS.561         	6.137          	0.041
MS.562         	6.125          	0.038
MS.563         	6.112          	0.06
MS.564         	6.1            	0.032
MS.565         	6.088          	0.037
MS.566         	6.075          	0.032
MS.567         	6.065          	0.04
MS.568         	6.052          	0.023
MS.569         	6.04           	0.035
MS.570         	6.027          	-0.042
MS.571         	6.015          	-0.001
MS.572         	6.003          	-0.009
MS.573         	5.992          	-0.035
MS.574         	5.98           	-0.046
MS.575         	5.967          	-0.003
MS.576         	5.955          	-0.003
MS.577         	5.945          	-0.054
MS.578         	5.932          	0.006
MS.579         	5.92           	-0.042
MS.580         	5.907          	-0.038
MS.581         	5.898          	-0.042
MS.582         	5.885          	-0.059
MS.583         	5.872          	0.001
MS.584         	5.862          	-0.039
MS.585         	5.85           	-0.048
MS.586         	5.838          	-0.074
MS.587         	5.825          	-0.058
MS.588         	5.815          	-0.067
MS.589         	5.802          	-0.027
MS.590         	5.793          	-0.036
MS.591         	5.78           	-0.078
MS.592         	5.767          	-0.029
MS.593         	5.757          	-0.026
MS.594         	5.745          	-0.063
MS.595         	5.735          	-0.068
MS.596         	5.722          	-0.041
MS.597         	5.71           	-0.072
MS.598         	5.7            	-0.068
MS.599         	5.688          	-0.06
MS.600         	5.677          	-0.056
MS.601         	5.665          	-0.07
MS.602         	5.655          	-0.061
MS.603         	5.642          	-0.068
MS.604         	5.632          	-0.063
MS.605         	5.62           	-0.052
MS.606         	5.61           	-0.072
MS.607         	5.597          	-0.04
MS.608         	5.588          	-0.068
MS.609         	5.575          	-0.075
MS.610         	5.565          	-0.069
MS.611         	5.552          	-0.079
MS.612         	5.543          	-0.062
MS.613         	5.53           	-0.081
MS.614         	5.52           	-0.076
MS.615         	5.51           	-0.063
MS.616         	5.497          	-0.078
MS.617         	5.487          	-0.081
MS.618         	5.475          	-0.064
MS.619         	5.465          	-0.08
MS.620         	5.455          	-0.071
MS.621         	5.443          	-0.074
MS.622         	5.432          	-0.061
MS.623         	5.422          	-0.081
MS.624         	5.41           	-0.074
MS.625         	5.4            	-0.084
MS.626         	5.39           	-0.07
MS.627         	5.378          	-0.084
MS.628         	5.367          	-0.065
MS.629         	5.358          	-0.078
MS.630         	5.345          	-0.071
MS.631         	5.335          	-0.074
MS.632         	5.325          	-0.077
MS.633         	5.315          	-0.077
MS.634         	5.302          	-0.074
MS.635         	5.293          	-0.08
MS.636         	5.282          	-0.076
MS.637         	5.273          	-0.061
MS.638         	5.262          	-0.07
MS.639         	5.25           	-0.067
MS.640         	5.24           	-0.078
MS.641         	5.23           	-0.085
MS.642         	5.22           	-0.079
MS.643         	5.21           	-0.082
MS.644         	5.197          	-0.081
MS.645         	5.188          	-0.078
MS.646         	5.177          	-0.071
MS.647         	5.168          	-0.081
MS.648         	5.157          	-0.081
MS.649         	5.148          	-0.072
MS.650         	5.137          	-0.079
MS.651         	5.125          	-0.077
MS.652         	5.115          	-0.079
MS.653         	5.105          	-0.079
MS.654         	5.095          	-0.079
MS.655         	5.085          	-0.078
MS.656         	5.075          	-0.075
MS.657         	5.065          	-0.082
MS.658         	5.055          	-0.077
MS.659         	5.045          	-0.079
MS.660         	5.035          	-0.078
MS.661         	5.025          	-0.077
MS.662         	5.015          	-0.078
MS.663         	5.005          	-0.078
MS.664         	4.995          	-0.077
MS.665         	4.985          	-0.076
MS.666         	4.975          	-0.073
MS.667         	4.965          	-0.071
MS.668         	4.955          	-0.074
MS.669         	4.945          	-0.076
MS.670         	4.935          	-0.076
MS.671         	4.925          	-0.073
DERIVED EXCITABILITY VARIABLES
Program = QTracP 27/06/2023
Threshold method = 6 (optimised for CAP, using data for present condition only)
SR method = 1 (using actual data values)
6.                 	0.000               	Peak response\(mV)
9.                 	33.2                	Temperature ( C)
17.                	20                  	Age (years)
18.                	1                   	Sex (M=1, F=2)

EXTRA VARIABLES

MScPeak(mV) = 8.15
MScS5(mA) = 6.65
MScS50(mA) = 9.2
MScS95(mA) = 13.53
MScNSteps = 0
MScSteps(%) = 0.0
MScStepMax(%) = 0.0
MScD50 = 70
MScSlope = 3.92
MScDuration(min) = 8.9
MSFTraces = 651
MSFPeakAmp(mV) = 8.13
MSFNUnits = 168
MSFMeanUnitAmp(uV) = 48.4
MSFHuntTime(m) = 2.15
MSFError(%) = 1.63
MSFNLarge = 63.26
MSFMedianAmp(%) = 0.565
MSFMedianAmp(mV) = 0.0459
MSFHalfAmpAmp(%) = 0.623
MSFHalfAmpAmp(mV) = 0.0507
MSFLargestAmp(%) = 1.53
MSFLargestAmp(mV) = 0.124
MSFMeanRS(%) = 1.99
MSFSizeLimit(uV) = 27.1
MSFLimitType = 1
MSFSmallestAmp(uV) = 27.3
MSFOpts = 10104222032
MSFSDMax = 11.2
MSFSDMin = 5.15

EXTRA WAVEFORMS


!MScan Model
!168
	1	5.84	0.39	1.99
	2	6	0.48	1.99
	3	6.08	0.48	1.99
	4	6.26	0.69	1.99
	5	6.31	0.55	1.99
	6	6.4	0.67	1.99
	7	6.5	0.81	1.99
	8	6.56	0.35	1.99
	9	6.63	0.56	1.99
	10	6.67	0.54	1.99
	11	6.72	0.38	1.99
	12	6.75	0.38	1.99
	13	6.81	0.58	1.99
	14	6.84	0.4	1.99
	15	6.89	0.71	1.99
	16	6.97	0.84	1.99
	17	7	0.41	1.99
	18	7.04	0.57	1.99
	19	7.09	0.67	1.99
	20	7.12	0.54	1.99
	21	7.16	0.52	1.99
	22	7.17	0.38	1.99
	23	7.19	0.34	1.99
	24	7.23	0.53	1.99
	25	7.27	0.63	1.99
	26	7.29	0.34	1.99
	27	7.31	0.44	1.99
	28	7.34	0.46	1.99
	29	7.37	0.36	1.99
	30	7.4	0.48	1.99
	31	7.44	0.7	1.99
	32	7.48	0.76	1.99
	33	7.52	0.55	1.99
	34	7.58	0.69	1.99
	35	7.62	0.71	1.99
	36	7.65	0.46	1.99
	37	7.69	0.65	1.99
	38	7.71	0.63	1.99
	39	7.75	0.61	1.99
	40	7.77	0.54	1.99
	41	7.79	0.59	1.99
	42	7.82	0.57	1.99
	43	7.84	0.56	1.99
	44	7.86	0.39	1.99
	45	7.88	0.38	1.99
	46	7.91	0.54	1.99
	47	7.94	0.64	1.99
	48	7.97	0.62	1.99
	49	7.98	0.44	1.99
	50	8	0.55	1.99
	51	8.03	0.66	1.99
	52	8.07	0.77	1.99
	53	8.11	0.79	1.99
	54	8.14	0.51	1.99
	55	8.17	0.62	1.99
	56	8.22	0.76	1.99
	57	8.26	0.67	1.99
	58	8.29	0.57	1.99
	59	8.33	0.45	1.99
	60	8.37	0.53	1.99
	61	8.38	0.37	1.99
	62	8.41	0.39	1.99
	63	8.44	0.47	1.99
	64	8.47	0.39	1.99
	65	8.49	0.37	1.99
	66	8.52	0.62	1.99
	67	8.54	0.45	1.99
	68	8.56	0.56	1.99
	69	8.6	0.67	1.99
	70	8.62	0.55	1.99
	71	8.65	0.38	1.99
	72	8.67	0.57	1.99
	73	8.69	0.36	1.99
	74	8.71	0.37	1.99
	75	8.74	0.66	1.99
	76	8.76	0.34	1.99
	77	8.78	0.37	1.99
	78	8.82	0.59	1.99
	79	8.84	0.4	1.99
	80	8.86	0.34	1.99
	81	8.89	0.61	1.99
	82	8.9	0.45	1.99
	83	8.92	0.35	1.99
	84	8.93	0.38	1.99
	85	8.96	0.68	1.99
	86	9	0.83	1.99
	87	9.03	0.69	1.99
	88	9.05	0.53	1.99
	89	9.07	0.54	1.99
	90	9.09	0.56	1.99
	91	9.11	0.74	1.99
	92	9.14	0.6	1.99
	93	9.16	0.44	1.99
	94	9.17	0.34	1.99
	95	9.19	0.39	1.99
	96	9.2	0.4	1.99
	97	9.22	0.51	1.99
	98	9.25	0.62	1.99
	99	9.27	0.63	1.99
	100	9.3	0.51	1.99
	101	9.32	0.43	1.99
	102	9.34	0.43	1.99
	103	9.36	0.51	1.99
	104	9.39	0.47	1.99
	105	9.41	0.53	1.99
	106	9.44	0.8	1.99
	107	9.47	0.68	1.99
	108	9.49	0.4	1.99
	109	9.5	0.38	1.99
	110	9.52	0.4	1.99
	111	9.54	0.46	1.99
	112	9.56	0.51	1.99
	113	9.58	0.54	1.99
	114	9.6	0.61	1.99
	115	9.64	0.67	1.99
	116	9.66	0.53	1.99
	117	9.68	0.69	1.99
	118	9.72	0.95	1.99
	119	9.75	0.79	1.99
	120	9.78	0.66	1.99
	121	9.8	0.59	1.99
	122	9.83	0.87	1.99
	123	9.85	0.58	1.99
	124	9.89	0.9	1.99
	125	9.93	0.84	1.99
	126	9.98	0.97	1.99
	127	10.03	1.07	1.99
	128	10.08	0.7	1.99
	129	10.11	0.52	1.99
	130	10.14	0.68	1.99
	131	10.17	0.63	1.99
	132	10.23	0.71	1.99
	133	10.26	0.64	1.99
	134	10.28	0.48	1.99
	135	10.3	0.43	1.99
	136	10.33	0.79	1.99
	137	10.35	0.36	1.99
	138	10.38	0.47	1.99
	139	10.41	0.58	1.99
	140	10.44	0.38	1.99
	141	10.48	0.55	1.99
	142	10.52	0.58	1.99
	143	10.56	0.59	1.99
	144	10.61	0.79	1.99
	145	10.66	0.47	1.99
	146	10.72	0.8	1.99
	147	10.8	1.04	1.99
	148	10.9	0.99	1.99
	149	10.94	0.34	1.99
	150	10.98	0.53	1.99
	151	11.02	0.62	1.99
	152	11.08	0.72	1.99
	153	11.16	0.88	1.99
	154	11.32	1.24	1.99
	155	11.48	0.74	1.99
	156	11.62	1	1.99
	157	11.76	0.66	1.99
	158	11.88	0.75	1.99
	159	12.18	0.94	1.99
	160	12.98	1.08	1.99
	161	13.07	1.16	1.99
	162	13.25	1.53	1.99
	163	13.72	1.03	1.99
	164	13.91	0.8	1.99
	165	14.11	0.58	1.99
	166	14.88	0.68	1.99
	167	15.88	0.42	1.99
	168	16.59	0.47	1.99

