File:              	C:\Qtrac\Data\ME2C30623A.QZD
Name:              	 ME25D
Protocol:          	MSCAN-MV
Date:              	23/6/23
Date of birth:     	25/8/01
Age:               	21
Sex:               	M
Temperature:       	32.1
S/R sites:         	Knee CF-TA
NC/disease:        	NC
Operator:          	BY
Comments:
M-SCAN DATA (Repeat 3/3, 30.9-23.6m)
Scanpts: 7, 26, 523, 587
Stim. (mA)     	Amp. (mV)
MS.1           	12             	3.903
MS.2           	12             	3.895
MS.3           	12             	3.891
MS.4           	12             	3.901
MS.5           	12             	3.912
MS.6           	12             	3.892
MS.7           	12             	3.871
MS.8           	12             	3.869
MS.9           	12             	3.845
MS.10          	12             	3.885
MS.11          	12             	3.864
MS.12          	12             	3.917
MS.13          	12             	3.923
MS.14          	12             	3.888
MS.15          	12             	3.829
MS.16          	12             	3.861
MS.17          	12             	3.804
MS.18          	12             	3.811
MS.19          	12             	3.859
MS.20          	12             	3.834
MS.21          	12             	3.884
MS.22          	12             	3.895
MS.23          	12             	3.851
MS.24          	11.975         	3.879
MS.25          	11.952         	3.899
MS.26          	11.927         	3.865
MS.27          	11.905         	3.871
MS.28          	11.88          	3.834
MS.29          	11.858         	3.804
MS.30          	11.832         	3.792
MS.31          	11.81          	3.834
MS.32          	11.785         	3.784
MS.33          	11.762         	3.859
MS.34          	11.74          	3.806
MS.35          	11.715         	3.772
MS.36          	11.693         	3.821
MS.37          	11.667         	3.75
MS.38          	11.645         	3.758
MS.39          	11.622         	3.745
MS.40          	11.6           	3.77
MS.41          	11.575         	3.754
MS.42          	11.552         	3.727
MS.43          	11.53          	3.756
MS.44          	11.507         	3.712
MS.45          	11.483         	3.672
MS.46          	11.46          	3.742
MS.47          	11.438         	3.704
MS.48          	11.415         	3.649
MS.49          	11.392         	3.676
MS.50          	11.37          	3.649
MS.51          	11.347         	3.676
MS.52          	11.325         	3.671
MS.53          	11.3           	3.641
MS.54          	11.278         	3.653
MS.55          	11.255         	3.647
MS.56          	11.233         	3.674
MS.57          	11.21          	3.632
MS.58          	11.188         	3.546
MS.59          	11.167         	3.619
MS.60          	11.145         	3.618
MS.61          	11.122         	3.598
MS.62          	11.1           	3.613
MS.63          	11.077         	3.601
MS.64          	11.055         	3.573
MS.65          	11.032         	3.6
MS.66          	11.01          	3.544
MS.67          	10.99          	3.604
MS.68          	10.967         	3.548
MS.69          	10.945         	3.538
MS.70          	10.922         	3.579
MS.71          	10.903         	3.569
MS.72          	10.88          	3.496
MS.73          	10.858         	3.556
MS.74          	10.837         	3.546
MS.75          	10.815         	3.52
MS.76          	10.792         	3.52
MS.77          	10.773         	3.536
MS.78          	10.75          	3.542
MS.79          	10.727         	3.495
MS.80          	10.707         	3.601
MS.81          	10.685         	3.499
MS.82          	10.665         	3.486
MS.83          	10.642         	3.457
MS.84          	10.622         	3.466
MS.85          	10.6           	3.447
MS.86          	10.58          	3.494
MS.87          	10.557         	3.404
MS.88          	10.537         	3.541
MS.89          	10.515         	3.433
MS.90          	10.495         	3.417
MS.91          	10.475         	3.453
MS.92          	10.452         	3.445
MS.93          	10.432         	3.449
MS.94          	10.412         	3.49
MS.95          	10.39          	3.394
MS.96          	10.37          	3.419
MS.97          	10.35          	3.421
MS.98          	10.327         	3.533
MS.99          	10.307         	3.557
MS.100         	10.287         	3.459
MS.101         	10.267         	3.477
MS.102         	10.245         	3.508
MS.103         	10.225         	3.468
MS.104         	10.205         	3.519
MS.105         	10.185         	3.383
MS.106         	10.165         	3.415
MS.107         	10.145         	3.444
MS.108         	10.125         	3.448
MS.109         	10.105         	3.392
MS.110         	10.082         	3.44
MS.111         	10.062         	3.415
MS.112         	10.042         	3.405
MS.113         	10.023         	3.408
MS.114         	10.002         	3.389
MS.115         	9.983          	3.352
MS.116         	9.962          	3.377
MS.117         	9.943          	3.326
MS.118         	9.922          	3.256
MS.119         	9.903          	3.297
MS.120         	9.885          	3.312
MS.121         	9.865          	3.334
MS.122         	9.845          	3.22
MS.123         	9.825          	3.207
MS.124         	9.805          	3.236
MS.125         	9.785          	3.267
MS.126         	9.765          	3.277
MS.127         	9.747          	3.211
MS.128         	9.727          	3.285
MS.129         	9.707          	3.195
MS.130         	9.688          	3.206
MS.131         	9.67           	3.222
MS.132         	9.65           	3.215
MS.133         	9.63           	3.247
MS.134         	9.61           	3.232
MS.135         	9.592          	3.217
MS.136         	9.573          	3.227
MS.137         	9.552          	3.123
MS.138         	9.535          	3.173
MS.139         	9.515          	3.163
MS.140         	9.497          	3.194
MS.141         	9.477          	3.242
MS.142         	9.457          	3.16
MS.143         	9.44           	3.195
MS.144         	9.42           	3.121
MS.145         	9.403          	3.229
MS.146         	9.382          	3.064
MS.147         	9.365          	3.199
MS.148         	9.345          	3.226
MS.149         	9.327          	3.224
MS.150         	9.307          	3.031
MS.151         	9.29           	3.163
MS.152         	9.27           	3.09
MS.153         	9.252          	3.052
MS.154         	9.235          	3.094
MS.155         	9.215          	3.052
MS.156         	9.198          	3.081
MS.157         	9.18           	3.083
MS.158         	9.16           	3.125
MS.159         	9.142          	3.023
MS.160         	9.125          	3.059
MS.161         	9.105          	3.126
MS.162         	9.087          	3.031
MS.163         	9.07           	3.066
MS.164         	9.052          	3.071
MS.165         	9.033          	3.024
MS.166         	9.015          	2.941
MS.167         	8.997          	3.055
MS.168         	8.98           	2.91
MS.169         	8.96           	2.914
MS.170         	8.943          	2.972
MS.171         	8.925          	2.953
MS.172         	8.908          	2.933
MS.173         	8.89           	2.935
MS.174         	8.872          	2.893
MS.175         	8.855          	2.895
MS.176         	8.837          	2.845
MS.177         	8.82           	2.864
MS.178         	8.802          	2.87
MS.179         	8.785          	2.884
MS.180         	8.765          	2.778
MS.181         	8.747          	2.784
MS.182         	8.73           	2.845
MS.183         	8.715          	2.813
MS.184         	8.698          	2.889
MS.185         	8.68           	2.785
MS.186         	8.662          	2.82
MS.187         	8.645          	2.675
MS.188         	8.627          	2.676
MS.189         	8.61           	2.709
MS.190         	8.592          	2.827
MS.191         	8.575          	2.642
MS.192         	8.557          	2.637
MS.193         	8.542          	2.561
MS.194         	8.525          	2.637
MS.195         	8.507          	2.598
MS.196         	8.49           	2.609
MS.197         	8.472          	2.573
MS.198         	8.457          	2.621
MS.199         	8.44           	2.531
MS.200         	8.422          	2.541
MS.201         	8.405          	2.581
MS.202         	8.39           	2.576
MS.203         	8.372          	2.555
MS.204         	8.355          	2.62
MS.205         	8.337          	2.504
MS.206         	8.323          	2.544
MS.207         	8.305          	2.518
MS.208         	8.29           	2.507
MS.209         	8.273          	2.531
MS.210         	8.255          	2.477
MS.211         	8.24           	2.506
MS.212         	8.222          	2.516
MS.213         	8.207          	2.474
MS.214         	8.19           	2.464
MS.215         	8.172          	2.448
MS.216         	8.158          	2.552
MS.217         	8.14           	2.463
MS.218         	8.125          	2.477
MS.219         	8.108          	2.443
MS.220         	8.092          	2.488
MS.221         	8.075          	2.343
MS.222         	8.06           	2.443
MS.223         	8.045          	2.378
MS.224         	8.028          	2.396
MS.225         	8.012          	2.402
MS.226         	7.995          	2.429
MS.227         	7.98           	2.357
MS.228         	7.965          	2.356
MS.229         	7.947          	2.328
MS.230         	7.932          	2.323
MS.231         	7.915          	2.35
MS.232         	7.9            	2.28
MS.233         	7.885          	2.282
MS.234         	7.87           	2.33
MS.235         	7.852          	2.29
MS.236         	7.837          	2.284
MS.237         	7.822          	2.281
MS.238         	7.805          	2.23
MS.239         	7.79           	2.303
MS.240         	7.775          	2.156
MS.241         	7.76           	2.21
MS.242         	7.745          	2.25
MS.243         	7.727          	2.271
MS.244         	7.712          	2.202
MS.245         	7.697          	2.166
MS.246         	7.682          	2.117
MS.247         	7.668          	2.211
MS.248         	7.652          	2.062
MS.249         	7.637          	2.077
MS.250         	7.62           	2.069
MS.251         	7.605          	2.133
MS.252         	7.59           	2.054
MS.253         	7.575          	2.068
MS.254         	7.56           	2.084
MS.255         	7.545          	2.104
MS.256         	7.53           	2.097
MS.257         	7.515          	1.986
MS.258         	7.5            	2.045
MS.259         	7.485          	2.013
MS.260         	7.47           	1.954
MS.261         	7.455          	1.972
MS.262         	7.44           	1.967
MS.263         	7.425          	1.958
MS.264         	7.41           	2.018
MS.265         	7.395          	1.886
MS.266         	7.38           	1.937
MS.267         	7.365          	1.869
MS.268         	7.352          	1.926
MS.269         	7.337          	1.871
MS.270         	7.322          	1.805
MS.271         	7.307          	1.898
MS.272         	7.293          	1.89
MS.273         	7.277          	1.74
MS.274         	7.265          	1.785
MS.275         	7.25           	1.761
MS.276         	7.235          	1.752
MS.277         	7.22           	1.818
MS.278         	7.205          	1.731
MS.279         	7.192          	1.718
MS.280         	7.177          	1.75
MS.281         	7.162          	1.655
MS.282         	7.148          	1.661
MS.283         	7.135          	1.736
MS.284         	7.12           	1.615
MS.285         	7.105          	1.614
MS.286         	7.092          	1.6
MS.287         	7.077          	1.547
MS.288         	7.062          	1.529
MS.289         	7.05           	1.556
MS.290         	7.035          	1.474
MS.291         	7.02           	1.569
MS.292         	7.007          	1.369
MS.293         	6.992          	1.569
MS.294         	6.98           	1.48
MS.295         	6.965          	1.514
MS.296         	6.95           	1.419
MS.297         	6.938          	1.377
MS.298         	6.922          	1.333
MS.299         	6.91           	1.506
MS.300         	6.895          	1.374
MS.301         	6.882          	1.519
MS.302         	6.867          	1.343
MS.303         	6.855          	1.417
MS.304         	6.84           	1.324
MS.305         	6.827          	1.306
MS.306         	6.812          	1.377
MS.307         	6.8            	1.252
MS.308         	6.787          	1.172
MS.309         	6.773          	1.18
MS.310         	6.76           	1.21
MS.311         	6.745          	1.166
MS.312         	6.733          	1.122
MS.313         	6.72           	1.093
MS.314         	6.705          	1.077
MS.315         	6.692          	1.168
MS.316         	6.677          	1.041
MS.317         	6.665          	1.066
MS.318         	6.652          	1.091
MS.319         	6.637          	1.095
MS.320         	6.625          	1.036
MS.321         	6.612          	1.049
MS.322         	6.6            	0.999
MS.323         	6.585          	0.988
MS.324         	6.572          	0.962
MS.325         	6.56           	0.912
MS.326         	6.547          	0.935
MS.327         	6.532          	0.907
MS.328         	6.52           	0.934
MS.329         	6.507          	0.896
MS.330         	6.495          	0.894
MS.331         	6.48           	0.883
MS.332         	6.467          	0.862
MS.333         	6.455          	0.829
MS.334         	6.442          	0.908
MS.335         	6.43           	0.818
MS.336         	6.418          	0.803
MS.337         	6.405          	0.795
MS.338         	6.39           	0.791
MS.339         	6.378          	0.808
MS.340         	6.365          	0.79
MS.341         	6.352          	0.706
MS.342         	6.34           	0.76
MS.343         	6.327          	0.733
MS.344         	6.315          	0.696
MS.345         	6.302          	0.751
MS.346         	6.29           	0.655
MS.347         	6.277          	0.676
MS.348         	6.265          	0.601
MS.349         	6.253          	0.599
MS.350         	6.24           	0.597
MS.351         	6.227          	0.599
MS.352         	6.215          	0.654
MS.353         	6.202          	0.592
MS.354         	6.19           	0.598
MS.355         	6.177          	0.605
MS.356         	6.165          	0.607
MS.357         	6.152          	0.541
MS.358         	6.14           	0.569
MS.359         	6.128          	0.516
MS.360         	6.115          	0.552
MS.361         	6.105          	0.508
MS.362         	6.092          	0.518
MS.363         	6.08           	0.503
MS.364         	6.067          	0.493
MS.365         	6.055          	0.472
MS.366         	6.043          	0.469
MS.367         	6.03           	0.426
MS.368         	6.02           	0.493
MS.369         	6.007          	0.446
MS.370         	5.995          	0.423
MS.371         	5.983          	0.397
MS.372         	5.97           	0.459
MS.373         	5.96           	0.429
MS.374         	5.947          	0.374
MS.375         	5.935          	0.38
MS.376         	5.922          	0.385
MS.377         	5.912          	0.372
MS.378         	5.9            	0.331
MS.379         	5.887          	0.32
MS.380         	5.875          	0.313
MS.381         	5.865          	0.336
MS.382         	5.852          	0.286
MS.383         	5.84           	0.264
MS.384         	5.83           	0.292
MS.385         	5.817          	0.322
MS.386         	5.805          	0.213
MS.387         	5.795          	0.324
MS.388         	5.782          	0.325
MS.389         	5.773          	0.338
MS.390         	5.76           	0.267
MS.391         	5.747          	0.25
MS.392         	5.737          	0.234
MS.393         	5.725          	0.299
MS.394         	5.715          	0.249
MS.395         	5.702          	0.277
MS.396         	5.69           	0.222
MS.397         	5.68           	0.24
MS.398         	5.668          	0.239
MS.399         	5.657          	0.264
MS.400         	5.645          	0.203
MS.401         	5.635          	0.221
MS.402         	5.622          	0.215
MS.403         	5.612          	0.235
MS.404         	5.6            	0.212
MS.405         	5.59           	0.176
MS.406         	5.577          	0.178
MS.407         	5.567          	0.22
MS.408         	5.555          	0.195
MS.409         	5.545          	0.173
MS.410         	5.535          	0.242
MS.411         	5.523          	0.188
MS.412         	5.512          	0.186
MS.413         	5.5            	0.145
MS.414         	5.49           	0.137
MS.415         	5.48           	0.153
MS.416         	5.467          	0.175
MS.417         	5.457          	0.135
MS.418         	5.445          	0.15
MS.419         	5.435          	0.11
MS.420         	5.425          	0.132
MS.421         	5.412          	0.121
MS.422         	5.402          	0.13
MS.423         	5.392          	0.089
MS.424         	5.38           	0.151
MS.425         	5.37           	0.117
MS.426         	5.36           	0.13
MS.427         	5.35           	0.136
MS.428         	5.338          	0.109
MS.429         	5.327          	0.103
MS.430         	5.318          	0.117
MS.431         	5.307          	0.105
MS.432         	5.295          	0.082
MS.433         	5.285          	0.098
MS.434         	5.275          	0.078
MS.435         	5.265          	0.109
MS.436         	5.253          	0.114
MS.437         	5.242          	0.087
MS.438         	5.233          	0.112
MS.439         	5.222          	0.086
MS.440         	5.213          	0.097
MS.441         	5.202          	0.081
MS.442         	5.19           	0.052
MS.443         	5.18           	0.081
MS.444         	5.17           	0.095
MS.445         	5.16           	0.114
MS.446         	5.15           	0.062
MS.447         	5.14           	0.092
MS.448         	5.13           	0.054
MS.449         	5.117          	0.052
MS.450         	5.108          	0.068
MS.451         	5.097          	0.053
MS.452         	5.088          	0.049
MS.453         	5.077          	0.038
MS.454         	5.068          	0.063
MS.455         	5.057          	0.055
MS.456         	5.047          	0.056
MS.457         	5.037          	0.065
MS.458         	5.027          	0.047
MS.459         	5.017          	0.056
MS.460         	5.007          	0.056
MS.461         	4.997          	0.05
MS.462         	4.987          	0.02
MS.463         	4.977          	0.015
MS.464         	4.967          	0.027
MS.465         	4.957          	0.044
MS.466         	4.947          	0.03
MS.467         	4.938          	0.026
MS.468         	4.927          	0.013
MS.469         	4.918          	0.031
MS.470         	4.907          	0.024
MS.471         	4.898          	0.025
MS.472         	4.887          	0.032
MS.473         	4.88           	0.029
MS.474         	4.87           	0.026
MS.475         	4.86           	0.032
MS.476         	4.85           	0.002
MS.477         	4.84           	0.012
MS.478         	4.83           	0.009
MS.479         	4.82           	0.007
MS.480         	4.81           	0.009
MS.481         	4.802          	0.022
MS.482         	4.793          	0.003
MS.483         	4.782          	0.007
MS.484         	4.773          	0.005
MS.485         	4.762          	0.004
MS.486         	4.753          	0.013
MS.487         	4.745          	0.01
MS.488         	4.735          	0.01
MS.489         	4.725          	0.007
MS.490         	4.715          	0.005
MS.491         	4.707          	0.009
MS.492         	4.697          	0.005
MS.493         	4.688          	0.005
MS.494         	4.677          	0.005
MS.495         	4.67           	0.006
MS.496         	4.66           	0.004
MS.497         	4.65           	0.005
MS.498         	4.64           	0.003
MS.499         	4.632          	0.006
MS.500         	4.622          	0.005
MS.501         	4.612          	0.002
MS.502         	4.605          	0.003
MS.503         	4.595          	0.002
MS.504         	4.585          	0.012
MS.505         	4.577          	0.003
MS.506         	4.568          	0.004
MS.507         	4.557          	0.002
MS.508         	4.55           	0.000
MS.509         	4.54           	0.002
MS.510         	4.53           	0.002
MS.511         	4.523          	0.001
MS.512         	4.512          	0.001
MS.513         	4.503          	0.004
MS.514         	4.495          	0.001
MS.515         	4.485          	0.004
MS.516         	4.477          	0.004
MS.517         	4.467          	0.003
MS.518         	4.46           	0.001
MS.519         	4.45           	-0.001
MS.520         	4.44           	0.002
MS.521         	4.432          	0.001
MS.522         	4.423          	0.000
MS.523         	4.415          	0.004
MS.524         	4.405          	0.003
MS.525         	4.398          	0.004
MS.526         	4.387          	0.002
MS.527         	4.38           	0.001
MS.528         	4.37           	0.005
MS.529         	4.362          	0.002
MS.530         	4.352          	0.002
MS.531         	4.345          	0.002
MS.532         	4.335          	0.003
MS.533         	4.327          	0.002
MS.534         	4.318          	0.002
MS.535         	4.31           	0.003
MS.536         	4.302          	0.002
MS.537         	4.293          	0.002
MS.538         	4.285          	0.000
MS.539         	4.275          	0.003
MS.540         	4.267          	0.002
MS.541         	4.257          	0.002
MS.542         	4.25           	0.004
MS.543         	4.242          	0.001
MS.544         	4.233          	0.003
MS.545         	4.225          	0.004
MS.546         	4.215          	0.001
MS.547         	4.207          	0.002
MS.548         	4.2            	0.002
MS.549         	4.19           	0.003
MS.550         	4.182          	0.002
MS.551         	4.175          	0.001
MS.552         	4.165          	0.003
MS.553         	4.157          	0.002
MS.554         	4.15           	0.001
MS.555         	4.14           	0.002
MS.556         	4.132          	0.001
MS.557         	4.125          	0.003
MS.558         	4.115          	0.001
MS.559         	4.108          	0.002
MS.560         	4.1            	0.001
MS.561         	4.092          	0.001
MS.562         	4.082          	-0.001
MS.563         	4.075          	0.002
MS.564         	4.068          	-0.004
MS.565         	4.06           	0.002
MS.566         	4.05           	0.005
MS.567         	4.043          	0.002
MS.568         	4.035          	0.003
MS.569         	4.027          	0.005
MS.570         	4.017          	0.000
MS.571         	4.01           	-0.002
MS.572         	4.003          	0.002
MS.573         	3.995          	-0.005
MS.574         	3.987          	0.002
MS.575         	3.977          	0.004
MS.576         	3.97           	0.003
MS.577         	3.962          	0.000
MS.578         	3.955          	0.004
MS.579         	3.947          	0.003
MS.580         	3.94           	-0.002
MS.581         	3.93           	-0.001
MS.582         	3.922          	0.002
MS.583         	3.915          	0.002
MS.584         	3.908          	-0.003
MS.585         	3.9            	0.001
MS.586         	3.892          	0.003
MS.587         	3.885          	0.002
DERIVED EXCITABILITY VARIABLES
Program = QTracP 05/05/2023
Threshold method = 6 (optimised for CAP, using data for present condition only)
SR method = 1 (using actual data values)
6.                 	0.000               	Peak response\(mV)
9.                 	32.1                	Temperature ( C)
17.                	21                  	Age (years)
18.                	1                   	Sex (M=1, F=2)

EXTRA VARIABLES

MScPeak(mV) = 3.87
MScS5(mA) = 5.56
MScS50(mA) = 7.39
MScS95(mA) = 11.46
MScNSteps = 0
MScSteps(%) = 0.0
MScStepMax(%) = 0.0
MScD50 = 71
MScSlope = 3.21
MScDuration(min) = 7.8
MSFTraces = 581
MSFPeakAmp(mV) = 3.86
MSFNUnits = 143
MSFMeanUnitAmp(uV) = 27
MSFHuntTime(m) = 2.11
MSFError(%) = 0.881
MSFNLarge = 47.2
MSFMedianAmp(%) = 0.617
MSFMedianAmp(mV) = 0.0239
MSFHalfAmpAmp(%) = 0.691
MSFHalfAmpAmp(mV) = 0.0267
MSFLargestAmp(%) = 2.95
MSFLargestAmp(mV) = 0.114
MSFMeanRS(%) = 1.98
MSFSizeLimit(uV) = 12.9
MSFLimitType = 1
MSFSmallestAmp(uV) = 13
MSFOpts = 10104222032
MSFSDMax = 31.7
MSFSDMin = 1.94

EXTRA WAVEFORMS


!MScan Model
!143
	1	4.89	0.67	2
	2	5.04	0.73	2
	3	5.12	0.43	2
	4	5.26	0.66	2
	5	5.35	0.58	2
	6	5.46	0.76	2
	7	5.5	0.67	2
	8	5.57	0.77	2
	9	5.62	0.39	2
	10	5.71	1.1	2
	11	5.84	1.25	2
	12	5.89	0.79	2
	13	5.91	0.48	2
	14	5.92	0.34	2
	15	5.93	0.58	2
	16	5.98	0.85	2
	17	6	0.5	2
	18	6.02	0.43	2
	19	6.05	0.42	2
	20	6.07	0.45	2
	21	6.09	0.47	2
	22	6.11	0.46	2
	23	6.13	0.47	2
	24	6.15	0.46	2
	25	6.19	0.76	2
	26	6.24	0.69	2
	27	6.25	0.5	2
	28	6.27	0.44	2
	29	6.28	0.37	2
	30	6.3	0.61	2
	31	6.31	0.38	2
	32	6.34	0.65	2
	33	6.35	0.36	2
	34	6.36	0.38	2
	35	6.37	0.42	2
	36	6.4	0.68	2
	37	6.42	0.52	2
	38	6.45	0.63	2
	39	6.46	0.62	2
	40	6.47	0.46	2
	41	6.48	0.35	2
	42	6.49	0.34	2
	43	6.54	0.68	2
	44	6.56	0.44	2
	45	6.58	0.55	2
	46	6.6	0.58	2
	47	6.62	0.61	2
	48	6.64	0.87	2
	49	6.67	0.53	2
	50	6.69	0.66	2
	51	6.71	0.48	2
	52	6.72	0.53	2
	53	6.74	0.48	2
	54	6.75	0.36	2
	55	6.76	0.36	2
	56	6.77	0.61	2
	57	6.78	0.56	2
	58	6.79	0.56	2
	59	6.82	1.68	1.6
	60	6.92	2.95	2
	61	6.98	0.65	2
	62	7.02	1.03	2
	63	7.04	0.95	2
	64	7.07	0.98	2
	65	7.09	0.66	2
	66	7.11	0.58	2
	67	7.13	0.62	2
	68	7.15	0.65	2
	69	7.17	0.91	2
	70	7.2	0.96	2
	71	7.23	0.73	2
	72	7.25	0.63	2
	73	7.27	0.49	2
	74	7.3	0.66	2
	75	7.33	0.71	2
	76	7.35	0.69	2
	77	7.38	0.69	2
	78	7.41	0.66	2
	79	7.43	0.59	2
	80	7.45	0.42	2
	81	7.47	0.34	2
	82	7.5	0.62	2
	83	7.51	0.37	2
	84	7.59	1.42	2
	85	7.63	0.65	2
	86	7.65	0.56	2
	87	7.68	0.78	2
	88	7.72	0.81	2
	89	7.78	1.37	2
	90	7.85	1.01	2
	91	7.89	0.57	2
	92	7.91	0.47	2
	93	7.96	0.6	2
	94	8.01	0.69	2
	95	8.05	1.08	2
	96	8.11	0.72	2
	97	8.21	1.34	2
	98	8.29	0.77	2
	99	8.36	0.65	2
	100	8.45	0.97	2
	101	8.51	0.51	2
	102	8.56	2.14	1.4
	103	8.63	0.95	2
	104	8.68	1.43	2
	105	8.73	0.7	2
	106	8.75	0.35	2
	107	8.79	0.64	2
	108	8.81	0.34	2
	109	8.84	0.57	2
	110	8.89	0.76	2
	111	8.93	0.61	2
	112	8.97	0.92	2
	113	9.01	0.88	2
	114	9.08	0.92	2
	115	9.23	1.39	2
	116	9.24	1.16	2
	117	9.47	1.63	2
	118	9.83	1.66	2
	119	9.89	0.6	2
	120	9.91	0.41	2
	121	9.93	0.38	2
	122	9.95	0.6	2
	123	10	0.56	2
	124	10.03	0.63	2
	125	10.11	1.05	2
	126	10.56	0.87	2
	127	10.72	1.3	2
	128	10.83	0.65	2
	129	10.92	0.48	2
	130	11.04	0.64	2
	131	11.13	0.55	2
	132	11.2	0.64	1.6
	133	11.28	0.48	2
	134	11.37	0.77	2
	135	11.42	0.36	2
	136	11.46	0.38	2
	137	11.5	0.35	2
	138	11.55	0.4	2
	139	11.6	0.59	2
	140	11.65	0.45	2
	141	11.71	0.43	2
	142	11.78	0.56	2
	143	11.87	0.84	2

