File:              	C:\Qtrac\Data\ME2C30630C.QZD
Name:              	 HA08E
Protocol:          	MSCAN-MV
Date:              	30/6/23
Date of birth:     	8/7/04
Age:               	18
Sex:               	F
Temperature:       	31.7
S/R sites:         	Knee CF-TA
NC/disease:        	NC
Operator:          	BY
Comments:
M-SCAN DATA (Repeat 3/3, 36.7-28.7m)
Scanpts: 61, 72, 574, 631
Stim. (mA)     	Amp. (mV)
MS.1           	27.5           	4.415
MS.2           	27.5           	4.463
MS.3           	27.5           	4.498
MS.4           	27.5           	4.474
MS.5           	27.5           	4.423
MS.6           	27.5           	4.399
MS.7           	27.5           	4.413
MS.8           	27.5           	4.428
MS.9           	27.5           	4.429
MS.10          	27.5           	4.443
MS.11          	27.5           	4.442
MS.12          	27.5           	4.442
MS.13          	27.5           	4.383
MS.14          	27.5           	4.423
MS.15          	27.5           	4.377
MS.16          	27.5           	4.402
MS.17          	27.5           	4.409
MS.18          	27.5           	4.39
MS.19          	27.5           	4.391
MS.20          	27.5           	4.426
MS.21          	27.5           	4.405
MS.22          	27.5           	4.423
MS.23          	27.5           	4.386
MS.24          	27.445         	4.417
MS.25          	27.39          	4.385
MS.26          	27.335         	4.39
MS.27          	27.28          	4.392
MS.28          	27.227         	4.387
MS.29          	27.172         	4.367
MS.30          	27.118         	4.415
MS.31          	27.062         	4.371
MS.32          	27.01          	4.359
MS.33          	26.955         	4.403
MS.34          	26.903         	4.404
MS.35          	26.847         	4.371
MS.36          	26.795         	4.44
MS.37          	26.74          	4.368
MS.38          	26.688         	4.404
MS.39          	26.635         	4.379
MS.40          	26.58          	4.434
MS.41          	26.528         	4.42
MS.42          	26.475         	4.389
MS.43          	26.422         	4.395
MS.44          	26.37          	4.403
MS.45          	26.315         	4.435
MS.46          	26.262         	4.384
MS.47          	26.21          	4.424
MS.48          	26.16          	4.426
MS.49          	26.108         	4.401
MS.50          	26.055         	4.393
MS.51          	26.002         	4.444
MS.52          	25.95          	4.435
MS.53          	25.897         	4.411
MS.54          	25.847         	4.418
MS.55          	25.795         	4.424
MS.56          	25.743         	4.395
MS.57          	25.692         	4.39
MS.58          	25.64          	4.404
MS.59          	25.59          	4.402
MS.60          	25.538         	4.404
MS.61          	25.487         	4.418
MS.62          	25.438         	4.429
MS.63          	25.385         	4.426
MS.64          	25.335         	4.442
MS.65          	25.285         	4.445
MS.66          	25.235         	4.442
MS.67          	25.182         	4.472
MS.68          	25.132         	4.443
MS.69          	25.082         	4.426
MS.70          	25.032         	4.442
MS.71          	24.983         	4.47
MS.72          	24.932         	4.426
MS.73          	24.882         	4.42
MS.74          	24.832         	4.411
MS.75          	24.782         	4.41
MS.76          	24.735         	4.389
MS.77          	24.685         	4.481
MS.78          	24.635         	4.454
MS.79          	24.585         	4.427
MS.80          	24.538         	4.446
MS.81          	24.487         	4.399
MS.82          	24.44          	4.453
MS.83          	24.39          	4.428
MS.84          	24.342         	4.393
MS.85          	24.292         	4.386
MS.86          	24.245         	4.404
MS.87          	24.195         	4.428
MS.88          	24.147         	4.419
MS.89          	24.1           	4.457
MS.90          	24.05          	4.371
MS.91          	24.002         	4.363
MS.92          	23.955         	4.362
MS.93          	23.907         	4.323
MS.94          	23.86          	4.356
MS.95          	23.812         	4.365
MS.96          	23.765         	4.381
MS.97          	23.717         	4.406
MS.98          	23.67          	4.356
MS.99          	23.622         	4.321
MS.100         	23.575         	4.357
MS.101         	23.528         	4.369
MS.102         	23.48          	4.367
MS.103         	23.435         	4.373
MS.104         	23.387         	4.359
MS.105         	23.34          	4.352
MS.106         	23.295         	4.334
MS.107         	23.247         	4.321
MS.108         	23.2           	4.36
MS.109         	23.155         	4.318
MS.110         	23.108         	4.333
MS.111         	23.062         	4.28
MS.112         	23.015         	4.279
MS.113         	22.97          	4.243
MS.114         	22.925         	4.272
MS.115         	22.877         	4.27
MS.116         	22.832         	4.209
MS.117         	22.788         	4.268
MS.118         	22.743         	4.199
MS.119         	22.695         	4.218
MS.120         	22.65          	4.202
MS.121         	22.605         	4.193
MS.122         	22.56          	4.182
MS.123         	22.515         	4.193
MS.124         	22.47          	4.199
MS.125         	22.425         	4.2
MS.126         	22.38          	4.164
MS.127         	22.335         	4.188
MS.128         	22.29          	4.103
MS.129         	22.247         	4.141
MS.130         	22.202         	4.15
MS.131         	22.157         	4.175
MS.132         	22.112         	4.194
MS.133         	22.07          	4.089
MS.134         	22.025         	4.112
MS.135         	21.98          	4.092
MS.136         	21.938         	4.125
MS.137         	21.892         	4.1
MS.138         	21.85          	4.039
MS.139         	21.805         	4.125
MS.140         	21.762         	4.046
MS.141         	21.72          	4.014
MS.142         	21.675         	3.989
MS.143         	21.632         	4.016
MS.144         	21.59          	4.031
MS.145         	21.545         	3.995
MS.146         	21.502         	4.02
MS.147         	21.46          	3.981
MS.148         	21.417         	3.961
MS.149         	21.375         	4.001
MS.150         	21.333         	3.972
MS.151         	21.29          	3.947
MS.152         	21.247         	3.958
MS.153         	21.205         	3.946
MS.154         	21.163         	3.933
MS.155         	21.12          	3.938
MS.156         	21.077         	3.929
MS.157         	21.035         	3.941
MS.158         	20.993         	3.892
MS.159         	20.95          	3.914
MS.160         	20.91          	3.829
MS.161         	20.868         	3.906
MS.162         	20.825         	3.783
MS.163         	20.785         	3.875
MS.164         	20.743         	3.892
MS.165         	20.7           	3.83
MS.166         	20.66          	3.808
MS.167         	20.618         	3.865
MS.168         	20.577         	3.792
MS.169         	20.535         	3.757
MS.170         	20.495         	3.759
MS.171         	20.455         	3.774
MS.172         	20.413         	3.777
MS.173         	20.372         	3.739
MS.174         	20.333         	3.711
MS.175         	20.29          	3.577
MS.176         	20.25          	3.622
MS.177         	20.21          	3.57
MS.178         	20.17          	3.566
MS.179         	20.13          	3.601
MS.180         	20.09          	3.627
MS.181         	20.05          	3.577
MS.182         	20.01          	3.571
MS.183         	19.97          	3.526
MS.184         	19.93          	3.504
MS.185         	19.89          	3.473
MS.186         	19.85          	3.436
MS.187         	19.81          	3.481
MS.188         	19.77          	3.405
MS.189         	19.73          	3.445
MS.190         	19.692         	3.486
MS.191         	19.653         	3.281
MS.192         	19.612         	3.304
MS.193         	19.573         	3.25
MS.194         	19.535         	3.273
MS.195         	19.495         	3.176
MS.196         	19.458         	3.199
MS.197         	19.417         	3.175
MS.198         	19.38          	3.26
MS.199         	19.34          	3.147
MS.200         	19.302         	3.187
MS.201         	19.262         	3.064
MS.202         	19.225         	3.086
MS.203         	19.185         	3.06
MS.204         	19.147         	2.991
MS.205         	19.11          	3.06
MS.206         	19.073         	2.97
MS.207         	19.032         	3.039
MS.208         	18.995         	3.025
MS.209         	18.958         	2.947
MS.210         	18.92          	2.986
MS.211         	18.882         	2.867
MS.212         	18.845         	2.896
MS.213         	18.805         	2.808
MS.214         	18.767         	2.837
MS.215         	18.73          	2.886
MS.216         	18.692         	2.766
MS.217         	18.657         	2.825
MS.218         	18.62          	2.802
MS.219         	18.583         	2.812
MS.220         	18.545         	2.792
MS.221         	18.507         	2.689
MS.222         	18.47          	2.646
MS.223         	18.435         	2.781
MS.224         	18.397         	2.637
MS.225         	18.36          	2.604
MS.226         	18.323         	2.594
MS.227         	18.288         	2.687
MS.228         	18.25          	2.708
MS.229         	18.215         	2.578
MS.230         	18.177         	2.638
MS.231         	18.14          	2.519
MS.232         	18.105         	2.574
MS.233         	18.07          	2.523
MS.234         	18.032         	2.541
MS.235         	17.997         	2.548
MS.236         	17.96          	2.479
MS.237         	17.925         	2.555
MS.238         	17.89          	2.521
MS.239         	17.852         	2.403
MS.240         	17.817         	2.368
MS.241         	17.782         	2.432
MS.242         	17.747         	2.393
MS.243         	17.71          	2.461
MS.244         	17.675         	2.388
MS.245         	17.64          	2.378
MS.246         	17.605         	2.319
MS.247         	17.57          	2.332
MS.248         	17.535         	2.277
MS.249         	17.5           	2.302
MS.250         	17.465         	2.306
MS.251         	17.43          	2.258
MS.252         	17.395         	2.148
MS.253         	17.36          	2.235
MS.254         	17.325         	2.214
MS.255         	17.29          	2.162
MS.256         	17.257         	2.073
MS.257         	17.222         	2.165
MS.258         	17.188         	2.15
MS.259         	17.153         	2.123
MS.260         	17.12          	2.05
MS.261         	17.085         	2.016
MS.262         	17.05          	1.972
MS.263         	17.017         	2.02
MS.264         	16.983         	2.032
MS.265         	16.948         	2.075
MS.266         	16.915         	2.041
MS.267         	16.88          	2
MS.268         	16.847         	1.935
MS.269         	16.812         	1.897
MS.270         	16.78          	1.967
MS.271         	16.747         	1.975
MS.272         	16.712         	1.838
MS.273         	16.68          	1.852
MS.274         	16.647         	1.862
MS.275         	16.612         	1.841
MS.276         	16.58          	1.814
MS.277         	16.547         	1.782
MS.278         	16.512         	1.873
MS.279         	16.48          	1.747
MS.280         	16.448         	1.724
MS.281         	16.415         	1.748
MS.282         	16.382         	1.708
MS.283         	16.35          	1.794
MS.284         	16.317         	1.728
MS.285         	16.285         	1.74
MS.286         	16.253         	1.702
MS.287         	16.22          	1.714
MS.288         	16.188         	1.656
MS.289         	16.155         	1.651
MS.290         	16.122         	1.542
MS.291         	16.09          	1.558
MS.292         	16.057         	1.547
MS.293         	16.025         	1.559
MS.294         	15.992         	1.56
MS.295         	15.962         	1.64
MS.296         	15.93          	1.607
MS.297         	15.898         	1.467
MS.298         	15.865         	1.508
MS.299         	15.835         	1.472
MS.300         	15.802         	1.456
MS.301         	15.77          	1.44
MS.302         	15.74          	1.448
MS.303         	15.707         	1.418
MS.304         	15.677         	1.44
MS.305         	15.645         	1.348
MS.306         	15.615         	1.291
MS.307         	15.582         	1.423
MS.308         	15.552         	1.36
MS.309         	15.52          	1.365
MS.310         	15.49          	1.389
MS.311         	15.46          	1.315
MS.312         	15.427         	1.292
MS.313         	15.398         	1.301
MS.314         	15.367         	1.27
MS.315         	15.335         	1.179
MS.316         	15.305         	1.181
MS.317         	15.275         	1.187
MS.318         	15.245         	1.105
MS.319         	15.212         	1.154
MS.320         	15.182         	1.128
MS.321         	15.152         	1.102
MS.322         	15.122         	1.036
MS.323         	15.092         	1.08
MS.324         	15.062         	0.97
MS.325         	15.032         	1.001
MS.326         	15.002         	0.922
MS.327         	14.972         	1.017
MS.328         	14.943         	0.919
MS.329         	14.912         	1.015
MS.330         	14.882         	1.024
MS.331         	14.852         	0.88
MS.332         	14.822         	0.963
MS.333         	14.792         	0.895
MS.334         	14.765         	0.91
MS.335         	14.735         	0.889
MS.336         	14.705         	0.819
MS.337         	14.675         	0.782
MS.338         	14.648         	0.779
MS.339         	14.617         	0.714
MS.340         	14.587         	0.742
MS.341         	14.557         	0.742
MS.342         	14.53          	0.664
MS.343         	14.5           	0.701
MS.344         	14.472         	0.569
MS.345         	14.443         	0.591
MS.346         	14.415         	0.652
MS.347         	14.385         	0.712
MS.348         	14.358         	0.521
MS.349         	14.327         	0.51
MS.350         	14.3           	0.601
MS.351         	14.27          	0.491
MS.352         	14.242         	0.458
MS.353         	14.212         	0.456
MS.354         	14.185         	0.472
MS.355         	14.157         	0.358
MS.356         	14.127         	0.359
MS.357         	14.1           	0.496
MS.358         	14.072         	0.353
MS.359         	14.045         	0.354
MS.360         	14.015         	0.248
MS.361         	13.987         	0.303
MS.362         	13.96          	0.294
MS.363         	13.932         	0.187
MS.364         	13.905         	0.268
MS.365         	13.877         	0.256
MS.366         	13.847         	0.236
MS.367         	13.82          	0.15
MS.368         	13.792         	0.106
MS.369         	13.765         	0.019
MS.370         	13.737         	0.191
MS.371         	13.71          	0.199
MS.372         	13.682         	-0.071
MS.373         	13.655         	0.029
MS.374         	13.63          	-0.002
MS.375         	13.602         	-0.013
MS.376         	13.575         	-0.103
MS.377         	13.547         	-0.001
MS.378         	13.52          	-0.009
MS.379         	13.492         	-0.18
MS.380         	13.467         	-0.171
MS.381         	13.44          	-0.145
MS.382         	13.412         	-0.159
MS.383         	13.385         	-0.134
MS.384         	13.36          	-0.26
MS.385         	13.332         	-0.181
MS.386         	13.305         	-0.182
MS.387         	13.28          	-0.142
MS.388         	13.252         	-0.15
MS.389         	13.225         	-0.206
MS.390         	13.2           	-0.237
MS.391         	13.172         	-0.328
MS.392         	13.148         	-0.215
MS.393         	13.12          	-0.344
MS.394         	13.095         	-0.323
MS.395         	13.068         	-0.165
MS.396         	13.042         	-0.323
MS.397         	13.015         	-0.351
MS.398         	12.99          	-0.321
MS.399         	12.965         	-0.403
MS.400         	12.938         	-0.437
MS.401         	12.912         	-0.453
MS.402         	12.887         	-0.383
MS.403         	12.86          	-0.378
MS.404         	12.835         	-0.432
MS.405         	12.81          	-0.407
MS.406         	12.785         	-0.439
MS.407         	12.757         	-0.532
MS.408         	12.733         	-0.464
MS.409         	12.707         	-0.496
MS.410         	12.682         	-0.509
MS.411         	12.657         	-0.45
MS.412         	12.632         	-0.501
MS.413         	12.605         	-0.499
MS.414         	12.58          	-0.582
MS.415         	12.555         	-0.533
MS.416         	12.53          	-0.543
MS.417         	12.505         	-0.651
MS.418         	12.48          	-0.652
MS.419         	12.455         	-0.622
MS.420         	12.43          	-0.551
MS.421         	12.405         	-0.643
MS.422         	12.382         	-0.584
MS.423         	12.358         	-0.659
MS.424         	12.332         	-0.673
MS.425         	12.307         	-0.602
MS.426         	12.282         	-0.604
MS.427         	12.257         	-0.66
MS.428         	12.233         	-0.67
MS.429         	12.21          	-0.71
MS.430         	12.185         	-0.713
MS.431         	12.16          	-0.691
MS.432         	12.135         	-0.694
MS.433         	12.113         	-0.673
MS.434         	12.087         	-0.722
MS.435         	12.062         	-0.707
MS.436         	12.04          	-0.687
MS.437         	12.015         	-0.625
MS.438         	11.992         	-0.733
MS.439         	11.967         	-0.713
MS.440         	11.943         	-0.713
MS.441         	11.92          	-0.749
MS.442         	11.895         	-0.775
MS.443         	11.872         	-0.742
MS.444         	11.847         	-0.782
MS.445         	11.825         	-0.838
MS.446         	11.8           	-0.735
MS.447         	11.778         	-0.837
MS.448         	11.755         	-0.829
MS.449         	11.73          	-0.794
MS.450         	11.707         	-0.856
MS.451         	11.682         	-0.837
MS.452         	11.66          	-0.923
MS.453         	11.637         	-0.941
MS.454         	11.613         	-0.865
MS.455         	11.59          	-0.883
MS.456         	11.568         	-0.868
MS.457         	11.545         	-0.859
MS.458         	11.52          	-0.85
MS.459         	11.497         	-0.875
MS.460         	11.475         	-0.927
MS.461         	11.452         	-0.943
MS.462         	11.43          	-0.92
MS.463         	11.407         	-0.919
MS.464         	11.382         	-0.936
MS.465         	11.36          	-0.948
MS.466         	11.337         	-0.925
MS.467         	11.315         	-0.967
MS.468         	11.292         	-0.954
MS.469         	11.27          	-1.017
MS.470         	11.247         	-0.974
MS.471         	11.225         	-0.969
MS.472         	11.202         	-0.969
MS.473         	11.18          	-0.969
MS.474         	11.157         	-0.988
MS.475         	11.135         	-0.962
MS.476         	11.115         	-0.969
MS.477         	11.092         	-1.038
MS.478         	11.07          	-1.042
MS.479         	11.047         	-1.024
MS.480         	11.025         	-0.997
MS.481         	11.002         	-1.019
MS.482         	10.98          	-1.027
MS.483         	10.96          	-1.031
MS.484         	10.938         	-0.961
MS.485         	10.915         	-1.041
MS.486         	10.892         	-1.025
MS.487         	10.872         	-1.047
MS.488         	10.85          	-1.049
MS.489         	10.827         	-1.029
MS.490         	10.807         	-1.027
MS.491         	10.785         	-1.042
MS.492         	10.765         	-1.039
MS.493         	10.742         	-1.033
MS.494         	10.72          	-1.041
MS.495         	10.7           	-1.053
MS.496         	10.677         	-1.002
MS.497         	10.657         	-0.969
MS.498         	10.635         	-1.072
MS.499         	10.615         	-1.036
MS.500         	10.592         	-1.057
MS.501         	10.573         	-1.071
MS.502         	10.55          	-1.047
MS.503         	10.53          	-1.032
MS.504         	10.507         	-1.069
MS.505         	10.488         	-1.041
MS.506         	10.467         	-1.05
MS.507         	10.445         	-1.044
MS.508         	10.425         	-1.052
MS.509         	10.405         	-1.057
MS.510         	10.382         	-1.041
MS.511         	10.363         	-1.107
MS.512         	10.342         	-1.05
MS.513         	10.32          	-1.08
MS.514         	10.3           	-1.091
MS.515         	10.28          	-1.043
MS.516         	10.26          	-1.101
MS.517         	10.24          	-1.067
MS.518         	10.217         	-1.072
MS.519         	10.198         	-1.086
MS.520         	10.177         	-1.075
MS.521         	10.157         	-1.132
MS.522         	10.137         	-1.084
MS.523         	10.117         	-1.072
MS.524         	10.097         	-1.084
MS.525         	10.077         	-1.088
MS.526         	10.055         	-1.076
MS.527         	10.035         	-1.091
MS.528         	10.015         	-1.113
MS.529         	9.995          	-1.057
MS.530         	9.975          	-1.073
MS.531         	9.955          	-1.076
MS.532         	9.935          	-1.089
MS.533         	9.917          	-1.071
MS.534         	9.898          	-1.113
MS.535         	9.877          	-1.042
MS.536         	9.858          	-1.045
MS.537         	9.837          	-1.063
MS.538         	9.818          	-1.022
MS.539         	9.797          	-1.057
MS.540         	9.778          	-1.067
MS.541         	9.76           	-1.039
MS.542         	9.74           	-1.052
MS.543         	9.72           	-1.03
MS.544         	9.7            	-1.055
MS.545         	9.68           	-1.059
MS.546         	9.662          	-1.098
MS.547         	9.642          	-1.082
MS.548         	9.622          	-1.062
MS.549         	9.605          	-1.046
MS.550         	9.585          	-1.06
MS.551         	9.565          	-1.064
MS.552         	9.547          	-1.053
MS.553         	9.528          	-1.064
MS.554         	9.507          	-1.013
MS.555         	9.49           	-1.077
MS.556         	9.47           	-1.05
MS.557         	9.452          	-1.048
MS.558         	9.432          	-1.03
MS.559         	9.415          	-1.057
MS.560         	9.395          	-1.049
MS.561         	9.377          	-1.038
MS.562         	9.358          	-1.032
MS.563         	9.34           	-1.059
MS.564         	9.32           	-1.071
MS.565         	9.302          	-1.057
MS.566         	9.283          	-1.062
MS.567         	9.265          	-1.064
MS.568         	9.245          	-1.06
MS.569         	9.227          	-1.057
MS.570         	9.21           	-1.035
MS.571         	9.19           	-1.039
MS.572         	9.172          	-1.068
MS.573         	9.155          	-1.053
MS.574         	9.135          	-1.066
MS.575         	9.117          	-1.053
MS.576         	9.1            	-1.055
MS.577         	9.08           	-1.028
MS.578         	9.062          	-1.053
MS.579         	9.045          	-1.083
MS.580         	9.028          	-1.057
MS.581         	9.007          	-1.048
MS.582         	8.99           	-1.04
MS.583         	8.972          	-1.07
MS.584         	8.955          	-1.035
MS.585         	8.938          	-1.073
MS.586         	8.92           	-1.053
MS.587         	8.9            	-1.066
MS.588         	8.882          	-1.058
MS.589         	8.865          	-1.074
MS.590         	8.847          	-1.064
MS.591         	8.83           	-1.047
MS.592         	8.812          	-1.044
MS.593         	8.795          	-1.066
MS.594         	8.778          	-1.048
MS.595         	8.76           	-1.057
MS.596         	8.742          	-1.066
MS.597         	8.725          	-1.052
MS.598         	8.707          	-1.049
MS.599         	8.69           	-1.053
MS.600         	8.672          	-1.062
MS.601         	8.655          	-1.073
MS.602         	8.637          	-1.052
MS.603         	8.62           	-1.039
MS.604         	8.602          	-1.035
MS.605         	8.587          	-1.074
MS.606         	8.57           	-1.062
MS.607         	8.552          	-1.076
MS.608         	8.535          	-1.066
MS.609         	8.517          	-1.06
MS.610         	8.5            	-1.06
MS.611         	8.485          	-1.028
MS.612         	8.467          	-1.049
MS.613         	8.45           	-1.063
MS.614         	8.432          	-1.05
MS.615         	8.417          	-1.063
MS.616         	8.4            	-1.072
MS.617         	8.382          	-1.06
MS.618         	8.365          	-1.041
MS.619         	8.35           	-1.041
MS.620         	8.332          	-1.042
MS.621         	8.315          	-1.045
MS.622         	8.3            	-1.057
MS.623         	8.283          	-1.066
MS.624         	8.267          	-1.055
MS.625         	8.25           	-1.043
MS.626         	8.233          	-1.046
MS.627         	8.217          	-1.082
MS.628         	8.2            	-1.04
MS.629         	8.185          	-1.065
MS.630         	8.167          	-1.064
MS.631         	8.153          	-1.052
MS.632         	8.135          	-1.068
MS.633         	8.12           	-1.052
MS.634         	8.102          	-1.041
MS.635         	8.087          	-1.06
MS.636         	8.07           	-1.022
MS.637         	8.055          	-1.033
MS.638         	8.037          	-1.083
MS.639         	8.023          	-1.072
MS.640         	8.005          	-1.064
MS.641         	7.99           	-1.051
MS.642         	7.975          	-1.057
MS.643         	7.957          	-1.066
MS.644         	7.942          	-1.07
MS.645         	7.927          	-1.042
MS.646         	7.91           	-1.052
DERIVED EXCITABILITY VARIABLES
Program = QTracP 27/06/2023
Threshold method = 6 (optimised for CAP, using data for present condition only)
SR method = 1 (using actual data values)
6.                 	0.000               	Peak response\(mV)
9.                 	31.7                	Temperature ( C)
17.                	18                  	Age (years)
18.                	2                   	Sex (M=1, F=2)

EXTRA VARIABLES

MScPeak(mV) = 5.48
MScS5(mA) = 13.99
MScS50(mA) = 18.47
MScNSteps = 0
MScSteps(%) = 0.0
MScStepMax(%) = 0.0
MScD50 = 69
MScSlope = 2.86
MScDuration(min) = 8.6
MSFTraces = 571
MSFPeakAmp(mV) = 5.5
MSFNUnits = 181
MSFMeanUnitAmp(uV) = 30.4
MSFHuntTime(m) = 2.46
MSFError(%) = 1.31
MSFNLarge = 70.43
MSFMedianAmp(%) = 0.531
MSFMedianAmp(mV) = 0.0292
MSFHalfAmpAmp(%) = 0.575
MSFHalfAmpAmp(mV) = 0.0316
MSFLargestAmp(%) = 1.2
MSFLargestAmp(mV) = 0.0661
MSFMeanRS(%) = 2
MSFSizeLimit(uV) = 18.3
MSFLimitType = 1
MSFSmallestAmp(uV) = 18.8
MSFOpts = 10104222032
MSFSDMax = 17
MSFSDMin = 12.8

EXTRA WAVEFORMS


!MScan Model
!181
	1	10.83	0.49	2
	2	11.05	0.61	2
	3	11.28	0.63	2
	4	11.38	0.52	2
	5	11.55	0.75	2
	6	11.65	0.65	2
	7	11.72	0.42	2
	8	11.77	0.44	2
	9	11.82	0.37	2
	10	11.9	0.74	2
	11	12.03	0.77	2
	12	12.23	0.92	2
	13	12.36	0.46	2
	14	12.45	0.78	2
	15	12.52	0.47	2
	16	12.59	0.47	2
	17	12.65	0.54	2
	18	12.72	0.5	2
	19	12.79	0.6	2
	20	12.86	0.74	2
	21	12.94	0.42	2
	22	13.01	0.8	2
	23	13.07	0.61	2
	24	13.19	1.2	2
	25	13.32	1.14	2
	26	13.4	0.87	2
	27	13.46	0.57	2
	28	13.52	0.76	2
	29	13.57	0.49	2
	30	13.61	0.5	2
	31	13.66	0.76	2
	32	13.71	0.61	2
	33	13.76	0.66	2
	34	13.81	0.79	2
	35	13.87	0.95	2
	36	13.92	0.67	2
	37	13.95	0.39	2
	38	13.98	0.54	2
	39	14.01	0.59	2
	40	14.05	0.37	2
	41	14.08	0.44	2
	42	14.12	0.49	2
	43	14.15	0.49	2
	44	14.19	0.53	2
	45	14.24	0.64	2
	46	14.28	0.61	2
	47	14.33	0.59	2
	48	14.37	0.53	2
	49	14.4	0.42	2
	50	14.43	0.42	2
	51	14.47	0.43	2
	52	14.5	0.44	2
	53	14.53	0.39	2
	54	14.57	0.65	2
	55	14.6	0.54	2
	56	14.63	0.41	2
	57	14.67	0.47	2
	58	14.74	0.69	2
	59	14.78	0.46	2
	60	14.83	0.65	2
	61	14.89	0.77	2
	62	14.95	0.53	2
	63	15	0.58	2
	64	15.06	0.58	2
	65	15.1	0.39	2
	66	15.15	0.68	2
	67	15.21	0.64	2
	68	15.25	0.54	2
	69	15.28	0.42	2
	70	15.34	0.62	2
	71	15.37	0.35	2
	72	15.41	0.45	2
	73	15.45	0.5	2
	74	15.49	0.5	2
	75	15.53	0.37	2
	76	15.58	0.45	2
	77	15.64	0.7	2
	78	15.71	0.64	2
	79	15.79	0.41	2
	80	15.87	0.69	2
	81	15.92	0.46	2
	82	15.97	0.57	2
	83	16.03	0.57	2
	84	16.11	0.68	2
	85	16.18	0.63	2
	86	16.28	0.71	2
	87	16.34	0.51	2
	88	16.41	0.71	2
	89	16.48	0.68	2
	90	16.53	0.39	2
	91	16.6	0.44	2
	92	16.64	0.36	2
	93	16.69	0.61	2
	94	16.81	0.75	2
	95	16.87	0.54	2
	96	16.95	0.79	2
	97	17.01	0.51	2
	98	17.07	0.45	2
	99	17.12	0.74	2
	100	17.18	0.39	2
	101	17.27	0.6	2
	102	17.32	0.51	2
	103	17.35	0.35	2
	104	17.39	0.36	2
	105	17.42	0.36	2
	106	17.49	0.63	2
	107	17.56	0.69	2
	108	17.59	0.36	2
	109	17.63	0.36	2
	110	17.67	0.36	2
	111	17.71	0.45	2
	112	17.76	0.46	2
	113	17.81	0.38	2
	114	17.86	0.42	2
	115	17.92	0.46	2
	116	17.99	0.47	2
	117	18.08	0.67	2
	118	18.2	1.03	2
	119	18.29	0.61	2
	120	18.37	0.66	2
	121	18.43	0.57	2
	122	18.56	0.83	2
	123	18.62	0.61	2
	124	18.66	0.35	2
	125	18.7	0.36	2
	126	18.74	0.39	2
	127	18.78	0.39	2
	128	18.82	0.4	2
	129	18.85	0.39	2
	130	18.93	0.49	2
	131	18.97	0.43	2
	132	19.01	0.36	2
	133	19.04	0.34	2
	134	19.08	0.36	2
	135	19.12	0.38	2
	136	19.16	0.41	2
	137	19.21	0.51	2
	138	19.26	0.46	2
	139	19.31	0.42	2
	140	19.38	0.55	2
	141	19.41	0.45	2
	142	19.44	0.61	2
	143	19.51	0.72	2
	144	19.55	0.39	2
	145	19.58	0.37	2
	146	19.61	0.51	2
	147	19.68	0.53	2
	148	19.72	0.45	2
	149	19.76	0.48	2
	150	19.81	0.63	2
	151	19.9	0.62	2
	152	19.94	0.54	2
	153	20.01	0.52	2
	154	20.05	0.35	2
	155	20.12	0.68	2
	156	20.17	0.36	2
	157	20.21	0.53	2
	158	20.29	0.53	2
	159	20.34	0.35	2
	160	20.39	0.38	2
	161	20.49	0.62	2
	162	20.59	0.8	2
	163	20.71	0.82	2
	164	20.82	0.57	2
	165	20.93	0.45	2
	166	21.09	0.53	2
	167	21.17	0.35	2
	168	21.33	0.57	2
	169	21.47	0.5	2
	170	21.75	0.52	2
	171	21.98	0.8	2
	172	22.11	0.55	2
	173	22.28	0.51	2
	174	22.48	0.57	2
	175	22.49	0.59	2
	176	22.64	0.43	2
	177	22.81	0.55	2
	178	22.98	0.68	2
	179	23.16	0.66	2
	180	23.66	0.8	2
	181	24.2	0.81	2

