File:              	C:\Qtrac\Data\ME2C30713A.QZD
Name:              	 SH18U
Protocol:          	MSCAN-MV
Date:              	13/7/23
Date of birth:     	18/6/94
Age:               	29
Sex:               	F
Temperature:       	32.0
S/R sites:         	Knee CF-TA
NC/disease:        	NC
Operator:          	BY
Comments:
M-SCAN DATA (Repeat 3/3, 22.7-16.4m)
Scanpts: 46, 62, 439, 465
Stim. (mA)     	Amp. (mV)
MS.1           	20             	5.345
MS.2           	20             	5.37
MS.3           	20             	5.354
MS.4           	20             	5.339
MS.5           	20             	5.352
MS.6           	20             	5.356
MS.7           	20             	5.355
MS.8           	20             	5.333
MS.9           	20             	5.361
MS.10          	20             	5.325
MS.11          	20             	5.338
MS.12          	20             	5.351
MS.13          	20             	5.367
MS.14          	20             	5.364
MS.15          	20             	5.353
MS.16          	20             	5.359
MS.17          	20             	5.345
MS.18          	20             	5.357
MS.19          	20             	5.383
MS.20          	20             	5.351
MS.21          	20             	5.308
MS.22          	20             	5.338
MS.23          	20             	5.352
MS.24          	19.96          	5.342
MS.25          	19.92          	5.373
MS.26          	19.88          	5.341
MS.27          	19.84          	5.334
MS.28          	19.8           	5.351
MS.29          	19.762         	5.36
MS.30          	19.722         	5.352
MS.31          	19.682         	5.346
MS.32          	19.642         	5.352
MS.33          	19.605         	5.378
MS.34          	19.565         	5.37
MS.35          	19.525         	5.361
MS.36          	19.487         	5.364
MS.37          	19.448         	5.353
MS.38          	19.41          	5.334
MS.39          	19.37          	5.381
MS.40          	19.333         	5.397
MS.41          	19.292         	5.384
MS.42          	19.255         	5.303
MS.43          	19.215         	5.375
MS.44          	19.177         	5.402
MS.45          	19.14          	5.37
MS.46          	19.1           	5.394
MS.47          	19.062         	5.372
MS.48          	19.025         	5.368
MS.49          	18.987         	5.389
MS.50          	18.948         	5.387
MS.51          	18.91          	5.385
MS.52          	18.872         	5.397
MS.53          	18.835         	5.405
MS.54          	18.797         	5.407
MS.55          	18.76          	5.403
MS.56          	18.722         	5.389
MS.57          	18.685         	5.375
MS.58          	18.647         	5.405
MS.59          	18.61          	5.413
MS.60          	18.573         	5.391
MS.61          	18.538         	5.417
MS.62          	18.5           	5.381
MS.63          	18.462         	5.397
MS.64          	18.425         	5.406
MS.65          	18.387         	5.416
MS.66          	18.352         	5.399
MS.67          	18.315         	5.395
MS.68          	18.278         	5.424
MS.69          	18.243         	5.411
MS.70          	18.205         	5.362
MS.71          	18.17          	5.369
MS.72          	18.132         	5.337
MS.73          	18.097         	5.388
MS.74          	18.06          	5.372
MS.75          	18.025         	5.381
MS.76          	17.987         	5.364
MS.77          	17.952         	5.372
MS.78          	17.917         	5.383
MS.79          	17.88          	5.334
MS.80          	17.845         	5.333
MS.81          	17.81          	5.366
MS.82          	17.775         	5.354
MS.83          	17.737         	5.368
MS.84          	17.702         	5.34
MS.85          	17.667         	5.388
MS.86          	17.632         	5.331
MS.87          	17.597         	5.336
MS.88          	17.562         	5.356
MS.89          	17.528         	5.385
MS.90          	17.493         	5.379
MS.91          	17.458         	5.341
MS.92          	17.422         	5.343
MS.93          	17.387         	5.349
MS.94          	17.352         	5.315
MS.95          	17.317         	5.264
MS.96          	17.282         	5.334
MS.97          	17.247         	5.305
MS.98          	17.215         	5.262
MS.99          	17.18          	5.272
MS.100         	17.145         	5.257
MS.101         	17.11          	5.306
MS.102         	17.077         	5.282
MS.103         	17.042         	5.275
MS.104         	17.01          	5.22
MS.105         	16.975         	5.262
MS.106         	16.94          	5.223
MS.107         	16.907         	5.207
MS.108         	16.872         	5.259
MS.109         	16.84          	5.168
MS.110         	16.805         	5.229
MS.111         	16.772         	5.242
MS.112         	16.74          	5.12
MS.113         	16.705         	5.17
MS.114         	16.672         	5.234
MS.115         	16.637         	4.991
MS.116         	16.605         	5.113
MS.117         	16.573         	5.145
MS.118         	16.54          	5.164
MS.119         	16.505         	5.055
MS.120         	16.472         	5.126
MS.121         	16.44          	5.096
MS.122         	16.407         	5.14
MS.123         	16.375         	5.031
MS.124         	16.342         	5.035
MS.125         	16.31          	5.062
MS.126         	16.278         	5.066
MS.127         	16.245         	5.035
MS.128         	16.212         	4.88
MS.129         	16.18          	5.055
MS.130         	16.147         	4.851
MS.131         	16.115         	4.982
MS.132         	16.083         	5.054
MS.133         	16.05          	4.974
MS.134         	16.017         	4.976
MS.135         	15.987         	4.959
MS.136         	15.955         	4.871
MS.137         	15.922         	4.828
MS.138         	15.89          	4.791
MS.139         	15.86          	4.803
MS.140         	15.827         	4.701
MS.141         	15.795         	4.745
MS.142         	15.765         	4.755
MS.143         	15.733         	4.659
MS.144         	15.7           	4.75
MS.145         	15.67          	4.75
MS.146         	15.637         	4.666
MS.147         	15.608         	4.759
MS.148         	15.575         	4.688
MS.149         	15.545         	4.723
MS.150         	15.515         	4.772
MS.151         	15.483         	4.744
MS.152         	15.452         	4.691
MS.153         	15.42          	4.619
MS.154         	15.39          	4.675
MS.155         	15.36          	4.601
MS.156         	15.33          	4.696
MS.157         	15.297         	4.547
MS.158         	15.267         	4.563
MS.159         	15.237         	4.604
MS.160         	15.207         	4.537
MS.161         	15.177         	4.404
MS.162         	15.145         	4.424
MS.163         	15.115         	4.398
MS.164         	15.085         	4.434
MS.165         	15.055         	4.312
MS.166         	15.025         	4.323
MS.167         	14.995         	4.345
MS.168         	14.965         	4.313
MS.169         	14.935         	4.266
MS.170         	14.905         	4.186
MS.171         	14.875         	4.153
MS.172         	14.845         	4.06
MS.173         	14.818         	4.145
MS.174         	14.787         	4.141
MS.175         	14.757         	4.088
MS.176         	14.727         	4.085
MS.177         	14.697         	4.059
MS.178         	14.67          	4.094
MS.179         	14.64          	4.128
MS.180         	14.61          	4.028
MS.181         	14.58          	4.012
MS.182         	14.552         	3.944
MS.183         	14.523         	3.95
MS.184         	14.495         	3.842
MS.185         	14.465         	3.917
MS.186         	14.435         	3.962
MS.187         	14.407         	3.81
MS.188         	14.377         	3.975
MS.189         	14.35          	3.936
MS.190         	14.32          	3.81
MS.191         	14.292         	3.843
MS.192         	14.265         	3.752
MS.193         	14.235         	3.749
MS.194         	14.207         	3.797
MS.195         	14.177         	3.748
MS.196         	14.15          	3.699
MS.197         	14.122         	3.696
MS.198         	14.095         	3.718
MS.199         	14.065         	3.663
MS.200         	14.037         	3.594
MS.201         	14.01          	3.7
MS.202         	13.983         	3.675
MS.203         	13.952         	3.632
MS.204         	13.925         	3.581
MS.205         	13.898         	3.629
MS.206         	13.87          	3.654
MS.207         	13.842         	3.48
MS.208         	13.815         	3.499
MS.209         	13.787         	3.439
MS.210         	13.76          	3.418
MS.211         	13.733         	3.444
MS.212         	13.705         	3.443
MS.213         	13.677         	3.371
MS.214         	13.65          	3.29
MS.215         	13.622         	3.362
MS.216         	13.595         	3.329
MS.217         	13.568         	3.291
MS.218         	13.54          	3.303
MS.219         	13.515         	3.257
MS.220         	13.487         	3.198
MS.221         	13.46          	3.202
MS.222         	13.432         	3.096
MS.223         	13.407         	3.127
MS.224         	13.38          	3.18
MS.225         	13.352         	3.112
MS.226         	13.325         	3.148
MS.227         	13.3           	3.007
MS.228         	13.273         	3.024
MS.229         	13.247         	2.997
MS.230         	13.22          	2.986
MS.231         	13.193         	2.939
MS.232         	13.167         	2.828
MS.233         	13.14          	2.784
MS.234         	13.115         	2.889
MS.235         	13.087         	2.664
MS.236         	13.062         	2.668
MS.237         	13.035         	2.793
MS.238         	13.01          	2.719
MS.239         	12.985         	2.679
MS.240         	12.957         	2.767
MS.241         	12.932         	2.691
MS.242         	12.907         	2.655
MS.243         	12.88          	2.646
MS.244         	12.855         	2.535
MS.245         	12.83          	2.419
MS.246         	12.802         	2.552
MS.247         	12.778         	2.505
MS.248         	12.752         	2.416
MS.249         	12.727         	2.383
MS.250         	12.702         	2.362
MS.251         	12.677         	2.299
MS.252         	12.65          	2.393
MS.253         	12.625         	2.284
MS.254         	12.6           	2.251
MS.255         	12.575         	2.208
MS.256         	12.55          	2.227
MS.257         	12.525         	2.242
MS.258         	12.5           	2.033
MS.259         	12.475         	2.089
MS.260         	12.45          	2.001
MS.261         	12.425         	1.929
MS.262         	12.4           	1.932
MS.263         	12.375         	1.96
MS.264         	12.35          	1.898
MS.265         	12.327         	1.895
MS.266         	12.302         	1.797
MS.267         	12.278         	1.771
MS.268         	12.252         	1.796
MS.269         	12.227         	1.72
MS.270         	12.202         	1.686
MS.271         	12.18          	1.68
MS.272         	12.155         	1.633
MS.273         	12.13          	1.693
MS.274         	12.108         	1.56
MS.275         	12.082         	1.591
MS.276         	12.057         	1.559
MS.277         	12.035         	1.577
MS.278         	12.01          	1.501
MS.279         	11.985         	1.506
MS.280         	11.962         	1.453
MS.281         	11.938         	1.403
MS.282         	11.915         	1.296
MS.283         	11.89          	1.262
MS.284         	11.867         	1.075
MS.285         	11.842         	0.959
MS.286         	11.82          	0.919
MS.287         	11.795         	0.889
MS.288         	11.773         	0.934
MS.289         	11.747         	0.862
MS.290         	11.725         	0.898
MS.291         	11.702         	0.947
MS.292         	11.677         	0.786
MS.293         	11.655         	0.764
MS.294         	11.632         	0.828
MS.295         	11.608         	0.716
MS.296         	11.585         	0.764
MS.297         	11.562         	0.738
MS.298         	11.54          	0.768
MS.299         	11.515         	0.863
MS.300         	11.492         	0.735
MS.301         	11.47          	0.668
MS.302         	11.447         	0.755
MS.303         	11.425         	0.647
MS.304         	11.403         	0.635
MS.305         	11.377         	0.686
MS.306         	11.355         	0.665
MS.307         	11.332         	0.651
MS.308         	11.31          	0.624
MS.309         	11.287         	0.66
MS.310         	11.265         	0.608
MS.311         	11.242         	0.56
MS.312         	11.22          	0.632
MS.313         	11.197         	0.576
MS.314         	11.175         	0.474
MS.315         	11.153         	0.494
MS.316         	11.13          	0.521
MS.317         	11.108         	0.526
MS.318         	11.087         	0.48
MS.319         	11.065         	0.526
MS.320         	11.042         	0.488
MS.321         	11.02          	0.482
MS.322         	10.997         	0.436
MS.323         	10.975         	0.401
MS.324         	10.955         	0.412
MS.325         	10.932         	0.491
MS.326         	10.91          	0.4
MS.327         	10.89          	0.339
MS.328         	10.867         	0.377
MS.329         	10.845         	0.34
MS.330         	10.823         	0.295
MS.331         	10.802         	0.316
MS.332         	10.78          	0.354
MS.333         	10.76          	0.351
MS.334         	10.738         	0.309
MS.335         	10.715         	0.297
MS.336         	10.695         	0.312
MS.337         	10.672         	0.244
MS.338         	10.653         	0.263
MS.339         	10.63          	0.268
MS.340         	10.61          	0.243
MS.341         	10.587         	0.219
MS.342         	10.568         	0.232
MS.343         	10.545         	0.214
MS.344         	10.525         	0.153
MS.345         	10.505         	0.147
MS.346         	10.483         	0.122
MS.347         	10.462         	0.141
MS.348         	10.44          	0.125
MS.349         	10.42          	0.161
MS.350         	10.4           	0.153
MS.351         	10.377         	0.115
MS.352         	10.358         	0.155
MS.353         	10.337         	0.028
MS.354         	10.318         	0.078
MS.355         	10.295         	0.042
MS.356         	10.275         	0.083
MS.357         	10.255         	0.013
MS.358         	10.235         	0.021
MS.359         	10.212         	0.037
MS.360         	10.193         	-0.014
MS.361         	10.172         	0.017
MS.362         	10.153         	0.003
MS.363         	10.132         	-0.026
MS.364         	10.113         	-0.015
MS.365         	10.092         	0.001
MS.366         	10.073         	0.004
MS.367         	10.052         	-0.033
MS.368         	10.032         	-0.06
MS.369         	10.012         	-0.056
MS.370         	9.992          	-0.048
MS.371         	9.972          	-0.074
MS.372         	9.952          	-0.055
MS.373         	9.932          	-0.059
MS.374         	9.912          	-0.074
MS.375         	9.892          	-0.108
MS.376         	9.872          	-0.079
MS.377         	9.852          	-0.068
MS.378         	9.832          	-0.079
MS.379         	9.812          	-0.089
MS.380         	9.792          	-0.108
MS.381         	9.775          	-0.091
MS.382         	9.755          	-0.062
MS.383         	9.735          	-0.1
MS.384         	9.715          	-0.109
MS.385         	9.695          	-0.099
MS.386         	9.677          	-0.126
MS.387         	9.657          	-0.1
MS.388         	9.637          	-0.099
MS.389         	9.62           	-0.138
MS.390         	9.6            	-0.123
MS.391         	9.58           	-0.114
MS.392         	9.562          	-0.123
MS.393         	9.542          	-0.135
MS.394         	9.523          	-0.126
MS.395         	9.505          	-0.115
MS.396         	9.485          	-0.142
MS.397         	9.465          	-0.112
MS.398         	9.448          	-0.114
MS.399         	9.427          	-0.142
MS.400         	9.41           	-0.115
MS.401         	9.39           	-0.135
MS.402         	9.372          	-0.148
MS.403         	9.352          	-0.134
MS.404         	9.335          	-0.141
MS.405         	9.315          	-0.122
MS.406         	9.297          	-0.144
MS.407         	9.28           	-0.148
MS.408         	9.26           	-0.136
MS.409         	9.242          	-0.164
MS.410         	9.222          	-0.143
MS.411         	9.205          	-0.155
MS.412         	9.188          	-0.146
MS.413         	9.167          	-0.153
MS.414         	9.15           	-0.157
MS.415         	9.132          	-0.139
MS.416         	9.113          	-0.147
MS.417         	9.095          	-0.134
MS.418         	9.077          	-0.142
MS.419         	9.06           	-0.153
MS.420         	9.04           	-0.147
MS.421         	9.023          	-0.146
MS.422         	9.005          	-0.143
MS.423         	8.988          	-0.159
MS.424         	8.967          	-0.156
MS.425         	8.95           	-0.157
MS.426         	8.932          	-0.159
MS.427         	8.915          	-0.154
MS.428         	8.898          	-0.156
MS.429         	8.88           	-0.143
MS.430         	8.863          	-0.152
MS.431         	8.845          	-0.158
MS.432         	8.827          	-0.159
MS.433         	8.807          	-0.151
MS.434         	8.79           	-0.159
MS.435         	8.773          	-0.151
MS.436         	8.755          	-0.144
MS.437         	8.738          	-0.154
MS.438         	8.72           	-0.154
MS.439         	8.702          	-0.157
MS.440         	8.685          	-0.152
MS.441         	8.67           	-0.15
MS.442         	8.653          	-0.148
MS.443         	8.635          	-0.151
MS.444         	8.617          	-0.148
MS.445         	8.6            	-0.149
MS.446         	8.582          	-0.145
MS.447         	8.565          	-0.151
MS.448         	8.547          	-0.15
MS.449         	8.53           	-0.151
MS.450         	8.515          	-0.147
MS.451         	8.497          	-0.145
MS.452         	8.48           	-0.148
MS.453         	8.462          	-0.146
MS.454         	8.448          	-0.145
MS.455         	8.43           	-0.142
MS.456         	8.412          	-0.146
MS.457         	8.395          	-0.143
MS.458         	8.38           	-0.148
MS.459         	8.363          	-0.146
MS.460         	8.345          	-0.146
MS.461         	8.33           	-0.139
MS.462         	8.312          	-0.146
MS.463         	8.295          	-0.144
MS.464         	8.28           	-0.143
MS.465         	8.262          	-0.145
MS.466         	8.245          	-0.137
MS.467         	8.23           	-0.142
MS.468         	8.212          	-0.145
MS.469         	8.198          	-0.142
MS.470         	8.18           	-0.134
MS.471         	8.165          	-0.145
MS.472         	8.148          	-0.14
MS.473         	8.132          	-0.145
MS.474         	8.115          	-0.146
MS.475         	8.1            	-0.129
MS.476         	8.082          	-0.139
MS.477         	8.068          	-0.14
MS.478         	8.05           	-0.141
MS.479         	8.035          	-0.146
MS.480         	8.017          	-0.142
MS.481         	8.002          	-0.142
MS.482         	7.987          	-0.143
MS.483         	7.97           	-0.144
MS.484         	7.955          	-0.138
MS.485         	7.938          	-0.131
MS.486         	7.922          	-0.14
MS.487         	7.907          	-0.138
MS.488         	7.89           	-0.137
MS.489         	7.875          	-0.137
MS.490         	7.86           	-0.132
MS.491         	7.845          	-0.135
MS.492         	7.827          	-0.138
MS.493         	7.812          	-0.135
MS.494         	7.797          	-0.134
MS.495         	7.782          	-0.131
MS.496         	7.765          	-0.135
MS.497         	7.75           	-0.136
MS.498         	7.735          	-0.136
MS.499         	7.72           	-0.137
MS.500         	7.705          	-0.134
MS.501         	7.688          	-0.134
MS.502         	7.672          	-0.134
MS.503         	7.657          	-0.137
MS.504         	7.642          	-0.135
MS.505         	7.628          	-0.132
MS.506         	7.612          	-0.132
MS.507         	7.597          	-0.126
MS.508         	7.582          	-0.127
MS.509         	7.567          	-0.129
MS.510         	7.552          	-0.132
MS.511         	7.537          	-0.129
MS.512         	7.52           	-0.132
MS.513         	7.505          	-0.133
MS.514         	7.49           	-0.129
MS.515         	7.477          	-0.127
MS.516         	7.462          	-0.129
DERIVED EXCITABILITY VARIABLES
Program = QTracP 27/06/2023
Threshold method = 6 (optimised for CAP, using data for present condition only)
SR method = 1 (using actual data values)
6.                 	0.000               	Peak response\(mV)
9.                 	32                  	Temperature ( C)
17.                	29                  	Age (years)
18.                	2                   	Sex (M=1, F=2)

EXTRA VARIABLES

MScPeak(mV) = 5.48
MScS5(mA) = 10.68
MScS50(mA) = 13.02
MScS95(mA) = 16.8
MScNSteps = 1
MScSteps(%) = 2.2
MScStepMax(%) = 2.2
MScD50 = 47
MScSlope = 4.62
MScDuration(min) = 6.9
MSFTraces = 420
MSFPeakAmp(mV) = 5.54
MSFNUnits = 173
MSFMeanUnitAmp(uV) = 32
MSFHuntTime(m) = 1.6
MSFError(%) = 2.76
MSFNLarge = 62.48
MSFMedianAmp(%) = 0.539
MSFMedianAmp(mV) = 0.0299
MSFHalfAmpAmp(%) = 0.596
MSFHalfAmpAmp(mV) = 0.033
MSFLargestAmp(%) = 1.58
MSFLargestAmp(mV) = 0.0874
MSFMeanRS(%) = 2
MSFSizeLimit(uV) = 18.4
MSFLimitType = 1
MSFSmallestAmp(uV) = 18.6
MSFOpts = 10104222032
MSFSDMax = 14.3
MSFSDMin = 3.67

EXTRA WAVEFORMS


!MScan Model
!173
	1	9.5	0.58	2
	2	9.85	0.77	2
	3	10.02	0.58	2
	4	10.08	0.34	2
	5	10.15	0.45	2
	6	10.22	0.79	2
	7	10.33	0.63	2
	8	10.39	0.55	2
	9	10.44	0.54	2
	10	10.49	0.53	2
	11	10.54	0.46	2
	12	10.58	0.44	2
	13	10.63	0.48	2
	14	10.69	0.52	2
	15	10.75	0.76	2
	16	10.83	0.73	2
	17	10.87	0.34	2
	18	10.93	0.67	2
	19	11	0.59	2
	20	11.04	0.38	2
	21	11.07	0.4	2
	22	11.11	0.46	2
	23	11.14	0.38	2
	24	11.18	0.4	2
	25	11.22	0.35	2
	26	11.26	0.38	2
	27	11.32	0.54	2
	28	11.38	0.63	2
	29	11.44	0.76	2
	30	11.54	0.97	2
	31	11.62	0.84	2
	32	11.66	0.83	2
	33	11.7	1.25	2
	34	11.74	0.61	2
	35	11.76	0.52	2
	36	11.78	0.84	1.92
	37	11.8	0.35	2
	38	11.82	0.85	2
	39	11.84	0.86	2
	40	11.86	0.55	2
	41	11.88	0.55	2
	42	11.9	0.51	2
	43	11.92	0.57	2
	44	11.94	0.68	2.1
	45	11.96	0.72	2
	46	11.99	0.81	2
	47	12.01	0.74	2
	48	12.03	0.62	2
	49	12.06	0.66	2
	50	12.09	0.83	2
	51	12.11	0.92	2
	52	12.14	0.98	2
	53	12.17	0.7	2
	54	12.2	0.58	2
	55	12.22	0.47	2
	56	12.24	0.46	2
	57	12.27	0.64	2
	58	12.3	0.65	2
	59	12.32	0.43	2
	60	12.33	0.4	2
	61	12.35	0.39	2
	62	12.37	0.37	2
	63	12.38	0.38	2
	64	12.41	0.61	2
	65	12.43	0.43	2
	66	12.44	0.43	2
	67	12.46	0.68	2
	68	12.5	0.71	2
	69	12.52	0.54	2
	70	12.55	0.57	2
	71	12.56	0.35	2
	72	12.58	0.37	2
	73	12.59	0.37	2
	74	12.61	0.38	2
	75	12.62	0.39	2
	76	12.64	0.39	2
	77	12.65	0.39	2
	78	12.67	0.38	2
	79	12.68	0.38	2
	80	12.7	0.38	2
	81	12.73	0.65	2
	82	12.75	0.61	2
	83	12.78	0.5	2
	84	12.81	0.53	2
	85	12.84	0.55	2
	86	12.87	0.56	2
	87	12.9	0.56	2
	88	12.92	0.56	2
	89	12.95	0.55	2
	90	12.98	0.6	2
	91	13.01	0.68	2
	92	13.04	0.67	2
	93	13.07	0.59	2
	94	13.1	0.56	2
	95	13.13	0.54	2
	96	13.16	0.52	2
	97	13.19	0.53	2
	98	13.21	0.54	2
	99	13.24	0.39	2
	100	13.28	0.79	2
	101	13.31	0.54	2
	102	13.33	0.37	2
	103	13.35	0.34	2
	104	13.37	0.35	2
	105	13.38	0.36	2
	106	13.4	0.37	2
	107	13.42	0.34	2
	108	13.45	0.57	2
	109	13.48	0.53	2
	110	13.5	0.36	2
	111	13.53	0.42	2
	112	13.55	0.44	2
	113	13.58	0.42	2
	114	13.62	0.69	2
	115	13.66	0.63	2
	116	13.7	0.6	2
	117	13.74	0.62	2
	118	13.77	0.34	2
	119	13.79	0.4	2
	120	13.85	0.67	2
	121	13.87	0.37	2
	122	13.91	0.48	2
	123	13.94	0.48	2
	124	13.98	0.44	2
	125	14.01	0.4	2
	126	14.06	0.53	2
	127	14.12	1.04	2
	128	14.18	0.61	2
	129	14.23	0.43	2
	130	14.28	0.41	2
	131	14.32	0.53	2
	132	14.37	0.55	2
	133	14.42	0.58	2
	134	14.48	0.79	2
	135	14.56	0.89	2
	136	14.63	0.61	2
	137	14.66	0.41	2
	138	14.7	0.51	2
	139	14.73	0.45	2
	140	14.78	0.66	2
	141	14.81	0.38	2
	142	14.84	0.41	2
	143	14.86	0.39	2
	144	14.89	0.36	2
	145	14.93	0.59	2
	146	14.97	0.51	2
	147	15.01	0.64	2
	148	15.03	0.36	2
	149	15.05	0.41	2
	150	15.08	0.41	2
	151	15.1	0.39	2
	152	15.13	0.37	2
	153	15.15	0.37	2
	154	15.17	0.38	2
	155	15.2	0.39	2
	156	15.23	0.49	2
	157	15.27	0.5	2
	158	15.31	0.41	2
	159	15.37	0.85	2
	160	15.56	1.58	2
	161	15.73	1.36	2
	162	15.83	0.91	2
	163	15.94	0.63	2
	164	16.03	0.87	2
	165	16.15	1.21	2
	166	16.34	1.43	2
	167	16.56	1.31	2
	168	16.75	1.05	2
	169	16.91	0.67	2
	170	17.03	0.63	2
	171	17.14	0.4	2
	172	17.36	0.79	2
	173	17.92	0.85	2

