File:              	C:\Qtrac\Data\ME2C30710B.QZD
Name:              	 ST14N
Protocol:          	MSCAN-MV
Date:              	10/7/23
Date of birth:     	14/4/00
Age:               	23
Sex:               	M
Temperature:       	31.3
S/R sites:         	Knee CF-TA
NC/disease:        	NC
Operator:          	BY
Comments:
M-SCAN DATA (Repeat 2/3, 19.2-12.3m)
Scanpts: 1, 24, 518, 562
Stim. (mA)     	Amp. (mV)
MS.1           	20.5           	4.59
MS.2           	20.5           	4.523
MS.3           	20.5           	4.517
MS.4           	20.5           	4.575
MS.5           	20.5           	4.521
MS.6           	20.5           	4.576
MS.7           	20.5           	4.592
MS.8           	20.5           	4.567
MS.9           	20.5           	4.557
MS.10          	20.5           	4.56
MS.11          	20.5           	4.575
MS.12          	20.5           	4.581
MS.13          	20.5           	4.507
MS.14          	20.5           	4.578
MS.15          	20.5           	4.489
MS.16          	20.5           	4.504
MS.17          	20.5           	4.57
MS.18          	20.5           	4.583
MS.19          	20.5           	4.564
MS.20          	20.5           	4.498
MS.21          	20.5           	4.505
MS.22          	20.5           	4.485
MS.23          	20.5           	4.568
MS.24          	20.46          	4.568
MS.25          	20.417         	4.506
MS.26          	20.377         	4.569
MS.27          	20.337         	4.565
MS.28          	20.295         	4.55
MS.29          	20.255         	4.512
MS.30          	20.215         	4.501
MS.31          	20.175         	4.503
MS.32          	20.135         	4.496
MS.33          	20.095         	4.493
MS.34          	20.055         	4.488
MS.35          	20.015         	4.498
MS.36          	19.975         	4.508
MS.37          	19.935         	4.496
MS.38          	19.895         	4.505
MS.39          	19.855         	4.505
MS.40          	19.815         	4.503
MS.41          	19.775         	4.496
MS.42          	19.735         	4.495
MS.43          	19.695         	4.491
MS.44          	19.657         	4.501
MS.45          	19.618         	4.484
MS.46          	19.577         	4.484
MS.47          	19.54          	4.509
MS.48          	19.5           	4.489
MS.49          	19.46          	4.482
MS.50          	19.422         	4.49
MS.51          	19.382         	4.503
MS.52          	19.345         	4.507
MS.53          	19.305         	4.434
MS.54          	19.267         	4.435
MS.55          	19.23          	4.492
MS.56          	19.19          	4.432
MS.57          	19.153         	4.511
MS.58          	19.115         	4.427
MS.59          	19.075         	4.446
MS.60          	19.038         	4.442
MS.61          	19             	4.416
MS.62          	18.962         	4.448
MS.63          	18.925         	4.419
MS.64          	18.885         	4.42
MS.65          	18.847         	4.426
MS.66          	18.81          	4.438
MS.67          	18.772         	4.419
MS.68          	18.735         	4.423
MS.69          	18.698         	4.422
MS.70          	18.66          	4.417
MS.71          	18.622         	4.426
MS.72          	18.587         	4.404
MS.73          	18.55          	4.42
MS.74          	18.512         	4.457
MS.75          	18.475         	4.419
MS.76          	18.438         	4.426
MS.77          	18.403         	4.448
MS.78          	18.365         	4.421
MS.79          	18.327         	4.431
MS.80          	18.292         	4.442
MS.81          	18.255         	4.44
MS.82          	18.217         	4.418
MS.83          	18.182         	4.424
MS.84          	18.145         	4.442
MS.85          	18.11          	4.438
MS.86          	18.073         	4.422
MS.87          	18.038         	4.418
MS.88          	18             	4.39
MS.89          	17.965         	4.412
MS.90          	17.93          	4.349
MS.91          	17.892         	4.382
MS.92          	17.858         	4.401
MS.93          	17.823         	4.366
MS.94          	17.785         	4.435
MS.95          	17.75          	4.382
MS.96          	17.715         	4.333
MS.97          	17.68          	4.396
MS.98          	17.645         	4.365
MS.99          	17.61          	4.343
MS.100         	17.575         	4.369
MS.101         	17.54          	4.337
MS.102         	17.505         	4.406
MS.103         	17.47          	4.309
MS.104         	17.435         	4.308
MS.105         	17.4           	4.313
MS.106         	17.365         	4.326
MS.107         	17.33          	4.286
MS.108         	17.295         	4.269
MS.109         	17.26          	4.305
MS.110         	17.225         	4.272
MS.111         	17.192         	4.267
MS.112         	17.157         	4.223
MS.113         	17.122         	4.232
MS.114         	17.09          	4.212
MS.115         	17.055         	4.243
MS.116         	17.02          	4.233
MS.117         	16.987         	4.258
MS.118         	16.952         	4.198
MS.119         	16.92          	4.199
MS.120         	16.885         	4.194
MS.121         	16.85          	4.205
MS.122         	16.817         	4.157
MS.123         	16.785         	4.196
MS.124         	16.75          	4.246
MS.125         	16.717         	4.221
MS.126         	16.682         	4.167
MS.127         	16.65          	4.197
MS.128         	16.618         	4.19
MS.129         	16.585         	4.108
MS.130         	16.55          	4.138
MS.131         	16.517         	4.185
MS.132         	16.485         	4.163
MS.133         	16.452         	4.136
MS.134         	16.42          	4.173
MS.135         	16.385         	4.128
MS.136         	16.352         	4.166
MS.137         	16.32          	4.144
MS.138         	16.288         	4.077
MS.139         	16.255         	4.14
MS.140         	16.222         	4.09
MS.141         	16.19          	4.064
MS.142         	16.157         	4.002
MS.143         	16.125         	3.983
MS.144         	16.092         	4.039
MS.145         	16.062         	4.08
MS.146         	16.03          	3.984
MS.147         	15.997         	4.009
MS.148         	15.965         	4.012
MS.149         	15.932         	4.03
MS.150         	15.902         	4.036
MS.151         	15.87          	3.923
MS.152         	15.837         	3.932
MS.153         	15.807         	3.944
MS.154         	15.775         	3.842
MS.155         	15.742         	3.973
MS.156         	15.712         	3.873
MS.157         	15.68          	3.936
MS.158         	15.65          	3.887
MS.159         	15.617         	3.845
MS.160         	15.587         	3.882
MS.161         	15.555         	3.922
MS.162         	15.525         	3.813
MS.163         	15.492         	3.628
MS.164         	15.462         	3.843
MS.165         	15.432         	3.738
MS.166         	15.4           	3.708
MS.167         	15.37          	3.798
MS.168         	15.34          	3.64
MS.169         	15.31          	3.683
MS.170         	15.277         	3.611
MS.171         	15.247         	3.595
MS.172         	15.217         	3.757
MS.173         	15.188         	3.573
MS.174         	15.157         	3.608
MS.175         	15.125         	3.541
MS.176         	15.095         	3.513
MS.177         	15.065         	3.619
MS.178         	15.035         	3.492
MS.179         	15.005         	3.45
MS.180         	14.975         	3.501
MS.181         	14.945         	3.591
MS.182         	14.915         	3.448
MS.183         	14.885         	3.485
MS.184         	14.858         	3.5
MS.185         	14.827         	3.445
MS.186         	14.797         	3.502
MS.187         	14.767         	3.442
MS.188         	14.737         	3.4
MS.189         	14.707         	3.387
MS.190         	14.68          	3.417
MS.191         	14.65          	3.385
MS.192         	14.62          	3.347
MS.193         	14.592         	3.325
MS.194         	14.562         	3.361
MS.195         	14.532         	3.295
MS.196         	14.505         	3.348
MS.197         	14.475         	3.293
MS.198         	14.445         	3.227
MS.199         	14.417         	3.281
MS.200         	14.387         	3.231
MS.201         	14.36          	3.223
MS.202         	14.33          	3.23
MS.203         	14.302         	3.253
MS.204         	14.275         	3.188
MS.205         	14.245         	3.274
MS.206         	14.217         	3.123
MS.207         	14.188         	3.151
MS.208         	14.16          	3.09
MS.209         	14.132         	3.179
MS.210         	14.102         	3.163
MS.211         	14.075         	3.178
MS.212         	14.047         	3.203
MS.213         	14.02          	3.12
MS.214         	13.99          	3.177
MS.215         	13.962         	3.106
MS.216         	13.935         	3.067
MS.217         	13.907         	3.064
MS.218         	13.88          	3.049
MS.219         	13.852         	3.024
MS.220         	13.825         	3.129
MS.221         	13.797         	3.057
MS.222         	13.77          	3.002
MS.223         	13.742         	2.987
MS.224         	13.715         	2.977
MS.225         	13.688         	3.007
MS.226         	13.66          	2.966
MS.227         	13.632         	2.949
MS.228         	13.605         	3.077
MS.229         	13.577         	2.95
MS.230         	13.55          	2.98
MS.231         	13.523         	2.88
MS.232         	13.497         	2.908
MS.233         	13.47          	2.917
MS.234         	13.443         	2.858
MS.235         	13.415         	2.871
MS.236         	13.39          	2.831
MS.237         	13.362         	2.811
MS.238         	13.335         	2.888
MS.239         	13.31          	2.827
MS.240         	13.282         	2.823
MS.241         	13.255         	2.715
MS.242         	13.23          	2.646
MS.243         	13.202         	2.74
MS.244         	13.177         	2.725
MS.245         	13.15          	2.675
MS.246         	13.125         	2.669
MS.247         	13.097         	2.711
MS.248         	13.072         	2.589
MS.249         	13.045         	2.747
MS.250         	13.02          	2.542
MS.251         	12.992         	2.644
MS.252         	12.967         	2.46
MS.253         	12.943         	2.497
MS.254         	12.915         	2.504
MS.255         	12.89          	2.45
MS.256         	12.865         	2.466
MS.257         	12.837         	2.444
MS.258         	12.812         	2.458
MS.259         	12.787         	2.42
MS.260         	12.762         	2.344
MS.261         	12.735         	2.324
MS.262         	12.71          	2.377
MS.263         	12.685         	2.398
MS.264         	12.66          	2.278
MS.265         	12.635         	2.332
MS.266         	12.61          	2.289
MS.267         	12.585         	2.307
MS.268         	12.56          	2.305
MS.269         	12.532         	2.194
MS.270         	12.507         	2.125
MS.271         	12.483         	2.201
MS.272         	12.46          	2.056
MS.273         	12.435         	2.027
MS.274         	12.41          	2.098
MS.275         	12.385         	1.981
MS.276         	12.36          	1.955
MS.277         	12.335         	1.971
MS.278         	12.31          	1.893
MS.279         	12.285         	1.94
MS.280         	12.26          	1.993
MS.281         	12.238         	1.837
MS.282         	12.212         	1.87
MS.283         	12.188         	1.872
MS.284         	12.162         	1.774
MS.285         	12.14          	1.847
MS.286         	12.115         	1.708
MS.287         	12.09          	1.745
MS.288         	12.068         	1.709
MS.289         	12.042         	1.78
MS.290         	12.017         	1.716
MS.291         	11.995         	1.685
MS.292         	11.97          	1.564
MS.293         	11.947         	1.643
MS.294         	11.922         	1.617
MS.295         	11.898         	1.649
MS.296         	11.875         	1.606
MS.297         	11.85          	1.551
MS.298         	11.827         	1.529
MS.299         	11.805         	1.572
MS.300         	11.78          	1.447
MS.301         	11.757         	1.517
MS.302         	11.733         	1.448
MS.303         	11.71          	1.415
MS.304         	11.688         	1.445
MS.305         	11.662         	1.453
MS.306         	11.64          	1.453
MS.307         	11.617         	1.411
MS.308         	11.592         	1.307
MS.309         	11.57          	1.415
MS.310         	11.547         	1.331
MS.311         	11.525         	1.276
MS.312         	11.5           	1.301
MS.313         	11.477         	1.342
MS.314         	11.455         	1.335
MS.315         	11.432         	1.292
MS.316         	11.41          	1.27
MS.317         	11.387         	1.168
MS.318         	11.363         	1.149
MS.319         	11.34          	1.15
MS.320         	11.318         	1.221
MS.321         	11.295         	1.233
MS.322         	11.273         	1.123
MS.323         	11.25          	1.153
MS.324         	11.227         	1.187
MS.325         	11.205         	1.096
MS.326         	11.182         	1.133
MS.327         	11.16          	1.163
MS.328         	11.137         	1.11
MS.329         	11.117         	1.155
MS.330         	11.095         	1.089
MS.331         	11.073         	0.984
MS.332         	11.05          	1.011
MS.333         	11.028         	1.014
MS.334         	11.005         	1.021
MS.335         	10.985         	0.986
MS.336         	10.962         	0.952
MS.337         	10.94          	0.948
MS.338         	10.917         	0.909
MS.339         	10.898         	0.964
MS.340         	10.875         	0.919
MS.341         	10.852         	0.885
MS.342         	10.83          	0.916
MS.343         	10.81          	0.895
MS.344         	10.787         	0.924
MS.345         	10.767         	0.81
MS.346         	10.745         	0.873
MS.347         	10.722         	0.835
MS.348         	10.702         	0.784
MS.349         	10.68          	0.775
MS.350         	10.66          	0.724
MS.351         	10.637         	0.771
MS.352         	10.617         	0.768
MS.353         	10.595         	0.746
MS.354         	10.575         	0.749
MS.355         	10.552         	0.743
MS.356         	10.532         	0.781
MS.357         	10.51          	0.73
MS.358         	10.49          	0.687
MS.359         	10.47          	0.746
MS.360         	10.448         	0.733
MS.361         	10.427         	0.69
MS.362         	10.407         	0.692
MS.363         	10.385         	0.689
MS.364         	10.365         	0.712
MS.365         	10.345         	0.653
MS.366         	10.323         	0.67
MS.367         	10.302         	0.629
MS.368         	10.282         	0.668
MS.369         	10.262         	0.646
MS.370         	10.242         	0.667
MS.371         	10.22          	0.609
MS.372         	10.2           	0.598
MS.373         	10.18          	0.593
MS.374         	10.16          	0.579
MS.375         	10.14          	0.569
MS.376         	10.12          	0.464
MS.377         	10.1           	0.556
MS.378         	10.077         	0.626
MS.379         	10.057         	0.531
MS.380         	10.037         	0.532
MS.381         	10.017         	0.424
MS.382         	9.997          	0.544
MS.383         	9.977          	0.43
MS.384         	9.957          	0.489
MS.385         	9.938          	0.515
MS.386         	9.917          	0.482
MS.387         	9.9            	0.497
MS.388         	9.88           	0.431
MS.389         	9.86           	0.418
MS.390         	9.84           	0.463
MS.391         	9.82           	0.316
MS.392         	9.8            	0.343
MS.393         	9.78           	0.391
MS.394         	9.762          	0.446
MS.395         	9.742          	0.281
MS.396         	9.722          	0.378
MS.397         	9.702          	0.236
MS.398         	9.682          	0.269
MS.399         	9.665          	0.326
MS.400         	9.645          	0.311
MS.401         	9.625          	0.267
MS.402         	9.608          	0.267
MS.403         	9.587          	0.283
MS.404         	9.568          	0.23
MS.405         	9.55           	0.363
MS.406         	9.53           	0.245
MS.407         	9.51           	0.187
MS.408         	9.492          	0.205
MS.409         	9.472          	0.192
MS.410         	9.455          	0.265
MS.411         	9.435          	0.198
MS.412         	9.415          	0.194
MS.413         	9.398          	0.176
MS.414         	9.377          	0.195
MS.415         	9.36           	0.173
MS.416         	9.34           	0.168
MS.417         	9.323          	0.165
MS.418         	9.305          	0.139
MS.419         	9.285          	0.188
MS.420         	9.267          	0.156
MS.421         	9.247          	0.114
MS.422         	9.23           	0.119
MS.423         	9.21           	0.12
MS.424         	9.193          	0.104
MS.425         	9.175          	0.123
MS.426         	9.155          	0.128
MS.427         	9.137          	0.084
MS.428         	9.12           	0.117
MS.429         	9.102          	0.12
MS.430         	9.082          	0.089
MS.431         	9.065          	0.104
MS.432         	9.047          	0.084
MS.433         	9.03           	0.095
MS.434         	9.01           	0.052
MS.435         	8.992          	0.077
MS.436         	8.975          	0.097
MS.437         	8.957          	0.063
MS.438         	8.94           	0.089
MS.439         	8.92           	0.065
MS.440         	8.903          	0.047
MS.441         	8.885          	0.062
MS.442         	8.867          	0.07
MS.443         	8.85           	0.078
MS.444         	8.832          	0.073
MS.445         	8.815          	0.06
MS.446         	8.797          	0.057
MS.447         	8.78           	0.05
MS.448         	8.762          	0.049
MS.449         	8.745          	0.06
MS.450         	8.727          	0.043
MS.451         	8.71           	0.055
MS.452         	8.693          	0.045
MS.453         	8.675          	0.039
MS.454         	8.658          	0.038
MS.455         	8.64           	0.042
MS.456         	8.622          	0.034
MS.457         	8.605          	0.045
MS.458         	8.587          	0.042
MS.459         	8.573          	0.036
MS.460         	8.555          	0.042
MS.461         	8.537          	0.035
MS.462         	8.52           	0.04
MS.463         	8.502          	0.04
MS.464         	8.485          	0.031
MS.465         	8.47           	0.04
MS.466         	8.452          	0.031
MS.467         	8.435          	0.049
MS.468         	8.417          	0.027
MS.469         	8.403          	0.034
MS.470         	8.385          	0.029
MS.471         	8.367          	0.026
MS.472         	8.352          	0.024
MS.473         	8.335          	0.025
MS.474         	8.318          	0.031
MS.475         	8.302          	0.026
MS.476         	8.285          	0.024
MS.477         	8.267          	0.023
MS.478         	8.252          	-0.002
MS.479         	8.235          	0.023
MS.480         	8.22           	0.024
MS.481         	8.202          	0.024
MS.482         	8.185          	0.024
MS.483         	8.17           	0.022
MS.484         	8.153          	-0.001
MS.485         	8.137          	0.027
MS.486         	8.12           	0.027
MS.487         	8.105          	-0.009
MS.488         	8.087          	0.022
MS.489         	8.073          	-0.002
MS.490         	8.055          	-0.017
MS.491         	8.04           	-0.007
MS.492         	8.025          	0.024
MS.493         	8.007          	0.024
MS.494         	7.992          	-0.002
MS.495         	7.975          	-0.008
MS.496         	7.96           	-0.005
MS.497         	7.945          	0.023
MS.498         	7.927          	-0.009
MS.499         	7.912          	-0.008
MS.500         	7.898          	-0.01
MS.501         	7.88           	-0.016
MS.502         	7.865          	-0.018
MS.503         	7.85           	-0.012
MS.504         	7.832          	-0.009
MS.505         	7.817          	-0.009
MS.506         	7.802          	-0.013
MS.507         	7.787          	-0.013
MS.508         	7.77           	-0.008
MS.509         	7.755          	-0.003
MS.510         	7.74           	-0.02
MS.511         	7.725          	-0.001
MS.512         	7.71           	-0.007
MS.513         	7.695          	-0.018
MS.514         	7.677          	-0.004
MS.515         	7.662          	0.011
MS.516         	7.648          	-0.016
MS.517         	7.632          	-0.021
MS.518         	7.617          	-0.019
MS.519         	7.602          	-0.022
MS.520         	7.587          	-0.021
MS.521         	7.572          	-0.016
MS.522         	7.557          	-0.016
MS.523         	7.543          	-0.013
MS.524         	7.527          	-0.021
MS.525         	7.512          	-0.027
MS.526         	7.497          	-0.025
MS.527         	7.482          	-0.02
MS.528         	7.467          	-0.017
MS.529         	7.452          	-0.023
MS.530         	7.438          	-0.021
MS.531         	7.422          	-0.016
MS.532         	7.407          	-0.024
MS.533         	7.392          	-0.019
MS.534         	7.378          	-0.026
MS.535         	7.362          	-0.019
MS.536         	7.347          	-0.022
MS.537         	7.332          	-0.014
MS.538         	7.317          	-0.021
MS.539         	7.305          	-0.022
MS.540         	7.29           	-0.021
MS.541         	7.275          	-0.021
MS.542         	7.26           	-0.02
MS.543         	7.245          	-0.022
MS.544         	7.233          	-0.021
MS.545         	7.217          	-0.016
MS.546         	7.202          	-0.026
MS.547         	7.188          	-0.018
MS.548         	7.172          	-0.017
MS.549         	7.16           	-0.018
MS.550         	7.145          	-0.017
MS.551         	7.13           	-0.02
MS.552         	7.117          	-0.02
MS.553         	7.102          	-0.023
MS.554         	7.087          	-0.026
MS.555         	7.075          	-0.016
MS.556         	7.06           	-0.025
MS.557         	7.045          	-0.02
MS.558         	7.032          	-0.02
MS.559         	7.017          	-0.027
MS.560         	7.003          	-0.021
MS.561         	6.99           	-0.017
MS.562         	6.975          	-0.016
DERIVED EXCITABILITY VARIABLES
Program = QTracP 27/06/2023
Threshold method = 6 (optimised for CAP, using data for present condition only)
SR method = 1 (using actual data values)
6.                 	0.000               	Peak response\(mV)
9.                 	31.3                	Temperature ( C)
17.                	23                  	Age (years)
18.                	1                   	Sex (M=1, F=2)

EXTRA VARIABLES

MScPeak(mV) = 4.57
MScS5(mA) = 9.48
MScS50(mA) = 12.62
MScS95(mA) = 17.6
MScNSteps = 0
MScSteps(%) = 0.0
MScStepMax(%) = 0.0
MScD50 = 71
MScSlope = 3.54
MScDuration(min) = 7.5
MSFTraces = 562
MSFPeakAmp(mV) = 4.57
MSFNUnits = 166
MSFMeanUnitAmp(uV) = 27.5
MSFHuntTime(m) = 1.86
MSFError(%) = 1.24
MSFNLarge = 57.59
MSFMedianAmp(%) = 0.537
MSFMedianAmp(mV) = 0.0246
MSFHalfAmpAmp(%) = 0.615
MSFHalfAmpAmp(mV) = 0.0281
MSFLargestAmp(%) = 1.77
MSFLargestAmp(mV) = 0.0809
MSFMeanRS(%) = 2
MSFSizeLimit(uV) = 15.2
MSFLimitType = 1
MSFSmallestAmp(uV) = 15.3
MSFOpts = 10104222032
MSFSDMax = 35.4
MSFSDMin = 3.5

EXTRA WAVEFORMS


!MScan Model
!166
	1	8.04	0.62	2
	2	8.29	0.34	2
	3	8.56	0.35	2
	4	8.79	0.39	2
	5	8.98	0.44	2
	6	9.06	0.34	2
	7	9.16	0.45	2
	8	9.23	0.37	2
	9	9.3	0.59	2
	10	9.34	0.37	2
	11	9.39	0.37	2
	12	9.45	0.55	2
	13	9.52	0.57	2
	14	9.66	1.06	2
	15	9.72	0.92	2
	16	9.76	0.46	2
	17	9.79	0.5	2
	18	9.83	0.76	2
	19	9.89	0.69	2
	20	10.03	1.77	2
	21	10.09	0.7	2
	22	10.13	0.48	2
	23	10.21	0.79	2
	24	10.27	0.75	2
	25	10.33	0.68	2
	26	10.41	0.56	2
	27	10.44	0.36	2
	28	10.59	0.96	2
	29	10.64	0.44	2
	30	10.68	0.35	2
	31	10.72	0.62	2
	32	10.75	0.51	2
	33	10.78	0.42	2
	34	10.81	0.48	2
	35	10.86	0.59	2
	36	10.91	0.62	2
	37	10.95	0.47	2
	38	10.98	0.44	2
	39	11.01	0.49	2
	40	11.03	0.35	2
	41	11.06	0.57	2
	42	11.08	0.37	2
	43	11.11	0.52	2
	44	11.14	0.39	2
	45	11.17	0.44	2
	46	11.24	0.84	2
	47	11.31	0.56	2
	48	11.34	0.34	2
	49	11.38	0.52	2
	50	11.41	0.52	2
	51	11.44	0.39	2
	52	11.46	0.45	2
	53	11.49	0.51	2
	54	11.51	0.43	2
	55	11.54	0.48	2
	56	11.6	0.6	2
	57	11.63	0.45	2
	58	11.67	0.61	2
	59	11.69	0.39	2
	60	11.71	0.55	2
	61	11.75	0.63	2
	62	11.79	0.62	2
	63	11.83	0.42	2
	64	11.87	0.66	2
	65	11.89	0.37	2
	66	11.91	0.4	2
	67	11.94	0.46	2
	68	11.96	0.45	2
	69	11.98	0.39	2
	70	12	0.37	2
	71	12.02	0.34	2
	72	12.06	0.57	2
	73	12.08	0.4	2
	74	12.1	0.44	2
	75	12.12	0.47	2
	76	12.15	0.51	2
	77	12.19	0.66	2
	78	12.22	0.43	2
	79	12.24	0.43	2
	80	12.26	0.4	2
	81	12.28	0.53	2
	82	12.3	0.56	2
	83	12.33	0.47	2
	84	12.35	0.48	2
	85	12.37	0.37	2
	86	12.39	0.36	2
	87	12.41	0.45	2
	88	12.43	0.56	2
	89	12.45	0.56	2
	90	12.47	0.7	2
	91	12.49	0.46	2
	92	12.5	0.46	2
	93	12.53	0.53	2
	94	12.55	0.34	2
	95	12.56	0.35	2
	96	12.58	0.35	2
	97	12.6	0.53	2
	98	12.64	0.93	2
	99	12.68	0.87	2
	100	12.71	0.47	2
	101	12.74	0.36	2
	102	12.77	0.38	2
	103	12.8	0.42	2
	104	12.83	0.42	2
	105	12.86	0.43	2
	106	12.89	0.44	2
	107	12.92	0.66	2
	108	12.95	0.55	2
	109	12.99	0.88	2
	110	13.06	0.98	2
	111	13.11	0.72	2
	112	13.14	0.4	2
	113	13.17	0.54	2
	114	13.19	0.52	2
	115	13.22	0.45	2
	116	13.25	0.49	2
	117	13.29	0.64	2
	118	13.35	0.61	2
	119	13.39	0.57	2
	120	13.44	0.84	2
	121	13.48	0.6	2
	122	13.56	0.87	2
	123	13.67	0.91	2
	124	13.84	1.33	2
	125	13.88	0.54	2
	126	13.98	0.94	2
	127	14.19	1.62	2
	128	14.32	0.66	2
	129	14.37	0.71	2
	130	14.44	0.58	2
	131	14.5	0.54	2
	132	14.56	0.55	2
	133	14.59	0.34	2
	134	14.63	0.76	2
	135	14.73	0.8	2
	136	14.81	0.99	2
	137	14.94	0.86	2
	138	15.03	0.79	2
	139	15.1	0.78	2
	140	15.17	0.59	2
	141	15.23	0.84	2
	142	15.32	1.14	2
	143	15.4	1.04	2
	144	15.46	0.82	2
	145	15.53	0.92	2
	146	15.65	1.09	2
	147	15.74	0.96	2
	148	15.83	0.97	2
	149	15.98	1.06	2
	150	16.09	0.78	2
	151	16.14	0.44	2
	152	16.18	0.35	2
	153	16.29	0.58	2
	154	16.32	0.38	2
	155	16.54	1.01	2
	156	16.83	1.01	2
	157	17.05	0.62	2
	158	17.19	0.78	2
	159	17.34	0.69	2
	160	17.43	0.44	2
	161	17.53	0.45	2
	162	17.86	1.07	2
	163	18.05	0.48	2
	164	19.03	0.55	2
	165	19.28	0.75	2
	166	20.29	1.14	2

