File:              	C:\Qtrac\Data\ME2C30612A.QZD
Name:              	 LL19N
Protocol:          	MSCAN-R2
Date:              	12/6/23
Date of birth:     	19/1/96
Age:               	27
Sex:               	M
Temperature:       	31.4
S/R sites:         	Knee CF-TA
NC/disease:        	NC
Operator:          	BY
Comments:
M-SCAN DATA (Repeat 1/3, 16.7-9.9m)
Scanpts: 11, 59, 470, 510
Stim. (mA)     	Amp. (mV)
MS.1           	15             	1.81
MS.2           	15             	1.807
MS.3           	14.94          	1.807
MS.4           	14.91          	1.811
MS.5           	14.88          	1.805
MS.6           	14.85          	1.809
MS.7           	14.82          	1.81
MS.8           	14.792         	1.81
MS.9           	14.762         	1.805
MS.10          	14.733         	1.808
MS.11          	14.702         	1.81
MS.12          	14.672         	1.808
MS.13          	14.645         	1.807
MS.14          	14.615         	1.808
MS.15          	14.585         	1.811
MS.16          	14.557         	1.808
MS.17          	14.527         	1.813
MS.18          	14.497         	1.811
MS.19          	14.47          	1.818
MS.20          	14.44          	1.804
MS.21          	14.412         	1.807
MS.22          	14.382         	1.809
MS.23          	14.355         	1.805
MS.24          	14.325         	1.811
MS.25          	14.297         	1.81
MS.26          	14.267         	1.81
MS.27          	14.24          	1.812
MS.28          	14.212         	1.803
MS.29          	14.182         	1.808
MS.30          	14.155         	1.808
MS.31          	14.127         	1.804
MS.32          	14.097         	1.808
MS.33          	14.07          	1.805
MS.34          	14.042         	1.809
MS.35          	14.015         	1.815
MS.36          	13.985         	1.81
MS.37          	13.957         	1.807
MS.38          	13.93          	1.805
MS.39          	13.903         	1.822
MS.40          	13.875         	1.81
MS.41          	13.847         	1.805
MS.42          	13.82          	1.81
MS.43          	13.792         	1.81
MS.44          	13.765         	1.813
MS.45          	13.737         	1.81
MS.46          	13.71          	1.81
MS.47          	13.682         	1.808
MS.48          	13.655         	1.813
MS.49          	13.627         	1.81
MS.50          	13.6           	1.806
MS.51          	13.572         	1.804
MS.52          	13.545         	1.821
MS.53          	13.517         	1.817
MS.54          	13.492         	1.814
MS.55          	13.465         	1.814
MS.56          	13.438         	1.807
MS.57          	13.41          	1.815
MS.58          	13.385         	1.815
MS.59          	13.358         	1.812
MS.60          	13.33          	1.808
MS.61          	13.305         	1.815
MS.62          	13.278         	1.812
MS.63          	13.25          	1.81
MS.64          	13.225         	1.815
MS.65          	13.197         	1.808
MS.66          	13.172         	1.809
MS.67          	13.145         	1.785
MS.68          	13.12          	1.805
MS.69          	13.092         	1.815
MS.70          	13.068         	1.807
MS.71          	13.04          	1.816
MS.72          	13.015         	1.807
MS.73          	12.987         	1.812
MS.74          	12.962         	1.807
MS.75          	12.938         	1.786
MS.76          	12.91          	1.815
MS.77          	12.885         	1.786
MS.78          	12.86          	1.812
MS.79          	12.832         	1.815
MS.80          	12.807         	1.785
MS.81          	12.782         	1.786
MS.82          	12.757         	1.786
MS.83          	12.73          	1.793
MS.84          	12.705         	1.79
MS.85          	12.68          	1.785
MS.86          	12.655         	1.807
MS.87          	12.63          	1.807
MS.88          	12.605         	1.785
MS.89          	12.58          	1.782
MS.90          	12.555         	1.776
MS.91          	12.53          	1.782
MS.92          	12.505         	1.785
MS.93          	12.48          	1.784
MS.94          	12.455         	1.782
MS.95          	12.43          	1.787
MS.96          	12.405         	1.788
MS.97          	12.38          	1.785
MS.98          	12.355         	1.802
MS.99          	12.33          	1.782
MS.100         	12.305         	1.789
MS.101         	12.28          	1.78
MS.102         	12.257         	1.787
MS.103         	12.233         	1.79
MS.104         	12.207         	1.787
MS.105         	12.182         	1.785
MS.106         	12.157         	1.779
MS.107         	12.135         	1.786
MS.108         	12.11          	1.791
MS.109         	12.085         	1.79
MS.110         	12.062         	1.808
MS.111         	12.037         	1.788
MS.112         	12.012         	1.779
MS.113         	11.99          	1.783
MS.114         	11.965         	1.772
MS.115         	11.943         	1.778
MS.116         	11.917         	1.795
MS.117         	11.895         	1.783
MS.118         	11.87          	1.779
MS.119         	11.847         	1.771
MS.120         	11.822         	1.788
MS.121         	11.8           	1.776
MS.122         	11.775         	1.772
MS.123         	11.752         	1.781
MS.124         	11.73          	1.78
MS.125         	11.705         	1.783
MS.126         	11.682         	1.779
MS.127         	11.657         	1.776
MS.128         	11.635         	1.776
MS.129         	11.613         	1.779
MS.130         	11.59          	1.779
MS.131         	11.565         	1.768
MS.132         	11.542         	1.759
MS.133         	11.52          	1.78
MS.134         	11.497         	1.764
MS.135         	11.472         	1.761
MS.136         	11.45          	1.788
MS.137         	11.427         	1.77
MS.138         	11.405         	1.771
MS.139         	11.382         	1.774
MS.140         	11.36          	1.777
MS.141         	11.337         	1.768
MS.142         	11.315         	1.769
MS.143         	11.292         	1.755
MS.144         	11.27          	1.763
MS.145         	11.247         	1.761
MS.146         	11.225         	1.75
MS.147         	11.202         	1.769
MS.148         	11.18          	1.758
MS.149         	11.157         	1.744
MS.150         	11.135         	1.749
MS.151         	11.113         	1.757
MS.152         	11.09          	1.762
MS.153         	11.068         	1.757
MS.154         	11.045         	1.766
MS.155         	11.023         	1.725
MS.156         	11.002         	1.75
MS.157         	10.98          	1.733
MS.158         	10.957         	1.763
MS.159         	10.935         	1.757
MS.160         	10.915         	1.734
MS.161         	10.892         	1.722
MS.162         	10.87          	1.747
MS.163         	10.847         	1.744
MS.164         	10.827         	1.715
MS.165         	10.805         	1.724
MS.166         	10.785         	1.717
MS.167         	10.762         	1.75
MS.168         	10.74          	1.713
MS.169         	10.72          	1.722
MS.170         	10.698         	1.702
MS.171         	10.677         	1.713
MS.172         	10.655         	1.703
MS.173         	10.635         	1.715
MS.174         	10.613         	1.693
MS.175         	10.592         	1.692
MS.176         	10.57          	1.688
MS.177         	10.55          	1.71
MS.178         	10.528         	1.719
MS.179         	10.507         	1.688
MS.180         	10.485         	1.685
MS.181         	10.465         	1.717
MS.182         	10.445         	1.696
MS.183         	10.422         	1.699
MS.184         	10.403         	1.671
MS.185         	10.382         	1.685
MS.186         	10.36          	1.683
MS.187         	10.34          	1.68
MS.188         	10.32          	1.631
MS.189         	10.3           	1.647
MS.190         	10.278         	1.661
MS.191         	10.257         	1.67
MS.192         	10.238         	1.641
MS.193         	10.217         	1.646
MS.194         	10.198         	1.644
MS.195         	10.175         	1.616
MS.196         	10.155         	1.671
MS.197         	10.135         	1.609
MS.198         	10.115         	1.628
MS.199         	10.095         	1.619
MS.200         	10.075         	1.635
MS.201         	10.055         	1.606
MS.202         	10.035         	1.61
MS.203         	10.015         	1.644
MS.204         	9.995          	1.616
MS.205         	9.975          	1.609
MS.206         	9.955          	1.578
MS.207         	9.935          	1.567
MS.208         	9.915          	1.591
MS.209         	9.895          	1.562
MS.210         	9.875          	1.552
MS.211         	9.855          	1.526
MS.212         	9.835          	1.531
MS.213         	9.818          	1.548
MS.214         	9.797          	1.458
MS.215         	9.778          	1.487
MS.216         	9.757          	1.453
MS.217         	9.738          	1.449
MS.218         	9.717          	1.484
MS.219         	9.7            	1.442
MS.220         	9.68           	1.449
MS.221         	9.66           	1.398
MS.222         	9.64           	1.379
MS.223         	9.622          	1.418
MS.224         	9.602          	1.387
MS.225         	9.582          	1.411
MS.226         	9.565          	1.448
MS.227         	9.545          	1.384
MS.228         	9.525          	1.442
MS.229         	9.507          	1.387
MS.230         	9.488          	1.354
MS.231         	9.47           	1.407
MS.232         	9.45           	1.388
MS.233         	9.432          	1.36
MS.234         	9.412          	1.371
MS.235         	9.395          	1.413
MS.236         	9.375          	1.365
MS.237         	9.358          	1.31
MS.238         	9.337          	1.324
MS.239         	9.32           	1.257
MS.240         	9.3            	1.312
MS.241         	9.283          	1.298
MS.242         	9.262          	1.282
MS.243         	9.245          	1.277
MS.244         	9.225          	1.263
MS.245         	9.207          	1.248
MS.246         	9.19           	1.312
MS.247         	9.17           	1.249
MS.248         	9.153          	1.251
MS.249         	9.135          	1.308
MS.250         	9.115          	1.308
MS.251         	9.097          	1.248
MS.252         	9.08           	1.191
MS.253         	9.062          	1.204
MS.254         	9.042          	1.267
MS.255         	9.025          	1.158
MS.256         	9.007          	1.161
MS.257         	8.99           	1.193
MS.258         	8.972          	1.139
MS.259         	8.952          	1.18
MS.260         	8.935          	1.117
MS.261         	8.917          	1.116
MS.262         	8.9            	1.061
MS.263         	8.882          	1.019
MS.264         	8.865          	0.996
MS.265         	8.847          	0.975
MS.266         	8.83           	1.031
MS.267         	8.812          	0.975
MS.268         	8.795          	0.994
MS.269         	8.775          	1.012
MS.270         	8.757          	0.935
MS.271         	8.74           	0.966
MS.272         	8.722          	1.029
MS.273         	8.707          	0.872
MS.274         	8.69           	0.917
MS.275         	8.672          	0.934
MS.276         	8.655          	0.925
MS.277         	8.637          	0.9
MS.278         	8.62           	0.901
MS.279         	8.602          	0.935
MS.280         	8.585          	0.829
MS.281         	8.568          	0.825
MS.282         	8.55           	0.897
MS.283         	8.535          	0.854
MS.284         	8.517          	0.795
MS.285         	8.5            	0.884
MS.286         	8.483          	0.784
MS.287         	8.465          	0.779
MS.288         	8.45           	0.774
MS.289         	8.432          	0.786
MS.290         	8.415          	0.76
MS.291         	8.398          	0.719
MS.292         	8.382          	0.683
MS.293         	8.365          	0.761
MS.294         	8.347          	0.695
MS.295         	8.332          	0.751
MS.296         	8.315          	0.649
MS.297         	8.297          	0.665
MS.298         	8.283          	0.629
MS.299         	8.265          	0.648
MS.300         	8.247          	0.62
MS.301         	8.233          	0.638
MS.302         	8.215          	0.631
MS.303         	8.2            	0.652
MS.304         	8.182          	0.599
MS.305         	8.167          	0.582
MS.306         	8.15           	0.595
MS.307         	8.135          	0.587
MS.308         	8.117          	0.558
MS.309         	8.102          	0.592
MS.310         	8.085          	0.566
MS.311         	8.07           	0.583
MS.312         	8.052          	0.544
MS.313         	8.037          	0.544
MS.314         	8.02           	0.569
MS.315         	8.005          	0.562
MS.316         	7.99           	0.519
MS.317         	7.972          	0.54
MS.318         	7.957          	0.544
MS.319         	7.94           	0.517
MS.320         	7.925          	0.522
MS.321         	7.91           	0.523
MS.322         	7.892          	0.516
MS.323         	7.878          	0.465
MS.324         	7.862          	0.475
MS.325         	7.847          	0.487
MS.326         	7.83           	0.509
MS.327         	7.815          	0.479
MS.328         	7.8            	0.399
MS.329         	7.785          	0.445
MS.330         	7.767          	0.415
MS.331         	7.753          	0.414
MS.332         	7.737          	0.41
MS.333         	7.722          	0.393
MS.334         	7.707          	0.419
MS.335         	7.69           	0.359
MS.336         	7.675          	0.334
MS.337         	7.66           	0.319
MS.338         	7.645          	0.35
MS.339         	7.63           	0.317
MS.340         	7.615          	0.262
MS.341         	7.6            	0.291
MS.342         	7.585          	0.284
MS.343         	7.57           	0.294
MS.344         	7.555          	0.269
MS.345         	7.537          	0.278
MS.346         	7.523          	0.24
MS.347         	7.507          	0.23
MS.348         	7.492          	0.249
MS.349         	7.477          	0.254
MS.350         	7.462          	0.259
MS.351         	7.447          	0.212
MS.352         	7.435          	0.22
MS.353         	7.42           	0.222
MS.354         	7.405          	0.209
MS.355         	7.39           	0.161
MS.356         	7.375          	0.181
MS.357         	7.36           	0.154
MS.358         	7.345          	0.187
MS.359         	7.33           	0.173
MS.360         	7.315          	0.221
MS.361         	7.302          	0.155
MS.362         	7.287          	0.184
MS.363         	7.273          	0.184
MS.364         	7.257          	0.166
MS.365         	7.242          	0.138
MS.366         	7.227          	0.187
MS.367         	7.215          	0.125
MS.368         	7.2            	0.185
MS.369         	7.185          	0.137
MS.370         	7.17           	0.165
MS.371         	7.157          	0.131
MS.372         	7.142          	0.107
MS.373         	7.128          	0.16
MS.374         	7.115          	0.115
MS.375         	7.1            	0.08
MS.376         	7.085          	0.148
MS.377         	7.072          	0.075
MS.378         	7.057          	0.111
MS.379         	7.043          	0.073
MS.380         	7.03           	0.07
MS.381         	7.015          	0.034
MS.382         	7              	0.073
MS.383         	6.987          	0.105
MS.384         	6.972          	0.06
MS.385         	6.96           	0.029
MS.386         	6.945          	0.029
MS.387         	6.932          	0.039
MS.388         	6.918          	0.046
MS.389         	6.902          	0.062
MS.390         	6.89           	0.038
MS.391         	6.875          	0.037
MS.392         	6.862          	0.031
MS.393         	6.847          	0.031
MS.394         	6.835          	0.023
MS.395         	6.822          	0.009
MS.396         	6.807          	0.007
MS.397         	6.795          	0.004
MS.398         	6.78           	0.006
MS.399         	6.767          	0.029
MS.400         	6.753          	0.02
MS.401         	6.74           	0.014
MS.402         	6.727          	0.000
MS.403         	6.712          	-0.006
MS.404         	6.7            	-0.01
MS.405         	6.685          	0.002
MS.406         	6.672          	-0.005
MS.407         	6.66           	-0.001
MS.408         	6.645          	-0.004
MS.409         	6.632          	-0.009
MS.410         	6.62           	-0.001
MS.411         	6.608          	-0.007
MS.412         	6.592          	-0.008
MS.413         	6.58           	-0.004
MS.414         	6.567          	-0.01
MS.415         	6.555          	-0.009
MS.416         	6.54           	-0.01
MS.417         	6.527          	-0.01
MS.418         	6.515          	-0.009
MS.419         	6.503          	0.004
MS.420         	6.487          	-0.01
MS.421         	6.475          	-0.012
MS.422         	6.462          	-0.009
MS.423         	6.45           	-0.009
MS.424         	6.438          	-0.002
MS.425         	6.425          	-0.011
MS.426         	6.41           	-0.008
MS.427         	6.398          	-0.009
MS.428         	6.385          	-0.008
MS.429         	6.372          	-0.008
MS.430         	6.36           	-0.009
MS.431         	6.347          	-0.012
MS.432         	6.335          	-0.007
MS.433         	6.322          	-0.01
MS.434         	6.31           	-0.011
MS.435         	6.297          	-0.01
MS.436         	6.285          	-0.01
MS.437         	6.273          	-0.012
MS.438         	6.26           	-0.01
MS.439         	6.247          	-0.01
MS.440         	6.235          	-0.007
MS.441         	6.222          	-0.009
MS.442         	6.21           	-0.01
MS.443         	6.197          	-0.009
MS.444         	6.185          	-0.007
MS.445         	6.172          	-0.012
MS.446         	6.16           	-0.009
MS.447         	6.148          	-0.009
MS.448         	6.135          	0.002
MS.449         	6.122          	-0.008
MS.450         	6.11           	-0.009
MS.451         	6.097          	-0.009
MS.452         	6.088          	-0.009
MS.453         	6.075          	-0.01
MS.454         	6.062          	-0.003
MS.455         	6.05           	-0.009
MS.456         	6.037          	-0.007
MS.457         	6.025          	-0.01
MS.458         	6.012          	-0.008
MS.459         	6.003          	-0.01
MS.460         	5.99           	-0.01
MS.461         	5.977          	-0.009
MS.462         	5.965          	-0.009
MS.463         	5.955          	-0.007
MS.464         	5.942          	-0.01
MS.465         	5.93           	-0.002
MS.466         	5.918          	-0.008
MS.467         	5.907          	-0.01
MS.468         	5.895          	-0.011
MS.469         	5.882          	-0.011
MS.470         	5.87           	-0.011
MS.471         	5.86           	-0.006
MS.472         	5.847          	-0.01
MS.473         	5.835          	-0.009
MS.474         	5.825          	-0.01
MS.475         	5.812          	-0.007
MS.476         	5.8            	-0.01
MS.477         	5.79           	-0.007
MS.478         	5.777          	-0.009
MS.479         	5.767          	-0.009
MS.480         	5.755          	-0.009
MS.481         	5.742          	-0.01
MS.482         	5.733          	-0.009
MS.483         	5.72           	-0.009
MS.484         	5.71           	-0.008
MS.485         	5.697          	-0.007
MS.486         	5.685          	-0.008
MS.487         	5.675          	-0.009
MS.488         	5.662          	-0.009
MS.489         	5.652          	-0.007
MS.490         	5.64           	-0.009
MS.491         	5.63           	-0.011
MS.492         	5.617          	-0.009
MS.493         	5.608          	-0.008
MS.494         	5.595          	-0.007
MS.495         	5.585          	-0.008
MS.496         	5.572          	-0.005
MS.497         	5.562          	-0.007
MS.498         	5.552          	-0.009
MS.499         	5.54           	-0.006
MS.500         	5.53           	-0.006
MS.501         	5.517          	-0.009
MS.502         	5.507          	-0.007
MS.503         	5.495          	-0.008
MS.504         	5.485          	-0.006
MS.505         	5.475          	-0.007
MS.506         	5.463          	-0.009
MS.507         	5.452          	-0.004
MS.508         	5.443          	-0.009
MS.509         	5.43           	-0.009
MS.510         	5.42           	-0.006
DERIVED EXCITABILITY VARIABLES
Program = QTracP 05/05/2023
Threshold method = 6 (optimised for CAP, using data for present condition only)
SR method = 1 (using actual data values)
6.                 	0.000               	Peak response\(mV)
9.                 	31.4                	Temperature ( C)
17.                	27                  	Age (years)
18.                	1                   	Sex (M=1, F=2)

EXTRA VARIABLES

MScPeak(mV) = 1.81
MScS5(mA) = 7.05
MScS50(mA) = 8.65
MScS95(mA) = 10.72
MScNSteps = 3
MScSteps(%) = 7.6
MScStepMax(%) = 3
MScD50 = 42
MScSlope = 5.28
MScDuration(min) = 7.4
MSFTraces = 500
MSFPeakAmp(mV) = 1.82
MSFNUnits = 117
MSFMeanUnitAmp(uV) = 15.5
MSFHuntTime(m) = 1.26
MSFError(%) = 0.941
MSFNLarge = 35.09
MSFMedianAmp(%) = 0.692
MSFMedianAmp(mV) = 0.0126
MSFHalfAmpAmp(%) = 0.912
MSFHalfAmpAmp(mV) = 0.0166
MSFLargestAmp(%) = 2.94
MSFLargestAmp(mV) = 0.0535
MSFMeanRS(%) = 2
MSFSizeLimit(uV) = 6.1
MSFLimitType = 1
MSFSmallestAmp(uV) = 6.18
MSFOpts = 10104222032
MSFSDMax = 4.17
MSFSDMin = 1.59

EXTRA WAVEFORMS


!MScan Model
!117
	1	6.76	0.78	2
	2	6.79	0.43	2
	3	6.86	0.67	2
	4	6.94	1.08	2
	5	7	1.17	2
	6	7.04	0.68	2
	7	7.07	1.03	2
	8	7.12	0.76	2
	9	7.18	1.82	2
	10	7.33	2.08	2
	11	7.37	0.68	2
	12	7.41	0.54	2
	13	7.44	0.69	2
	14	7.46	0.5	2
	15	7.49	0.69	2
	16	7.51	0.48	2
	17	7.53	0.73	2
	18	7.55	0.65	2
	19	7.57	0.63	2
	20	7.6	0.6	2
	21	7.61	0.41	2
	22	7.62	0.44	2
	23	7.63	0.68	2
	24	7.64	0.37	2
	25	7.65	0.45	2
	26	7.67	0.5	2
	27	7.69	0.64	2
	28	7.7	0.53	2
	29	7.71	0.56	2
	30	7.72	0.55	2
	31	7.72	0.54	2
	32	7.74	0.68	2
	33	7.75	0.7	2
	34	7.77	0.43	2
	35	7.77	0.4	2
	36	7.78	0.57	2
	37	7.81	0.63	2
	38	7.83	0.69	2
	39	7.87	0.59	2
	40	7.89	0.72	2
	41	7.92	1.08	2
	42	7.96	0.65	2
	43	7.99	0.67	2
	44	8.03	0.69	2
	45	8.05	0.42	2
	46	8.08	0.49	2
	47	8.1	0.53	2
	48	8.13	0.56	2
	49	8.16	0.67	2
	50	8.19	0.76	2
	51	8.22	0.74	2
	52	8.24	0.7	2
	53	8.27	0.84	2
	54	8.29	0.75	2
	55	8.31	0.66	2
	56	8.33	0.59	2
	57	8.35	0.81	2
	58	8.37	0.95	2
	59	8.41	1.38	2
	60	8.44	1.22	2
	61	8.47	0.95	2
	62	8.49	0.85	2
	63	8.51	1.04	2
	64	8.53	0.84	2
	65	8.59	2.04	2
	66	8.65	1.8	2
	67	8.7	1.48	2
	68	8.74	1.3	2
	69	8.76	1.96	2
	70	8.78	2	2
	71	8.81	0.91	2
	72	8.82	0.43	2
	73	8.84	0.65	2
	74	8.85	0.76	2
	75	8.87	0.71	2
	76	8.88	0.61	2
	77	8.9	0.96	2
	78	8.92	0.89	2
	79	8.93	0.48	2
	80	8.95	0.92	2
	81	8.97	0.92	2
	82	9	1.93	2
	83	9.05	2.1	2
	84	9.25	2.94	2
	85	9.3	0.6	2
	86	9.35	1.28	2
	87	9.4	1.07	2
	88	9.54	2.67	2
	89	9.63	1.37	2
	90	9.66	0.48	2
	91	9.69	0.82	2
	92	9.72	0.71	2
	93	9.73	0.34	2
	94	9.75	0.36	2
	95	9.76	0.36	2
	96	9.78	0.67	2
	97	9.8	0.43	2
	98	9.81	0.43	2
	99	9.82	0.47	2
	100	9.83	0.73	2
	101	9.84	0.54	2
	102	9.86	0.66	2
	103	9.89	0.61	2
	104	9.9	0.49	2
	105	9.97	0.99	2
	106	10.01	0.58	2
	107	10.11	1.59	2
	108	10.18	0.57	2
	109	10.26	0.78	2
	110	10.34	1.02	2
	111	10.5	1.38	2
	112	10.75	1.23	2
	113	10.91	1.07	2
	114	11.13	0.95	2
	115	11.26	0.39	2
	116	11.72	0.86	2
	117	12.78	1.14	2

