File:              	C:\Qtrac\Data\ME2C30629C.QZD
Name:              	 JA20R
Protocol:          	MSCAN-MV
Date:              	29/6/23
Date of birth:     	20/10/00
Age:               	22
Sex:               	F
Temperature:       	33.0
S/R sites:         	Knee CF-TA
NC/disease:        	NC
Operator:          	BY
Comments:
M-SCAN DATA (Repeat 4/4, 33.2-24.8m)
Scanpts: 25, 39, 650, 675
Stim. (mA)     	Amp. (mV)
MS.1           	21             	5.029
MS.2           	21             	5.026
MS.3           	21             	5.019
MS.4           	21             	5.044
MS.5           	21             	5.024
MS.6           	21             	5.018
MS.7           	21             	5.01
MS.8           	21             	5.024
MS.9           	21             	5.017
MS.10          	21             	5.031
MS.11          	21             	4.976
MS.12          	21             	4.977
MS.13          	21             	4.998
MS.14          	21             	4.998
MS.15          	21             	4.984
MS.16          	21             	5.01
MS.17          	21             	5.005
MS.18          	21             	5.031
MS.19          	21             	5.011
MS.20          	21             	4.988
MS.21          	21             	5.007
MS.22          	21             	5.006
MS.23          	21             	5.007
MS.24          	20.958         	4.977
MS.25          	20.915         	4.989
MS.26          	20.875         	4.963
MS.27          	20.833         	4.998
MS.28          	20.79          	4.988
MS.29          	20.75          	4.977
MS.30          	20.708         	4.989
MS.31          	20.667         	4.98
MS.32          	20.625         	5.005
MS.33          	20.585         	4.981
MS.34          	20.542         	4.964
MS.35          	20.502         	4.981
MS.36          	20.46          	4.972
MS.37          	20.42          	4.964
MS.38          	20.38          	4.948
MS.39          	20.337         	4.961
MS.40          	20.297         	4.993
MS.41          	20.257         	4.943
MS.42          	20.217         	4.958
MS.43          	20.177         	4.958
MS.44          	20.137         	4.969
MS.45          	20.095         	4.97
MS.46          	20.055         	4.933
MS.47          	20.015         	4.962
MS.48          	19.975         	4.968
MS.49          	19.935         	4.968
MS.50          	19.895         	4.938
MS.51          	19.858         	4.927
MS.52          	19.817         	4.91
MS.53          	19.778         	4.919
MS.54          	19.737         	4.958
MS.55          	19.698         	4.953
MS.56          	19.66          	4.887
MS.57          	19.62          	4.904
MS.58          	19.58          	4.958
MS.59          	19.54          	4.898
MS.60          	19.502         	4.902
MS.61          	19.462         	4.888
MS.62          	19.425         	4.877
MS.63          	19.385         	4.883
MS.64          	19.347         	4.854
MS.65          	19.307         	4.875
MS.66          	19.27          	4.897
MS.67          	19.23          	4.951
MS.68          	19.192         	4.918
MS.69          	19.155         	4.915
MS.70          	19.115         	4.854
MS.71          	19.077         	4.911
MS.72          	19.04          	4.89
MS.73          	19.002         	4.917
MS.74          	18.962         	4.883
MS.75          	18.925         	4.857
MS.76          	18.887         	4.88
MS.77          	18.85          	4.875
MS.78          	18.812         	4.884
MS.79          	18.775         	4.873
MS.80          	18.737         	4.857
MS.81          	18.7           	4.871
MS.82          	18.663         	4.871
MS.83          	18.625         	4.86
MS.84          	18.587         	4.86
MS.85          	18.55          	4.879
MS.86          	18.515         	4.866
MS.87          	18.477         	4.838
MS.88          	18.44          	4.843
MS.89          	18.403         	4.86
MS.90          	18.368         	4.852
MS.91          	18.33          	4.788
MS.92          	18.292         	4.824
MS.93          	18.257         	4.83
MS.94          	18.22          	4.828
MS.95          	18.182         	4.826
MS.96          	18.147         	4.852
MS.97          	18.11          	4.825
MS.98          	18.075         	4.838
MS.99          	18.04          	4.823
MS.100         	18.003         	4.823
MS.101         	17.967         	4.836
MS.102         	17.93          	4.808
MS.103         	17.895         	4.787
MS.104         	17.86          	4.78
MS.105         	17.823         	4.79
MS.106         	17.788         	4.766
MS.107         	17.753         	4.791
MS.108         	17.717         	4.769
MS.109         	17.682         	4.713
MS.110         	17.645         	4.765
MS.111         	17.61          	4.742
MS.112         	17.575         	4.703
MS.113         	17.54          	4.757
MS.114         	17.505         	4.747
MS.115         	17.47          	4.7
MS.116         	17.435         	4.73
MS.117         	17.4           	4.708
MS.118         	17.365         	4.712
MS.119         	17.333         	4.675
MS.120         	17.297         	4.689
MS.121         	17.262         	4.651
MS.122         	17.227         	4.684
MS.123         	17.192         	4.65
MS.124         	17.16          	4.661
MS.125         	17.125         	4.637
MS.126         	17.09          	4.665
MS.127         	17.057         	4.62
MS.128         	17.022         	4.643
MS.129         	16.987         	4.58
MS.130         	16.955         	4.561
MS.131         	16.92          	4.534
MS.132         	16.887         	4.53
MS.133         	16.852         	4.532
MS.134         	16.82          	4.473
MS.135         	16.785         	4.494
MS.136         	16.753         	4.543
MS.137         	16.717         	4.471
MS.138         	16.685         	4.514
MS.139         	16.653         	4.515
MS.140         	16.618         	4.462
MS.141         	16.585         	4.487
MS.142         	16.552         	4.43
MS.143         	16.52          	4.47
MS.144         	16.485         	4.455
MS.145         	16.452         	4.426
MS.146         	16.42          	4.426
MS.147         	16.387         	4.448
MS.148         	16.355         	4.404
MS.149         	16.323         	4.43
MS.150         	16.29          	4.399
MS.151         	16.257         	4.384
MS.152         	16.225         	4.393
MS.153         	16.192         	4.393
MS.154         	16.16          	4.38
MS.155         	16.128         	4.367
MS.156         	16.095         	4.39
MS.157         	16.062         	4.358
MS.158         	16.03          	4.304
MS.159         	16             	4.316
MS.160         	15.967         	4.291
MS.161         	15.935         	4.327
MS.162         	15.902         	4.377
MS.163         	15.872         	4.255
MS.164         	15.84          	4.319
MS.165         	15.807         	4.3
MS.166         	15.777         	4.277
MS.167         	15.745         	4.252
MS.168         	15.712         	4.265
MS.169         	15.682         	4.218
MS.170         	15.65          	4.235
MS.171         	15.62          	4.213
MS.172         	15.587         	4.2
MS.173         	15.557         	4.175
MS.174         	15.525         	4.197
MS.175         	15.495         	4.175
MS.176         	15.465         	4.133
MS.177         	15.432         	4.092
MS.178         	15.402         	4.077
MS.179         	15.372         	4.143
MS.180         	15.34          	4.017
MS.181         	15.31          	4.101
MS.182         	15.28          	4.09
MS.183         	15.25          	3.991
MS.184         	15.217         	4.055
MS.185         	15.188         	4.058
MS.186         	15.157         	3.917
MS.187         	15.127         	3.979
MS.188         	15.097         	3.92
MS.189         	15.068         	3.725
MS.190         	15.037         	3.453
MS.191         	15.007         	3.383
MS.192         	14.977         	3.761
MS.193         	14.947         	3.99
MS.194         	14.917         	4.001
MS.195         	14.887         	3.815
MS.196         	14.858         	3.864
MS.197         	14.827         	3.79
MS.198         	14.797         	3.777
MS.199         	14.77          	3.752
MS.200         	14.74          	3.777
MS.201         	14.71          	3.788
MS.202         	14.68          	3.696
MS.203         	14.65          	3.68
MS.204         	14.622         	3.683
MS.205         	14.592         	3.723
MS.206         	14.562         	3.644
MS.207         	14.535         	3.635
MS.208         	14.505         	3.546
MS.209         	14.477         	3.507
MS.210         	14.447         	3.557
MS.211         	14.417         	3.585
MS.212         	14.39          	3.414
MS.213         	14.36          	3.434
MS.214         	14.332         	3.438
MS.215         	14.305         	3.459
MS.216         	14.275         	3.399
MS.217         	14.247         	3.323
MS.218         	14.217         	3.439
MS.219         	14.19          	3.445
MS.220         	14.162         	3.401
MS.221         	14.132         	3.39
MS.222         	14.105         	3.314
MS.223         	14.077         	3.354
MS.224         	14.047         	3.35
MS.225         	14.02          	3.338
MS.226         	13.992         	3.411
MS.227         	13.965         	3.354
MS.228         	13.938         	3.346
MS.229         	13.91          	3.266
MS.230         	13.88          	3.144
MS.231         	13.852         	3.173
MS.232         	13.825         	3.19
MS.233         	13.797         	3.185
MS.234         	13.77          	3.205
MS.235         	13.742         	3.193
MS.236         	13.715         	3.196
MS.237         	13.688         	3.105
MS.238         	13.66          	3.163
MS.239         	13.632         	3.045
MS.240         	13.605         	3.125
MS.241         	13.58          	3.155
MS.242         	13.552         	3.082
MS.243         	13.525         	3.069
MS.244         	13.497         	3.105
MS.245         	13.47          	2.935
MS.246         	13.445         	2.971
MS.247         	13.417         	2.936
MS.248         	13.39          	3.002
MS.249         	13.362         	2.922
MS.250         	13.337         	2.886
MS.251         	13.31          	2.877
MS.252         	13.282         	2.861
MS.253         	13.257         	2.802
MS.254         	13.23          	2.867
MS.255         	13.205         	2.753
MS.256         	13.177         	2.65
MS.257         	13.153         	2.686
MS.258         	13.125         	2.621
MS.259         	13.1           	2.58
MS.260         	13.072         	2.573
MS.261         	13.047         	2.534
MS.262         	13.02          	2.575
MS.263         	12.995         	2.409
MS.264         	12.967         	2.509
MS.265         	12.943         	2.347
MS.266         	12.917         	2.363
MS.267         	12.89          	2.453
MS.268         	12.865         	2.371
MS.269         	12.84          	2.313
MS.270         	12.815         	2.279
MS.271         	12.787         	2.232
MS.272         	12.762         	2.28
MS.273         	12.738         	2.16
MS.274         	12.712         	2.094
MS.275         	12.688         	2.19
MS.276         	12.66          	2.209
MS.277         	12.635         	2.054
MS.278         	12.61          	2.075
MS.279         	12.585         	2.128
MS.280         	12.56          	1.967
MS.281         	12.535         	2.028
MS.282         	12.51          	2.021
MS.283         	12.485         	1.982
MS.284         	12.46          	2.033
MS.285         	12.435         	1.939
MS.286         	12.41          	1.901
MS.287         	12.385         	1.919
MS.288         	12.36          	1.863
MS.289         	12.335         	1.949
MS.290         	12.312         	1.83
MS.291         	12.287         	1.918
MS.292         	12.262         	1.895
MS.293         	12.238         	1.865
MS.294         	12.212         	1.872
MS.295         	12.19          	1.86
MS.296         	12.165         	1.806
MS.297         	12.14          	1.658
MS.298         	12.115         	1.79
MS.299         	12.092         	1.723
MS.300         	12.068         	1.669
MS.301         	12.042         	1.664
MS.302         	12.02          	1.685
MS.303         	11.995         	1.653
MS.304         	11.972         	1.675
MS.305         	11.947         	1.628
MS.306         	11.922         	1.664
MS.307         	11.9           	1.643
MS.308         	11.875         	1.591
MS.309         	11.852         	1.602
MS.310         	11.827         	1.584
MS.311         	11.805         	1.575
MS.312         	11.782         	1.544
MS.313         	11.757         	1.535
MS.314         	11.735         	1.449
MS.315         	11.71          	1.569
MS.316         	11.688         	1.5
MS.317         	11.665         	1.556
MS.318         	11.64          	1.48
MS.319         	11.617         	1.484
MS.320         	11.595         	1.415
MS.321         	11.57          	1.409
MS.322         	11.547         	1.506
MS.323         	11.525         	1.439
MS.324         	11.502         	1.331
MS.325         	11.48          	1.424
MS.326         	11.455         	1.422
MS.327         	11.432         	1.354
MS.328         	11.41          	1.389
MS.329         	11.387         	1.335
MS.330         	11.365         	1.315
MS.331         	11.342         	1.307
MS.332         	11.32          	1.288
MS.333         	11.297         	1.276
MS.334         	11.275         	1.31
MS.335         	11.252         	1.259
MS.336         	11.23          	1.271
MS.337         	11.207         	1.311
MS.338         	11.185         	1.246
MS.339         	11.162         	1.234
MS.340         	11.14          	1.228
MS.341         	11.117         	1.194
MS.342         	11.095         	1.196
MS.343         	11.073         	1.198
MS.344         	11.05          	1.156
MS.345         	11.03          	1.189
MS.346         	11.007         	1.144
MS.347         	10.985         	1.124
MS.348         	10.962         	1.168
MS.349         	10.94          	1.105
MS.350         	10.92          	1.151
MS.351         	10.898         	1.075
MS.352         	10.875         	1.099
MS.353         	10.855         	1.103
MS.354         	10.832         	1.091
MS.355         	10.81          	1.141
MS.356         	10.79          	1.061
MS.357         	10.767         	1.072
MS.358         	10.745         	1.06
MS.359         	10.725         	1.036
MS.360         	10.702         	0.972
MS.361         	10.682         	1.006
MS.362         	10.66          	0.991
MS.363         	10.64          	0.923
MS.364         	10.617         	0.971
MS.365         	10.597         	0.946
MS.366         	10.575         	0.898
MS.367         	10.555         	0.928
MS.368         	10.532         	0.943
MS.369         	10.512         	0.913
MS.370         	10.49          	0.948
MS.371         	10.47          	0.931
MS.372         	10.45          	0.859
MS.373         	10.427         	0.897
MS.374         	10.407         	0.904
MS.375         	10.387         	0.831
MS.376         	10.365         	0.908
MS.377         	10.345         	0.807
MS.378         	10.325         	0.826
MS.379         	10.305         	0.824
MS.380         	10.282         	0.787
MS.381         	10.262         	0.781
MS.382         	10.242         	0.799
MS.383         	10.222         	0.73
MS.384         	10.202         	0.786
MS.385         	10.18          	0.768
MS.386         	10.16          	0.72
MS.387         	10.14          	0.765
MS.388         	10.12          	0.75
MS.389         	10.1           	0.685
MS.390         	10.08          	0.681
MS.391         	10.06          	0.688
MS.392         	10.04          	0.696
MS.393         	10.02          	0.657
MS.394         	10             	0.638
MS.395         	9.98           	0.627
MS.396         	9.96           	0.621
MS.397         	9.94           	0.592
MS.398         	9.92           	0.604
MS.399         	9.9            	0.63
MS.400         	9.88           	0.639
MS.401         	9.86           	0.536
MS.402         	9.84           	0.568
MS.403         	9.82           	0.591
MS.404         	9.802          	0.533
MS.405         	9.782          	0.563
MS.406         	9.762          	0.541
MS.407         	9.742          	0.594
MS.408         	9.722          	0.583
MS.409         	9.705          	0.549
MS.410         	9.685          	0.544
MS.411         	9.665          	0.491
MS.412         	9.645          	0.525
MS.413         	9.627          	0.501
MS.414         	9.608          	0.465
MS.415         	9.587          	0.485
MS.416         	9.57           	0.468
MS.417         	9.55           	0.508
MS.418         	9.53           	0.458
MS.419         	9.512          	0.449
MS.420         	9.492          	0.428
MS.421         	9.472          	0.424
MS.422         	9.455          	0.399
MS.423         	9.435          	0.408
MS.424         	9.417          	0.408
MS.425         	9.398          	0.39
MS.426         	9.38           	0.389
MS.427         	9.36           	0.404
MS.428         	9.342          	0.399
MS.429         	9.323          	0.388
MS.430         	9.305          	0.361
MS.431         	9.285          	0.361
MS.432         	9.267          	0.37
MS.433         	9.25           	0.375
MS.434         	9.23           	0.352
MS.435         	9.212          	0.314
MS.436         	9.193          	0.355
MS.437         	9.175          	0.312
MS.438         	9.158          	0.349
MS.439         	9.137          	0.283
MS.440         	9.12           	0.272
MS.441         	9.102          	0.317
MS.442         	9.085          	0.298
MS.443         	9.065          	0.344
MS.444         	9.047          	0.323
MS.445         	9.03           	0.282
MS.446         	9.012          	0.264
MS.447         	8.992          	0.29
MS.448         	8.975          	0.35
MS.449         	8.957          	0.306
MS.450         	8.94           	0.278
MS.451         	8.922          	0.309
MS.452         	8.905          	0.279
MS.453         	8.887          	0.319
MS.454         	8.867          	0.27
MS.455         	8.85           	0.273
MS.456         	8.832          	0.244
MS.457         	8.815          	0.236
MS.458         	8.797          	0.203
MS.459         	8.78           	0.206
MS.460         	8.762          	0.175
MS.461         	8.745          	0.229
MS.462         	8.727          	0.189
MS.463         	8.71           	0.219
MS.464         	8.693          	0.192
MS.465         	8.675          	0.193
MS.466         	8.658          	0.195
MS.467         	8.64           	0.157
MS.468         	8.625          	0.174
MS.469         	8.608          	0.19
MS.470         	8.59           	0.18
MS.471         	8.573          	0.179
MS.472         	8.555          	0.186
MS.473         	8.537          	0.173
MS.474         	8.52           	0.195
MS.475         	8.505          	0.182
MS.476         	8.488          	0.184
MS.477         	8.47           	0.175
MS.478         	8.452          	0.166
MS.479         	8.435          	0.173
MS.480         	8.42           	0.184
MS.481         	8.403          	0.172
MS.482         	8.385          	0.184
MS.483         	8.37           	0.176
MS.484         	8.352          	0.174
MS.485         	8.335          	0.179
MS.486         	8.32           	0.166
MS.487         	8.302          	0.188
MS.488         	8.285          	0.168
MS.489         	8.27           	0.157
MS.490         	8.252          	0.166
MS.491         	8.235          	0.172
MS.492         	8.22           	0.143
MS.493         	8.202          	0.178
MS.494         	8.188          	0.17
MS.495         	8.17           	0.166
MS.496         	8.155          	0.178
MS.497         	8.137          	0.158
MS.498         	8.122          	0.165
MS.499         	8.105          	0.159
MS.500         	8.09           	0.153
MS.501         	8.073          	0.159
MS.502         	8.057          	0.152
MS.503         	8.04           	0.153
MS.504         	8.025          	0.162
MS.505         	8.007          	0.146
MS.506         	7.992          	0.143
MS.507         	7.977          	0.155
MS.508         	7.96           	0.128
MS.509         	7.945          	0.138
MS.510         	7.93           	0.148
MS.511         	7.912          	0.129
MS.512         	7.898          	0.152
MS.513         	7.882          	0.131
MS.514         	7.865          	0.125
MS.515         	7.85           	0.127
MS.516         	7.835          	0.143
MS.517         	7.817          	0.133
MS.518         	7.802          	0.121
MS.519         	7.787          	0.125
MS.520         	7.773          	0.14
MS.521         	7.757          	0.121
MS.522         	7.74           	0.136
MS.523         	7.725          	0.134
MS.524         	7.71           	0.118
MS.525         	7.695          	0.139
MS.526         	7.68           	0.115
MS.527         	7.665          	0.117
MS.528         	7.648          	0.12
MS.529         	7.632          	0.087
MS.530         	7.617          	0.089
MS.531         	7.602          	0.114
MS.532         	7.587          	0.117
MS.533         	7.572          	0.107
MS.534         	7.557          	0.116
MS.535         	7.543          	0.116
MS.536         	7.527          	0.117
MS.537         	7.512          	0.121
MS.538         	7.497          	0.12
MS.539         	7.482          	0.103
MS.540         	7.467          	0.096
MS.541         	7.452          	0.114
MS.542         	7.438          	0.115
MS.543         	7.422          	0.089
MS.544         	7.407          	0.092
MS.545         	7.392          	0.113
MS.546         	7.378          	0.112
MS.547         	7.362          	0.09
MS.548         	7.347          	0.091
MS.549         	7.335          	0.099
MS.550         	7.32           	0.093
MS.551         	7.305          	0.095
MS.552         	7.29           	0.09
MS.553         	7.275          	0.113
MS.554         	7.26           	0.084
MS.555         	7.247          	0.095
MS.556         	7.233          	0.094
MS.557         	7.217          	0.094
MS.558         	7.202          	0.091
MS.559         	7.19           	0.108
MS.560         	7.175          	0.097
MS.561         	7.16           	0.095
MS.562         	7.145          	0.094
MS.563         	7.132          	0.107
MS.564         	7.117          	0.092
MS.565         	7.102          	0.087
MS.566         	7.09           	0.101
MS.567         	7.075          	0.089
MS.568         	7.06           	0.089
MS.569         	7.047          	0.092
MS.570         	7.032          	0.093
MS.571         	7.017          	0.093
MS.572         	7.005          	0.092
MS.573         	6.99           	0.091
MS.574         	6.977          	0.089
MS.575         	6.962          	0.087
MS.576         	6.947          	0.088
MS.577         	6.935          	0.085
MS.578         	6.92           	0.087
MS.579         	6.907          	0.089
MS.580         	6.892          	0.083
MS.581         	6.88           	0.076
MS.582         	6.865          	0.09
MS.583         	6.852          	0.089
MS.584         	6.837          	0.088
MS.585         	6.825          	0.073
MS.586         	6.81           	0.086
MS.587         	6.797          	0.093
MS.588         	6.782          	0.085
MS.589         	6.77           	0.077
MS.590         	6.757          	0.089
MS.591         	6.742          	0.083
MS.592         	6.73           	0.074
MS.593         	6.715          	0.084
MS.594         	6.702          	0.076
MS.595         	6.69           	0.083
MS.596         	6.675          	0.073
MS.597         	6.662          	0.069
MS.598         	6.65           	0.082
MS.599         	6.635          	0.081
MS.600         	6.622          	0.065
MS.601         	6.61           	0.076
MS.602         	6.597          	0.068
MS.603         	6.582          	0.067
MS.604         	6.57           	0.068
MS.605         	6.557          	0.065
MS.606         	6.545          	0.068
MS.607         	6.53           	0.062
MS.608         	6.517          	0.068
MS.609         	6.505          	0.068
MS.610         	6.492          	0.067
MS.611         	6.477          	0.065
MS.612         	6.465          	0.066
MS.613         	6.452          	0.063
MS.614         	6.44           	0.07
MS.615         	6.427          	0.063
MS.616         	6.415          	0.063
MS.617         	6.402          	0.064
MS.618         	6.387          	0.065
MS.619         	6.375          	0.067
MS.620         	6.362          	0.061
MS.621         	6.35           	0.058
MS.622         	6.338          	0.059
MS.623         	6.325          	0.056
MS.624         	6.312          	0.06
MS.625         	6.3            	0.059
MS.626         	6.287          	0.056
MS.627         	6.275          	0.057
MS.628         	6.262          	0.058
MS.629         	6.25           	0.056
MS.630         	6.237          	0.056
MS.631         	6.225          	0.059
MS.632         	6.213          	0.054
MS.633         	6.2            	0.057
MS.634         	6.188          	0.056
MS.635         	6.175          	0.055
MS.636         	6.162          	0.054
MS.637         	6.15           	0.052
MS.638         	6.137          	0.055
MS.639         	6.125          	0.061
MS.640         	6.112          	0.054
MS.641         	6.102          	0.056
MS.642         	6.09           	0.054
MS.643         	6.077          	0.052
MS.644         	6.065          	0.052
MS.645         	6.052          	0.052
MS.646         	6.04           	0.055
MS.647         	6.027          	0.055
MS.648         	6.017          	0.052
MS.649         	6.005          	0.052
MS.650         	5.992          	0.052
MS.651         	5.98           	0.054
MS.652         	5.967          	0.052
MS.653         	5.957          	0.052
MS.654         	5.945          	0.051
MS.655         	5.932          	0.052
MS.656         	5.92           	0.052
MS.657         	5.91           	0.049
MS.658         	5.898          	0.051
MS.659         	5.885          	0.052
MS.660         	5.875          	0.051
MS.661         	5.862          	0.053
MS.662         	5.85           	0.053
MS.663         	5.84           	0.049
MS.664         	5.827          	0.052
MS.665         	5.815          	0.051
MS.666         	5.805          	0.051
MS.667         	5.793          	0.051
MS.668         	5.78           	0.048
MS.669         	5.77           	0.05
MS.670         	5.757          	0.052
MS.671         	5.745          	0.051
MS.672         	5.735          	0.051
MS.673         	5.722          	0.049
MS.674         	5.713          	0.051
MS.675         	5.7            	0.051
DERIVED EXCITABILITY VARIABLES
Program = QTracP 27/06/2023
Threshold method = 6 (optimised for CAP, using data for present condition only)
SR method = 1 (using actual data values)
6.                 	0.000               	Peak response\(mV)
9.                 	33                  	Temperature ( C)
17.                	22                  	Age (years)
18.                	2                   	Sex (M=1, F=2)

EXTRA VARIABLES

MScPeak(mV) = 4.96
MScS5(mA) = 8.83
MScS50(mA) = 12.98
MScS95(mA) = 17.46
MScNSteps = 0
MScSteps(%) = 0.0
MScStepMax(%) = 0.0
MScD50 = 75
MScSlope = 3.6
MScDuration(min) = 9
MSFTraces = 651
MSFPeakAmp(mV) = 4.93
MSFNUnits = 165
MSFMeanUnitAmp(uV) = 29.9
MSFHuntTime(m) = 2.09
MSFError(%) = 0.991
MSFNLarge = 56.62
MSFMedianAmp(%) = 0.532
MSFMedianAmp(mV) = 0.0262
MSFHalfAmpAmp(%) = 0.594
MSFHalfAmpAmp(mV) = 0.0292
MSFLargestAmp(%) = 3.2
MSFLargestAmp(mV) = 0.157
MSFMeanRS(%) = 2
MSFSizeLimit(uV) = 16.4
MSFLimitType = 1
MSFSmallestAmp(uV) = 16.5
MSFOpts = 10104222032
MSFSDMax = 15.5
MSFSDMin = 1.36

EXTRA WAVEFORMS


!MScan Model
!165
	1	6.65	0.48	2
	2	7.37	0.54	2
	3	7.41	0.44	2
	4	8.1	0.72	2
	5	8.59	0.55	2
	6	8.74	0.65	2
	7	8.81	0.46	2
	8	8.92	0.67	2
	9	9.15	1.11	2
	10	9.22	0.39	2
	11	9.31	0.48	2
	12	9.36	0.4	2
	13	9.4	0.4	2
	14	9.49	0.68	2
	15	9.54	0.39	2
	16	9.59	0.48	2
	17	9.65	0.52	2
	18	9.71	0.48	2
	19	9.78	0.54	2
	20	9.85	0.62	2
	21	9.95	0.77	2
	22	10	0.69	2
	23	10.08	0.66	2
	24	10.13	0.55	2
	25	10.18	0.6	2
	26	10.22	0.37	2
	27	10.25	0.4	2
	28	10.28	0.38	2
	29	10.33	0.49	2
	30	10.37	0.36	2
	31	10.43	0.61	2
	32	10.5	0.56	2
	33	10.54	0.44	2
	34	10.58	0.59	2
	35	10.62	0.4	2
	36	10.69	0.68	2
	37	10.73	0.39	2
	38	10.8	0.65	2
	39	10.84	0.45	2
	40	10.89	0.48	2
	41	10.93	0.38	2
	42	10.97	0.42	2
	43	11.01	0.61	2
	44	11.1	0.72	2
	45	11.17	0.53	2
	46	11.21	0.47	2
	47	11.26	0.48	2
	48	11.31	0.53	2
	49	11.36	0.5	2
	50	11.4	0.38	2
	51	11.44	0.41	2
	52	11.48	0.47	2
	53	11.53	0.65	2
	54	11.59	0.58	2
	55	11.65	0.57	2
	56	11.7	0.59	2
	57	11.75	0.52	2
	58	11.79	0.45	2
	59	11.84	0.48	2
	60	11.89	0.56	2
	61	11.94	0.63	2
	62	11.99	0.49	2
	63	12.03	0.6	2
	64	12.07	0.58	2
	65	12.12	0.62	2
	66	12.17	0.47	2
	67	12.22	0.83	2
	68	12.29	0.91	2
	69	12.35	0.79	2
	70	12.4	1.07	2
	71	12.45	0.63	2
	72	12.52	0.72	2
	73	12.56	0.55	2
	74	12.59	0.5	2
	75	12.61	0.52	2
	76	12.64	0.59	2
	77	12.67	0.57	2
	78	12.7	0.49	2
	79	12.73	0.45	2
	80	12.75	0.44	2
	81	12.77	0.51	2
	82	12.8	0.54	2
	83	12.82	0.48	2
	84	12.84	0.37	2
	85	12.86	0.35	2
	86	12.87	0.35	2
	87	12.89	0.34	2
	88	12.91	0.37	2
	89	12.92	0.38	2
	90	12.94	0.4	2
	91	12.97	0.66	2
	92	12.98	0.37	2
	93	13	0.37	2
	94	13.01	0.39	2
	95	13.03	0.39	2
	96	13.03	0.89	2
	97	13.04	0.38	2
	98	13.06	0.36	2
	99	13.07	0.36	2
	100	13.09	0.38	2
	101	13.1	0.37	2
	102	13.12	0.35	2
	103	13.15	0.63	2
	104	13.18	0.61	2
	105	13.2	0.41	2
	106	13.21	0.4	2
	107	13.23	0.4	2
	108	13.25	0.45	2
	109	13.27	0.44	2
	110	13.28	0.42	2
	111	13.3	0.39	2
	112	13.32	0.39	2
	113	13.34	0.4	2
	114	13.38	0.81	2
	115	13.41	0.76	2
	116	13.45	0.53	2
	117	13.5	0.75	2
	118	13.65	0.88	2
	119	13.73	1.28	2
	120	13.79	0.69	2
	121	13.85	0.54	2
	122	13.93	0.92	2
	123	14.04	0.92	2
	124	14.17	1.4	2
	125	14.23	0.57	2
	126	14.3	0.74	2
	127	14.34	0.57	2
	128	14.39	0.49	2
	129	14.44	0.66	2
	130	14.48	0.61	2
	131	14.53	0.84	1.77
	132	14.75	2.25	2
	133	14.83	2.92	2
	134	14.94	3.2	2
	135	15.46	2.32	2
	136	15.52	0.58	2
	137	15.59	0.72	2
	138	15.68	0.59	2
	139	15.74	0.5	2
	140	15.79	0.36	2
	141	15.86	0.43	2
	142	15.93	0.43	2
	143	16.01	0.45	2
	144	16.11	0.52	2
	145	16.25	0.59	2
	146	16.34	0.47	2
	147	16.44	0.55	2
	148	16.54	0.42	2
	149	16.7	0.72	2
	150	16.76	0.49	2
	151	16.82	0.33	2
	152	16.92	0.57	2
	153	17.01	0.6	2
	154	17.1	0.43	2
	155	17.16	0.36	2
	156	17.23	0.58	2
	157	17.36	0.68	2
	158	17.51	0.56	2
	159	17.66	0.65	2
	160	17.83	0.61	2
	161	18.06	0.59	2
	162	18.43	0.68	2
	163	18.86	0.68	2
	164	19.66	0.73	2
	165	20.22	0.96	2

