File:              	n:\Qtrac\Data\MScan\Normative Controls\CP Nerve\MSCC10727C.QZD
Name:              	MO28A
Protocol:          	MSCAN-R2
Date:              	27/7/21
Start time:        	14:28:26
Age:               	54
Sex:               	F
Temperature:       	34
S/R sites:         	Knee CP-TA
NC/disease:        	NC
Operator:          	BJ
Comments:
M-SCAN DATA (12.7-3.4m)
Scanpts: 6, 27, 576, 599
Stim. (mA)     	Amp. (mV)
MS.1           	19.5           	8.949
MS.2           	19.5           	8.881
MS.3           	19.5           	8.95
MS.4           	19.5           	8.942
MS.5           	19.5           	8.937
MS.6           	19.5           	8.981
MS.7           	19.5           	8.92
MS.8           	19.5           	8.918
MS.9           	19.5           	8.942
MS.10          	19.5           	8.956
MS.11          	19.5           	8.899
MS.12          	19.5           	8.939
MS.13          	19.5           	8.947
MS.14          	19.5           	8.975
MS.15          	19.5           	8.914
MS.16          	19.5           	8.942
MS.17          	19.5           	8.96
MS.18          	19.5           	8.943
MS.19          	19.5           	8.953
MS.20          	19.5           	8.973
MS.21          	19.5           	8.955
MS.22          	19.5           	8.961
MS.23          	19.5           	8.962
MS.24          	19.422         	8.967
MS.25          	19.382         	8.96
MS.26          	19.345         	8.932
MS.27          	19.305         	8.948
MS.28          	19.267         	8.998
MS.29          	19.23          	8.94
MS.30          	19.19          	8.898
MS.31          	19.153         	8.943
MS.32          	19.115         	8.933
MS.33          	19.075         	8.971
MS.34          	19.038         	8.936
MS.35          	19             	8.959
MS.36          	18.962         	8.962
MS.37          	18.922         	8.916
MS.38          	18.885         	8.983
MS.39          	18.847         	8.931
MS.40          	18.81          	8.939
MS.41          	18.772         	8.9
MS.42          	18.735         	8.934
MS.43          	18.698         	8.901
MS.44          	18.66          	8.892
MS.45          	18.622         	8.933
MS.46          	18.585         	8.899
MS.47          	18.55          	8.948
MS.48          	18.512         	8.964
MS.49          	18.475         	8.917
MS.50          	18.438         	8.933
MS.51          	18.4           	8.944
MS.52          	18.365         	8.92
MS.53          	18.327         	8.931
MS.54          	18.29          	8.936
MS.55          	18.255         	8.916
MS.56          	18.217         	8.949
MS.57          	18.182         	8.948
MS.58          	18.145         	8.879
MS.59          	18.11          	8.938
MS.60          	18.073         	8.928
MS.61          	18.038         	8.921
MS.62          	18             	8.905
MS.63          	17.965         	8.882
MS.64          	17.93          	8.954
MS.65          	17.892         	8.888
MS.66          	17.858         	8.953
MS.67          	17.823         	8.892
MS.68          	17.785         	8.79
MS.69          	17.75          	8.958
MS.70          	17.715         	8.85
MS.71          	17.68          	8.834
MS.72          	17.645         	8.877
MS.73          	17.61          	8.85
MS.74          	17.575         	8.854
MS.75          	17.538         	8.818
MS.76          	17.503         	8.881
MS.77          	17.467         	8.912
MS.78          	17.435         	8.887
MS.79          	17.4           	8.828
MS.80          	17.365         	8.806
MS.81          	17.33          	8.823
MS.82          	17.295         	8.802
MS.83          	17.26          	8.835
MS.84          	17.225         	8.84
MS.85          	17.192         	8.82
MS.86          	17.157         	8.903
MS.87          	17.122         	8.802
MS.88          	17.087         	8.806
MS.89          	17.055         	8.801
MS.90          	17.02          	8.812
MS.91          	16.987         	8.815
MS.92          	16.952         	8.794
MS.93          	16.917         	8.781
MS.94          	16.885         	8.772
MS.95          	16.85          	8.809
MS.96          	16.817         	8.748
MS.97          	16.782         	8.805
MS.98          	16.75          	8.767
MS.99          	16.717         	8.812
MS.100         	16.682         	8.794
MS.101         	16.65          	8.824
MS.102         	16.618         	8.782
MS.103         	16.583         	8.815
MS.104         	16.55          	8.826
MS.105         	16.517         	8.777
MS.106         	16.485         	8.744
MS.107         	16.452         	8.771
MS.108         	16.417         	8.761
MS.109         	16.385         	8.774
MS.110         	16.352         	8.727
MS.111         	16.32          	8.765
MS.112         	16.288         	8.723
MS.113         	16.255         	8.802
MS.114         	16.222         	8.81
MS.115         	16.19          	8.778
MS.116         	16.157         	8.772
MS.117         	16.125         	8.761
MS.118         	16.092         	8.761
MS.119         	16.062         	8.706
MS.120         	16.03          	8.765
MS.121         	15.997         	8.739
MS.122         	15.965         	8.784
MS.123         	15.932         	8.749
MS.124         	15.902         	8.732
MS.125         	15.87          	8.749
MS.126         	15.837         	8.723
MS.127         	15.807         	8.693
MS.128         	15.775         	8.75
MS.129         	15.742         	8.71
MS.130         	15.712         	8.704
MS.131         	15.68          	8.749
MS.132         	15.65          	8.694
MS.133         	15.617         	8.754
MS.134         	15.587         	8.76
MS.135         	15.555         	8.717
MS.136         	15.525         	8.756
MS.137         	15.492         	8.723
MS.138         	15.462         	8.715
MS.139         	15.432         	8.702
MS.140         	15.4           	8.73
MS.141         	15.37          	8.7
MS.142         	15.34          	8.839
MS.143         	15.307         	8.64
MS.144         	15.277         	8.719
MS.145         	15.247         	8.716
MS.146         	15.217         	8.715
MS.147         	15.188         	8.75
MS.148         	15.155         	8.723
MS.149         	15.125         	8.74
MS.150         	15.095         	8.739
MS.151         	15.065         	8.684
MS.152         	15.035         	8.676
MS.153         	15.005         	8.715
MS.154         	14.975         	8.771
MS.155         	14.945         	8.687
MS.156         	14.915         	8.702
MS.157         	14.885         	8.711
MS.158         	14.855         	8.689
MS.159         	14.827         	8.691
MS.160         	14.797         	8.663
MS.161         	14.767         	8.757
MS.162         	14.737         	8.673
MS.163         	14.707         	8.669
MS.164         	14.68          	8.677
MS.165         	14.65          	8.638
MS.166         	14.62          	8.684
MS.167         	14.59          	8.723
MS.168         	14.562         	8.638
MS.169         	14.532         	8.65
MS.170         	14.505         	8.685
MS.171         	14.475         	8.666
MS.172         	14.445         	8.678
MS.173         	14.417         	8.663
MS.174         	14.387         	8.669
MS.175         	14.36          	8.7
MS.176         	14.33          	8.7
MS.177         	14.302         	8.66
MS.178         	14.273         	8.647
MS.179         	14.245         	8.658
MS.180         	14.217         	8.652
MS.181         	14.188         	8.639
MS.182         	14.16          	8.658
MS.183         	14.132         	8.523
MS.184         	14.102         	8.584
MS.185         	14.075         	8.583
MS.186         	14.047         	8.542
MS.187         	14.02          	8.492
MS.188         	13.99          	8.519
MS.189         	13.962         	8.455
MS.190         	13.935         	8.385
MS.191         	13.907         	8.564
MS.192         	13.88          	8.362
MS.193         	13.852         	8.533
MS.194         	13.825         	8.538
MS.195         	13.797         	8.463
MS.196         	13.77          	8.362
MS.197         	13.742         	8.429
MS.198         	13.715         	8.383
MS.199         	13.688         	8.273
MS.200         	13.66          	8.367
MS.201         	13.632         	8.412
MS.202         	13.605         	8.39
MS.203         	13.577         	8.214
MS.204         	13.55          	8.228
MS.205         	13.523         	8.409
MS.206         	13.495         	8.358
MS.207         	13.47          	8.207
MS.208         	13.443         	8.221
MS.209         	13.415         	8.207
MS.210         	13.387         	8.16
MS.211         	13.362         	8.223
MS.212         	13.335         	8.396
MS.213         	13.307         	8.276
MS.214         	13.282         	8.129
MS.215         	13.255         	8.228
MS.216         	13.23          	8.339
MS.217         	13.202         	8.306
MS.218         	13.175         	8.167
MS.219         	13.15          	8.278
MS.220         	13.122         	8.134
MS.221         	13.097         	8.234
MS.222         	13.07          	8.116
MS.223         	13.045         	8.121
MS.224         	13.02          	8.228
MS.225         	12.992         	8.09
MS.226         	12.967         	8.173
MS.227         	12.94          	8.082
MS.228         	12.915         	7.964
MS.229         	12.89          	7.993
MS.230         	12.862         	7.931
MS.231         	12.837         	7.957
MS.232         	12.812         	8.01
MS.233         	12.787         	7.899
MS.234         	12.76          	8.005
MS.235         	12.735         	7.828
MS.236         	12.71          	7.698
MS.237         	12.685         	7.7
MS.238         	12.66          	7.83
MS.239         	12.635         	7.742
MS.240         	12.61          	7.838
MS.241         	12.585         	7.837
MS.242         	12.557         	7.615
MS.243         	12.532         	7.675
MS.244         	12.507         	7.74
MS.245         	12.483         	7.712
MS.246         	12.457         	7.631
MS.247         	12.432         	7.61
MS.248         	12.41          	7.518
MS.249         	12.385         	7.552
MS.250         	12.36          	7.789
MS.251         	12.335         	7.372
MS.252         	12.31          	7.623
MS.253         	12.285         	7.441
MS.254         	12.26          	7.482
MS.255         	12.238         	7.372
MS.256         	12.212         	7.316
MS.257         	12.188         	7.395
MS.258         	12.162         	7.209
MS.259         	12.14          	7.194
MS.260         	12.115         	7.141
MS.261         	12.09          	7.108
MS.262         	12.065         	7.12
MS.263         	12.042         	7.194
MS.264         	12.017         	6.997
MS.265         	11.995         	7.047
MS.266         	11.97          	6.996
MS.267         	11.945         	6.912
MS.268         	11.922         	7.109
MS.269         	11.898         	6.918
MS.270         	11.875         	6.853
MS.271         	11.85          	6.799
MS.272         	11.827         	6.578
MS.273         	11.802         	6.65
MS.274         	11.78          	6.676
MS.275         	11.757         	6.648
MS.276         	11.733         	6.443
MS.277         	11.71          	6.488
MS.278         	11.685         	6.454
MS.279         	11.662         	6.445
MS.280         	11.64          	6.658
MS.281         	11.617         	6.277
MS.282         	11.592         	6.339
MS.283         	11.57          	6.311
MS.284         	11.547         	6.379
MS.285         	11.525         	6.401
MS.286         	11.5           	6.257
MS.287         	11.477         	6.309
MS.288         	11.455         	6.381
MS.289         	11.432         	6.132
MS.290         	11.41          	6.024
MS.291         	11.387         	6.072
MS.292         	11.363         	6.077
MS.293         	11.34          	5.997
MS.294         	11.318         	6.115
MS.295         	11.295         	5.989
MS.296         	11.273         	5.905
MS.297         	11.25          	6.075
MS.298         	11.227         	5.776
MS.299         	11.205         	5.784
MS.300         	11.182         	5.767
MS.301         	11.16          	5.645
MS.302         	11.137         	5.682
MS.303         	11.117         	5.5
MS.304         	11.095         	5.642
MS.305         	11.073         	5.599
MS.306         	11.05          	5.386
MS.307         	11.028         	5.471
MS.308         	11.005         	5.386
MS.309         	10.983         	5.358
MS.310         	10.962         	5.417
MS.311         	10.94          	5.332
MS.312         	10.917         	5.297
MS.313         	10.895         	5.328
MS.314         	10.875         	5.251
MS.315         	10.852         	4.99
MS.316         	10.83          	5.197
MS.317         	10.81          	5.187
MS.318         	10.787         	4.982
MS.319         	10.765         	5.035
MS.320         	10.745         	5.071
MS.321         	10.722         	5.037
MS.322         	10.702         	4.963
MS.323         	10.68          	4.683
MS.324         	10.66          	4.639
MS.325         	10.637         	4.813
MS.326         	10.617         	4.8
MS.327         	10.595         	4.669
MS.328         	10.575         	4.437
MS.329         	10.552         	4.677
MS.330         	10.532         	4.481
MS.331         	10.51          	4.854
MS.332         	10.49          	4.341
MS.333         	10.47          	4.385
MS.334         	10.448         	4.548
MS.335         	10.427         	4.182
MS.336         	10.407         	4.036
MS.337         	10.385         	4.199
MS.338         	10.365         	4.211
MS.339         	10.345         	4.055
MS.340         	10.323         	4.122
MS.341         	10.302         	4.142
MS.342         	10.282         	3.981
MS.343         	10.262         	3.939
MS.344         	10.24          	4.177
MS.345         	10.22          	3.988
MS.346         	10.2           	3.889
MS.347         	10.18          	3.792
MS.348         	10.16          	3.948
MS.349         	10.14          	3.625
MS.350         	10.12          	3.977
MS.351         	10.097         	3.718
MS.352         	10.077         	3.579
MS.353         	10.057         	3.757
MS.354         	10.037         	3.689
MS.355         	10.017         	3.756
MS.356         	9.997          	3.503
MS.357         	9.977          	3.616
MS.358         	9.957          	3.489
MS.359         	9.938          	3.528
MS.360         	9.917          	3.468
MS.361         	9.9            	3.217
MS.362         	9.88           	3.34
MS.363         	9.86           	3.273
MS.364         	9.84           	3.197
MS.365         	9.82           	3.298
MS.366         	9.8            	3.38
MS.367         	9.78           	3.182
MS.368         	9.76           	3.378
MS.369         	9.742          	3.099
MS.370         	9.722          	2.993
MS.371         	9.702          	2.983
MS.372         	9.682          	2.952
MS.373         	9.665          	2.996
MS.374         	9.645          	2.965
MS.375         	9.625          	2.667
MS.376         	9.605          	2.902
MS.377         	9.587          	2.855
MS.378         	9.568          	2.941
MS.379         	9.55           	2.926
MS.380         	9.53           	2.676
MS.381         	9.51           	2.703
MS.382         	9.492          	2.632
MS.383         	9.472          	2.893
MS.384         	9.452          	2.62
MS.385         	9.435          	2.638
MS.386         	9.415          	2.555
MS.387         	9.398          	2.581
MS.388         	9.377          	2.402
MS.389         	9.36           	2.302
MS.390         	9.34           	2.517
MS.391         	9.323          	2.599
MS.392         	9.302          	2.438
MS.393         	9.285          	2.385
MS.394         	9.267          	2.28
MS.395         	9.247          	2.439
MS.396         	9.23           	1.953
MS.397         	9.21           	2.163
MS.398         	9.193          	2.153
MS.399         	9.175          	2.156
MS.400         	9.155          	2.131
MS.401         	9.137          	2.1
MS.402         	9.12           	2.117
MS.403         	9.1            	2.128
MS.404         	9.082          	2.052
MS.405         	9.065          	2.009
MS.406         	9.047          	1.94
MS.407         	9.028          	1.876
MS.408         	9.01           	1.829
MS.409         	8.992          	1.819
MS.410         	8.975          	1.796
MS.411         	8.957          	1.859
MS.412         	8.94           	1.833
MS.413         	8.92           	1.812
MS.414         	8.903          	1.78
MS.415         	8.885          	1.77
MS.416         	8.867          	1.694
MS.417         	8.85           	1.722
MS.418         	8.832          	1.598
MS.419         	8.815          	1.735
MS.420         	8.797          	1.686
MS.421         	8.78           	1.571
MS.422         	8.762          	1.55
MS.423         	8.745          	1.508
MS.424         	8.727          	1.504
MS.425         	8.71           	1.533
MS.426         	8.693          	1.573
MS.427         	8.675          	1.581
MS.428         	8.658          	1.108
MS.429         	8.64           	1.368
MS.430         	8.622          	1.229
MS.431         	8.605          	1.312
MS.432         	8.587          	1.484
MS.433         	8.57           	1.417
MS.434         	8.555          	1.304
MS.435         	8.537          	1.218
MS.436         	8.52           	1.041
MS.437         	8.502          	1.389
MS.438         	8.485          	1.276
MS.439         	8.47           	1.013
MS.440         	8.452          	1.008
MS.441         	8.435          	0.964
MS.442         	8.417          	1.034
MS.443         	8.403          	0.948
MS.444         	8.385          	0.991
MS.445         	8.367          	0.71
MS.446         	8.35           	0.905
MS.447         	8.335          	1.056
MS.448         	8.318          	0.911
MS.449         	8.302          	0.82
MS.450         	8.285          	0.864
MS.451         	8.267          	0.903
MS.452         	8.252          	0.889
MS.453         	8.235          	0.835
MS.454         	8.217          	0.878
MS.455         	8.202          	0.845
MS.456         	8.185          	1.033
MS.457         	8.17           	0.819
MS.458         	8.153          	0.747
MS.459         	8.137          	0.657
MS.460         	8.12           	0.731
MS.461         	8.105          	0.836
MS.462         	8.087          	0.64
MS.463         	8.073          	0.751
MS.464         	8.055          	0.645
MS.465         	8.04           	0.649
MS.466         	8.025          	0.555
MS.467         	8.007          	0.54
MS.468         	7.992          	0.461
MS.469         	7.975          	0.621
MS.470         	7.96           	0.581
MS.471         	7.945          	0.497
MS.472         	7.927          	0.447
MS.473         	7.912          	0.555
MS.474         	7.898          	0.442
MS.475         	7.88           	0.476
MS.476         	7.865          	0.476
MS.477         	7.85           	0.406
MS.478         	7.832          	0.409
MS.479         	7.817          	0.378
MS.480         	7.802          	0.348
MS.481         	7.787          	0.403
MS.482         	7.77           	0.367
MS.483         	7.755          	0.518
MS.484         	7.74           	0.273
MS.485         	7.725          	0.433
MS.486         	7.71           	0.311
MS.487         	7.695          	0.287
MS.488         	7.677          	0.349
MS.489         	7.662          	0.347
MS.490         	7.648          	0.325
MS.491         	7.632          	0.272
MS.492         	7.617          	0.332
MS.493         	7.602          	0.333
MS.494         	7.587          	0.293
MS.495         	7.572          	0.381
MS.496         	7.557          	0.293
MS.497         	7.543          	0.277
MS.498         	7.527          	0.253
MS.499         	7.512          	0.28
MS.500         	7.497          	0.271
MS.501         	7.482          	0.259
MS.502         	7.467          	0.161
MS.503         	7.452          	0.221
MS.504         	7.438          	0.327
MS.505         	7.422          	0.203
MS.506         	7.407          	0.247
MS.507         	7.392          	0.157
MS.508         	7.378          	0.131
MS.509         	7.362          	0.11
MS.510         	7.347          	0.134
MS.511         	7.332          	0.096
MS.512         	7.317          	0.132
MS.513         	7.305          	0.128
MS.514         	7.29           	0.095
MS.515         	7.275          	0.106
MS.516         	7.26           	0.156
MS.517         	7.245          	0.107
MS.518         	7.23           	0.187
MS.519         	7.217          	0.101
MS.520         	7.202          	0.168
MS.521         	7.188          	0.103
MS.522         	7.172          	0.084
MS.523         	7.16           	0.106
MS.524         	7.145          	0.117
MS.525         	7.13           	0.104
MS.526         	7.117          	0.104
MS.527         	7.102          	0.116
MS.528         	7.087          	0.096
MS.529         	7.075          	0.078
MS.530         	7.06           	0.104
MS.531         	7.045          	0.103
MS.532         	7.032          	0.106
MS.533         	7.017          	0.095
MS.534         	7.003          	0.063
MS.535         	6.99           	0.068
MS.536         	6.975          	0.062
MS.537         	6.962          	0.09
MS.538         	6.947          	0.057
MS.539         	6.935          	0.092
MS.540         	6.92           	0.088
MS.541         	6.905          	0.063
MS.542         	6.892          	0.084
MS.543         	6.878          	0.057
MS.544         	6.865          	0.054
MS.545         	6.85           	0.072
MS.546         	6.837          	0.129
MS.547         	6.825          	0.054
MS.548         	6.81           	0.06
MS.549         	6.797          	0.096
MS.550         	6.782          	0.037
MS.551         	6.77           	0.054
MS.552         	6.755          	0.052
MS.553         	6.742          	0.057
MS.554         	6.73           	0.048
MS.555         	6.715          	0.05
MS.556         	6.702          	0.046
MS.557         	6.688          	0.085
MS.558         	6.675          	0.056
MS.559         	6.662          	0.05
MS.560         	6.648          	0.043
MS.561         	6.635          	0.05
MS.562         	6.622          	0.042
MS.563         	6.61           	0.043
MS.564         	6.595          	0.051
MS.565         	6.582          	0.046
MS.566         	6.57           	0.05
MS.567         	6.555          	0.038
MS.568         	6.543          	0.044
MS.569         	6.53           	0.037
MS.570         	6.517          	0.043
MS.571         	6.505          	0.043
MS.572         	6.49           	0.052
MS.573         	6.477          	0.038
MS.574         	6.465          	0.038
MS.575         	6.452          	0.051
MS.576         	6.44           	0.052
MS.577         	6.427          	0.044
MS.578         	6.412          	0.04
MS.579         	6.4            	0.042
MS.580         	6.387          	0.042
MS.581         	6.375          	0.038
MS.582         	6.362          	0.044
MS.583         	6.35           	0.051
MS.584         	6.338          	0.046
MS.585         	6.325          	0.042
MS.586         	6.312          	0.044
MS.587         	6.3            	0.039
MS.588         	6.287          	0.042
MS.589         	6.275          	0.039
MS.590         	6.262          	0.039
MS.591         	6.25           	0.038
MS.592         	6.237          	0.042
MS.593         	6.225          	0.037
MS.594         	6.213          	0.045
MS.595         	6.2            	0.042
MS.596         	6.188          	0.039
MS.597         	6.175          	0.04
MS.598         	6.162          	0.039
MS.599         	6.15           	0.037
DERIVED EXCITABILITY VARIABLES
Program = QTracP 12/2/2021
Threshold method = 6 (optimised for CAP, using data for present condition only)
SR method = 1 (using actual data values)
6.                 	0.000               	Peak response\(mV)
9.                 	34                  	Temperature ( C)
17.                	54                  	Age (years)
18.                	2                   	Sex (M=1, F=2)

EXTRA VARIABLES

MScPeak(mV) = 8.9
MScS5(mA) = 7.83
MScS50(mA) = 10.51
MScS95(mA) = 13.89
MScNSteps = 0
MScSteps(%) = 0.0
MScStepMax(%) = 0.0
MScD50 = 61
MScSlope = 4.11
MSFPeakAmp(mV) = 8.91
MSFNUnits = 144
MSFMeanUnitAmp(uV) = 61.8
MSFHuntTime(m) = 2.28
MSFError(%) = 2.12
MSFNLarge = 46.71
MSFMedianAmp(%) = 0.592
MSFMedianAmp(mV) = 0.0528
MSFHalfAmpAmp(%) = 0.703
MSFHalfAmpAmp(mV) = 0.0626
MSFLargestAmp(%) = 2.8
MSFLargestAmp(mV) = 0.249
MSFMeanRS(%) = 2
MSFOpts = 10106022032
MScDuration(min) = 9.3
MSFTraces = 594
MSFSizeLimit(uV) = 29.7
MSFLimitType = 1
MSFSmallestAmp(uV) = 30.7
MSFSDMax = 20.4
MSFSDMin = 3.91

EXTRA WAVEFORMS


!MScan Model
!144
	1	6.94	0.59	2
	2	7.32	0.56	2
	3	7.4	0.55	2
	4	7.45	0.4	2
	5	7.57	0.89	2
	6	7.77	0.84	2
	7	7.85	0.62	2
	8	7.89	0.4	2
	9	7.96	0.79	2
	10	8	0.43	2
	11	8.03	0.43	2
	12	8.07	0.5	2
	13	8.12	0.99	2
	14	8.19	0.97	2
	15	8.33	0.99	2
	16	8.4	0.98	2
	17	8.43	0.6	2
	18	8.46	0.38	2
	19	8.49	0.57	1.6
	20	8.49	0.38	2
	21	8.66	2.8	2
	22	8.71	0.57	2
	23	8.75	0.61	2
	24	8.78	0.73	2
	25	8.81	0.55	2
	26	8.84	0.41	2
	27	8.88	0.67	2
	28	8.92	0.42	2
	29	8.96	0.46	2
	30	8.97	0.35	2
	31	9	0.49	2
	32	9.03	0.62	2
	33	9.08	0.52	2
	34	9.1	0.41	2
	35	9.15	1.06	2
	36	9.21	0.98	2
	37	9.26	0.81	2
	38	9.31	1.07	2
	39	9.35	1.19	2
	40	9.39	0.69	2
	41	9.44	0.58	2
	42	9.47	0.65	2
	43	9.55	1.69	2
	44	9.61	0.96	2
	45	9.67	1.1	2
	46	9.69	0.52	2
	47	9.72	0.58	2
	48	9.75	0.58	2
	49	9.8	0.97	2
	50	9.86	1.26	2
	51	9.88	0.37	2
	52	9.92	0.38	2
	53	9.94	0.49	2
	54	9.96	0.49	2
	55	10.02	1.62	2
	56	10.08	0.93	2
	57	10.13	1.02	2
	58	10.18	0.77	2
	59	10.21	0.5	2
	60	10.24	0.5	2
	61	10.28	0.8	2
	62	10.34	1.21	2
	63	10.39	0.96	2
	64	10.43	0.92	2
	65	10.47	1.15	2
	66	10.58	2.71	2
	67	10.6	0.37	2
	68	10.62	0.41	2
	69	10.64	0.58	2
	70	10.67	0.57	2
	71	10.69	0.56	2
	72	10.71	0.54	2
	73	10.75	0.69	2
	74	10.77	0.53	2
	75	10.79	0.49	2
	76	10.81	0.41	2
	77	10.83	0.41	2
	78	10.86	0.58	2
	79	10.89	0.64	2
	80	10.91	0.35	2
	81	10.93	0.35	2
	82	10.95	0.4	2
	83	10.97	0.42	2
	84	11	0.59	2
	85	11.03	0.44	2
	86	11.06	0.44	2
	87	11.08	0.49	2
	88	11.11	0.76	2
	89	11.15	0.8	2
	90	11.18	0.63	2
	91	11.22	0.69	2
	92	11.24	0.61	2
	93	11.27	0.59	2
	94	11.31	0.85	2
	95	11.34	0.7	2
	96	11.38	0.67	2
	97	11.42	0.58	2
	98	11.47	0.57	2
	99	11.61	2.13	2
	100	11.65	0.36	2
	101	11.69	0.64	2
	102	11.73	0.65	2
	103	11.76	0.43	2
	104	11.78	0.56	2
	105	11.81	0.81	2
	106	11.84	0.6	2
	107	11.86	0.48	2
	108	11.9	0.67	2
	109	11.92	0.39	2
	110	11.94	0.39	2
	111	11.97	0.6	2
	112	12.01	0.82	2
	113	12.05	0.57	2
	114	12.1	0.69	2
	115	12.12	0.34	2
	116	12.14	0.44	2
	117	12.17	0.36	2
	118	12.19	0.39	2
	119	12.24	0.9	2
	120	12.3	0.9	2
	121	12.4	1.43	2
	122	12.54	1.09	2
	123	12.61	0.55	2
	124	12.68	0.81	2
	125	12.72	0.43	2
	126	12.79	0.62	2
	127	12.82	0.42	2
	128	12.85	0.35	2
	129	12.9	0.73	2
	130	12.98	0.64	2
	131	13.03	0.51	2
	132	13.14	0.74	2
	133	13.57	1.17	2
	134	13.68	0.61	2
	135	13.83	0.94	2
	136	13.95	0.46	2
	137	14.02	0.59	2
	138	14.16	0.7	2
	139	14.26	0.46	2
	140	15.45	0.6	2
	141	16.45	0.4	2
	142	16.56	0.49	2
	143	17.41	0.73	2
	144	17.96	0.71	2

