File:              	n:\Qtrac\Data\MScan\Normative Controls\CP Nerve\MSCC10630C.QZD
Name:              	OL20A
Protocol:          	MSCAN-R2
Date:              	30/6/21
Start time:        	10:49:30
Age:               	58
Sex:               	F
Temperature:       	33.2
S/R sites:         	KNEE CP-TA
NC/disease:        	NC
Operator:          	BJ
Comments:
M-SCAN DATA (Repeat 3/3, 18.8-9.3m)
Scanpts: 45, 75, 969, 989
Stim. (mA)     	Amp. (mV)
MS.1           	18             	6.82
MS.2           	18             	6.852
MS.3           	18             	6.844
MS.4           	18             	6.772
MS.5           	18             	6.771
MS.6           	18             	6.755
MS.7           	18             	6.776
MS.8           	18             	6.753
MS.9           	18             	6.775
MS.10          	18             	6.757
MS.11          	18             	6.754
MS.12          	18             	6.76
MS.13          	18             	6.743
MS.14          	18             	6.749
MS.15          	18             	6.733
MS.16          	18             	6.76
MS.17          	18             	6.735
MS.18          	18             	6.737
MS.19          	18             	6.719
MS.20          	18             	6.726
MS.21          	18             	6.733
MS.22          	18             	6.73
MS.23          	18             	6.777
MS.24          	17.965         	6.781
MS.25          	17.927         	6.732
MS.26          	17.892         	6.725
MS.27          	17.858         	6.725
MS.28          	17.82          	6.738
MS.29          	17.785         	6.708
MS.30          	17.75          	6.736
MS.31          	17.715         	6.736
MS.32          	17.68          	6.743
MS.33          	17.642         	6.737
MS.34          	17.608         	6.72
MS.35          	17.573         	6.724
MS.36          	17.538         	6.725
MS.37          	17.503         	6.738
MS.38          	17.467         	6.735
MS.39          	17.432         	6.724
MS.40          	17.397         	6.716
MS.41          	17.362         	6.73
MS.42          	17.33          	6.721
MS.43          	17.295         	6.691
MS.44          	17.26          	6.709
MS.45          	17.225         	6.71
MS.46          	17.19          	6.713
MS.47          	17.157         	6.718
MS.48          	17.122         	6.72
MS.49          	17.087         	6.703
MS.50          	17.055         	6.694
MS.51          	17.02          	6.726
MS.52          	16.985         	6.707
MS.53          	16.952         	6.709
MS.54          	16.917         	6.702
MS.55          	16.885         	6.703
MS.56          	16.85          	6.73
MS.57          	16.817         	6.691
MS.58          	16.782         	6.693
MS.59          	16.75          	6.694
MS.60          	16.715         	6.714
MS.61          	16.682         	6.725
MS.62          	16.65          	6.726
MS.63          	16.615         	6.686
MS.64          	16.583         	6.7
MS.65          	16.55          	6.711
MS.66          	16.517         	6.708
MS.67          	16.483         	6.702
MS.68          	16.45          	6.691
MS.69          	16.417         	6.696
MS.70          	16.385         	6.703
MS.71          	16.352         	6.716
MS.72          	16.32          	6.691
MS.73          	16.288         	6.726
MS.74          	16.255         	6.709
MS.75          	16.222         	6.693
MS.76          	16.19          	6.7
MS.77          	16.157         	6.71
MS.78          	16.125         	6.711
MS.79          	16.092         	6.682
MS.80          	16.06          	6.705
MS.81          	16.028         	6.7
MS.82          	15.997         	6.76
MS.83          	15.965         	6.709
MS.84          	15.932         	6.716
MS.85          	15.9           	6.709
MS.86          	15.87          	6.676
MS.87          	15.837         	6.713
MS.88          	15.805         	6.68
MS.89          	15.775         	6.699
MS.90          	15.742         	6.659
MS.91          	15.71          	6.699
MS.92          	15.68          	6.71
MS.93          	15.648         	6.667
MS.94          	15.617         	6.659
MS.95          	15.585         	6.696
MS.96          	15.555         	6.666
MS.97          	15.525         	6.71
MS.98          	15.492         	6.672
MS.99          	15.462         	6.694
MS.100         	15.43          	6.654
MS.101         	15.4           	6.647
MS.102         	15.37          	6.658
MS.103         	15.337         	6.689
MS.104         	15.307         	6.666
MS.105         	15.277         	6.654
MS.106         	15.247         	6.671
MS.107         	15.217         	6.643
MS.108         	15.185         	6.663
MS.109         	15.155         	6.653
MS.110         	15.125         	6.641
MS.111         	15.095         	6.644
MS.112         	15.065         	6.654
MS.113         	15.035         	6.639
MS.114         	15.005         	6.656
MS.115         	14.975         	6.622
MS.116         	14.945         	6.628
MS.117         	14.915         	6.646
MS.118         	14.885         	6.647
MS.119         	14.855         	6.617
MS.120         	14.825         	6.627
MS.121         	14.795         	6.625
MS.122         	14.767         	6.624
MS.123         	14.737         	6.617
MS.124         	14.707         	6.635
MS.125         	14.677         	6.636
MS.126         	14.65          	6.637
MS.127         	14.62          	6.613
MS.128         	14.59          	6.573
MS.129         	14.562         	6.603
MS.130         	14.532         	6.598
MS.131         	14.502         	6.638
MS.132         	14.475         	6.613
MS.133         	14.445         	6.598
MS.134         	14.417         	6.577
MS.135         	14.387         	6.635
MS.136         	14.36          	6.598
MS.137         	14.33          	6.577
MS.138         	14.302         	6.611
MS.139         	14.273         	6.605
MS.140         	14.245         	6.6
MS.141         	14.215         	6.611
MS.142         	14.188         	6.581
MS.143         	14.16          	6.569
MS.144         	14.13          	6.586
MS.145         	14.102         	6.58
MS.146         	14.075         	6.581
MS.147         	14.047         	6.583
MS.148         	14.017         	6.581
MS.149         	13.99          	6.591
MS.150         	13.962         	6.559
MS.151         	13.935         	6.603
MS.152         	13.907         	6.576
MS.153         	13.88          	6.578
MS.154         	13.85          	6.554
MS.155         	13.822         	6.584
MS.156         	13.795         	6.567
MS.157         	13.767         	6.567
MS.158         	13.74          	6.561
MS.159         	13.712         	6.558
MS.160         	13.685         	6.548
MS.161         	13.657         	6.545
MS.162         	13.632         	6.553
MS.163         	13.605         	6.558
MS.164         	13.577         	6.545
MS.165         	13.55          	6.547
MS.166         	13.523         	6.556
MS.167         	13.495         	6.445
MS.168         	13.467         	6.433
MS.169         	13.443         	6.519
MS.170         	13.415         	6.526
MS.171         	13.387         	6.483
MS.172         	13.362         	6.478
MS.173         	13.335         	6.566
MS.174         	13.307         	6.556
MS.175         	13.282         	6.434
MS.176         	13.255         	6.456
MS.177         	13.227         	6.537
MS.178         	13.202         	6.451
MS.179         	13.175         	6.506
MS.180         	13.15          	6.42
MS.181         	13.122         	6.427
MS.182         	13.097         	6.506
MS.183         	13.07          	6.411
MS.184         	13.045         	6.393
MS.185         	13.017         	6.41
MS.186         	12.992         	6.383
MS.187         	12.967         	6.385
MS.188         	12.94          	6.414
MS.189         	12.915         	6.487
MS.190         	12.89          	6.489
MS.191         	12.862         	6.389
MS.192         	12.837         	6.383
MS.193         	12.812         	6.401
MS.194         	12.787         	6.362
MS.195         	12.76          	6.401
MS.196         	12.735         	6.47
MS.197         	12.71          	6.379
MS.198         	12.685         	6.367
MS.199         	12.66          	6.366
MS.200         	12.635         	6.376
MS.201         	12.608         	6.376
MS.202         	12.582         	6.381
MS.203         	12.557         	6.366
MS.204         	12.532         	6.372
MS.205         	12.507         	6.35
MS.206         	12.483         	6.362
MS.207         	12.457         	6.432
MS.208         	12.432         	6.312
MS.209         	12.407         	6.34
MS.210         	12.382         	6.329
MS.211         	12.36          	6.349
MS.212         	12.335         	6.334
MS.213         	12.31          	6.365
MS.214         	12.285         	6.305
MS.215         	12.26          	6.327
MS.216         	12.235         	6.323
MS.217         	12.212         	6.343
MS.218         	12.188         	6.335
MS.219         	12.162         	6.322
MS.220         	12.137         	6.305
MS.221         	12.115         	6.289
MS.222         	12.09          	6.32
MS.223         	12.065         	6.288
MS.224         	12.042         	6.332
MS.225         	12.017         	6.292
MS.226         	11.992         	6.271
MS.227         	11.97          	6.324
MS.228         	11.945         	6.305
MS.229         	11.922         	6.278
MS.230         	11.898         	6.272
MS.231         	11.875         	6.267
MS.232         	11.85          	6.279
MS.233         	11.827         	6.267
MS.234         	11.802         	6.278
MS.235         	11.78          	6.256
MS.236         	11.755         	6.254
MS.237         	11.733         	6.256
MS.238         	11.71          	6.281
MS.239         	11.685         	6.265
MS.240         	11.662         	6.262
MS.241         	11.64          	6.24
MS.242         	11.615         	6.213
MS.243         	11.592         	6.229
MS.244         	11.57          	6.208
MS.245         	11.547         	6.237
MS.246         	11.523         	6.202
MS.247         	11.5           	6.216
MS.248         	11.477         	6.235
MS.249         	11.455         	6.204
MS.250         	11.432         	6.227
MS.251         	11.407         	6.19
MS.252         	11.385         	6.132
MS.253         	11.363         	6.222
MS.254         	11.34          	6.161
MS.255         	11.318         	6.199
MS.256         	11.295         	6.201
MS.257         	11.273         	6.146
MS.258         	11.25          	6.156
MS.259         	11.227         	6.163
MS.260         	11.205         	6.178
MS.261         	11.182         	6.127
MS.262         	11.16          	6.172
MS.263         	11.137         	6.139
MS.264         	11.115         	6.145
MS.265         	11.092         	6.097
MS.266         	11.073         	6.111
MS.267         	11.05          	6.128
MS.268         	11.028         	6.084
MS.269         	11.005         	6.123
MS.270         	10.983         	6.095
MS.271         	10.962         	6.093
MS.272         	10.94          	6.072
MS.273         	10.917         	6.072
MS.274         	10.895         	6.049
MS.275         	10.875         	6.06
MS.276         	10.852         	6.068
MS.277         	10.83          	6.031
MS.278         	10.81          	6.007
MS.279         	10.787         	6.023
MS.280         	10.765         	6.012
MS.281         	10.745         	6.013
MS.282         	10.722         	6.017
MS.283         	10.702         	6.031
MS.284         	10.68          	6
MS.285         	10.657         	6.024
MS.286         	10.637         	5.997
MS.287         	10.615         	5.977
MS.288         	10.595         	5.959
MS.289         	10.573         	5.967
MS.290         	10.552         	5.957
MS.291         	10.532         	5.979
MS.292         	10.51          	5.957
MS.293         	10.49          	5.953
MS.294         	10.467         	5.992
MS.295         	10.448         	5.946
MS.296         	10.427         	5.951
MS.297         	10.405         	5.918
MS.298         	10.385         	5.94
MS.299         	10.365         	5.923
MS.300         	10.342         	5.913
MS.301         	10.323         	5.841
MS.302         	10.302         	5.902
MS.303         	10.282         	5.903
MS.304         	10.26          	5.919
MS.305         	10.24          	5.941
MS.306         	10.22          	5.8
MS.307         	10.2           	5.848
MS.308         	10.18          	5.879
MS.309         	10.16          	5.802
MS.310         	10.14          	5.901
MS.311         	10.117         	5.865
MS.312         	10.097         	5.746
MS.313         	10.077         	5.85
MS.314         	10.057         	5.836
MS.315         	10.037         	5.836
MS.316         	10.017         	5.831
MS.317         	9.997          	5.681
MS.318         	9.977          	5.796
MS.319         	9.957          	5.789
MS.320         	9.938          	5.735
MS.321         	9.917          	5.703
MS.322         	9.898          	5.671
MS.323         	9.877          	5.67
MS.324         	9.86           	5.531
MS.325         	9.84           	5.734
MS.326         	9.82           	5.581
MS.327         	9.8            	5.736
MS.328         	9.78           	5.581
MS.329         	9.76           	5.588
MS.330         	9.742          	5.603
MS.331         	9.722          	5.585
MS.332         	9.702          	5.682
MS.333         	9.682          	5.555
MS.334         	9.662          	5.42
MS.335         	9.645          	5.457
MS.336         	9.625          	5.43
MS.337         	9.605          	5.649
MS.338         	9.587          	5.433
MS.339         	9.568          	5.41
MS.340         	9.547          	5.438
MS.341         	9.53           	5.381
MS.342         	9.51           	5.356
MS.343         	9.492          	5.367
MS.344         	9.472          	5.372
MS.345         	9.452          	5.276
MS.346         	9.435          	5.212
MS.347         	9.415          	5.463
MS.348         	9.398          	5.505
MS.349         	9.377          	5.453
MS.350         	9.36           	5.553
MS.351         	9.34           	5.389
MS.352         	9.323          	5.404
MS.353         	9.302          	5.576
MS.354         	9.285          	5.437
MS.355         	9.265          	5.394
MS.356         	9.247          	5.316
MS.357         	9.23           	5.45
MS.358         	9.21           	5.287
MS.359         	9.193          	5.424
MS.360         	9.175          	5.366
MS.361         	9.155          	5.333
MS.362         	9.137          	5.294
MS.363         	9.12           	5.256
MS.364         	9.1            	5.361
MS.365         	9.082          	5.105
MS.366         	9.065          	5.021
MS.367         	9.047          	4.996
MS.368         	9.028          	4.91
MS.369         	9.01           	5.031
MS.370         	8.992          	4.937
MS.371         	8.975          	4.874
MS.372         	8.957          	4.96
MS.373         	8.938          	4.933
MS.374         	8.92           	5.092
MS.375         	8.903          	5.01
MS.376         	8.885          	4.968
MS.377         	8.867          	5.006
MS.378         	8.85           	5.261
MS.379         	8.832          	5.219
MS.380         	8.815          	5.243
MS.381         	8.797          	5.255
MS.382         	8.78           	5.225
MS.383         	8.762          	5.231
MS.384         	8.745          	5.251
MS.385         	8.727          	5.264
MS.386         	8.71           	5.214
MS.387         	8.693          	5.217
MS.388         	8.675          	5.212
MS.389         	8.658          	5.223
MS.390         	8.64           	5.197
MS.391         	8.622          	5.178
MS.392         	8.605          	5.132
MS.393         	8.587          	5.148
MS.394         	8.57           	5.178
MS.395         	8.555          	5.187
MS.396         	8.537          	5.088
MS.397         	8.52           	5.157
MS.398         	8.502          	5.133
MS.399         	8.485          	5.133
MS.400         	8.467          	4.996
MS.401         	8.452          	5.094
MS.402         	8.435          	5.074
MS.403         	8.417          	5.066
MS.404         	8.4            	5.031
MS.405         	8.385          	5.063
MS.406         	8.367          	4.967
MS.407         	8.35           	5.031
MS.408         	8.335          	4.882
MS.409         	8.318          	4.962
MS.410         	8.3            	4.918
MS.411         	8.285          	4.966
MS.412         	8.267          	4.882
MS.413         	8.252          	4.938
MS.414         	8.235          	4.916
MS.415         	8.217          	4.894
MS.416         	8.202          	4.858
MS.417         	8.185          	4.923
MS.418         	8.17           	4.846
MS.419         	8.153          	4.84
MS.420         	8.137          	4.838
MS.421         	8.12           	4.812
MS.422         	8.105          	4.824
MS.423         	8.087          	4.749
MS.424         	8.073          	4.697
MS.425         	8.055          	4.779
MS.426         	8.04           	4.718
MS.427         	8.023          	4.785
MS.428         	8.007          	4.702
MS.429         	7.992          	4.808
MS.430         	7.975          	4.744
MS.431         	7.96           	4.735
MS.432         	7.942          	4.832
MS.433         	7.927          	4.753
MS.434         	7.912          	4.681
MS.435         	7.895          	4.7
MS.436         	7.88           	4.667
MS.437         	7.865          	4.698
MS.438         	7.85           	4.698
MS.439         	7.832          	4.662
MS.440         	7.817          	4.661
MS.441         	7.802          	4.695
MS.442         	7.787          	4.591
MS.443         	7.77           	4.648
MS.444         	7.755          	4.596
MS.445         	7.74           	4.561
MS.446         	7.725          	4.432
MS.447         	7.71           	4.501
MS.448         	7.692          	4.447
MS.449         	7.677          	4.525
MS.450         	7.662          	4.447
MS.451         	7.648          	4.535
MS.452         	7.632          	4.431
MS.453         	7.617          	4.489
MS.454         	7.602          	4.403
MS.455         	7.587          	4.347
MS.456         	7.572          	4.313
MS.457         	7.555          	4.376
MS.458         	7.54           	4.458
MS.459         	7.525          	4.299
MS.460         	7.51           	4.326
MS.461         	7.495          	4.294
MS.462         	7.48           	4.329
MS.463         	7.465          	4.325
MS.464         	7.45           	4.29
MS.465         	7.438          	4.232
MS.466         	7.422          	4.266
MS.467         	7.407          	4.18
MS.468         	7.392          	4.265
MS.469         	7.378          	4.229
MS.470         	7.362          	4.247
MS.471         	7.347          	4.158
MS.472         	7.332          	4.192
MS.473         	7.317          	4.152
MS.474         	7.302          	4.122
MS.475         	7.29           	4.132
MS.476         	7.275          	4.108
MS.477         	7.26           	4.137
MS.478         	7.245          	4.138
MS.479         	7.23           	4.088
MS.480         	7.217          	4.053
MS.481         	7.202          	4.049
MS.482         	7.188          	4.133
MS.483         	7.172          	3.997
MS.484         	7.16           	4.05
MS.485         	7.145          	4.077
MS.486         	7.13           	4.011
MS.487         	7.115          	3.993
MS.488         	7.102          	3.982
MS.489         	7.087          	3.918
MS.490         	7.072          	3.955
MS.491         	7.06           	3.926
MS.492         	7.045          	4.017
MS.493         	7.032          	3.871
MS.494         	7.017          	3.903
MS.495         	7.003          	3.925
MS.496         	6.99           	3.915
MS.497         	6.975          	3.759
MS.498         	6.962          	3.701
MS.499         	6.947          	3.81
MS.500         	6.932          	3.74
MS.501         	6.92           	3.815
MS.502         	6.905          	3.678
MS.503         	6.892          	3.722
MS.504         	6.878          	3.613
MS.505         	6.865          	3.599
MS.506         	6.85           	3.669
MS.507         	6.837          	3.666
MS.508         	6.822          	3.602
MS.509         	6.81           	3.595
MS.510         	6.797          	3.577
MS.511         	6.782          	3.572
MS.512         	6.77           	3.579
MS.513         	6.755          	3.563
MS.514         	6.742          	3.497
MS.515         	6.727          	3.44
MS.516         	6.715          	3.589
MS.517         	6.702          	3.448
MS.518         	6.688          	3.37
MS.519         	6.675          	3.525
MS.520         	6.662          	3.503
MS.521         	6.648          	3.324
MS.522         	6.635          	3.247
MS.523         	6.622          	3.208
MS.524         	6.608          	3.433
MS.525         	6.595          	3.357
MS.526         	6.582          	3.132
MS.527         	6.57           	3.138
MS.528         	6.555          	3.243
MS.529         	6.543          	3.208
MS.530         	6.53           	3.254
MS.531         	6.517          	3.065
MS.532         	6.503          	3.134
MS.533         	6.49           	3.125
MS.534         	6.477          	2.969
MS.535         	6.465          	3.06
MS.536         	6.452          	2.894
MS.537         	6.44           	2.982
MS.538         	6.425          	3.105
MS.539         	6.412          	2.997
MS.540         	6.4            	2.98
MS.541         	6.387          	2.947
MS.542         	6.375          	2.878
MS.543         	6.362          	2.898
MS.544         	6.35           	2.845
MS.545         	6.338          	2.687
MS.546         	6.325          	2.772
MS.547         	6.312          	2.937
MS.548         	6.3            	2.682
MS.549         	6.287          	2.825
MS.550         	6.273          	2.716
MS.551         	6.26           	2.797
MS.552         	6.247          	2.861
MS.553         	6.235          	2.771
MS.554         	6.222          	2.627
MS.555         	6.213          	2.556
MS.556         	6.2            	2.577
MS.557         	6.188          	2.583
MS.558         	6.175          	2.573
MS.559         	6.162          	2.605
MS.560         	6.15           	2.585
MS.561         	6.137          	2.577
MS.562         	6.125          	2.673
MS.563         	6.112          	2.527
MS.564         	6.1            	2.574
MS.565         	6.088          	2.65
MS.566         	6.075          	2.45
MS.567         	6.065          	2.417
MS.568         	6.052          	2.566
MS.569         	6.04           	2.538
MS.570         	6.027          	2.456
MS.571         	6.015          	2.499
MS.572         	6.003          	2.51
MS.573         	5.992          	2.465
MS.574         	5.98           	2.461
MS.575         	5.967          	2.399
MS.576         	5.955          	2.429
MS.577         	5.945          	2.41
MS.578         	5.932          	2.419
MS.579         	5.92           	2.173
MS.580         	5.907          	2.417
MS.581         	5.898          	2.382
MS.582         	5.885          	2.31
MS.583         	5.872          	2.327
MS.584         	5.862          	2.134
MS.585         	5.85           	2.114
MS.586         	5.838          	2.262
MS.587         	5.825          	2.26
MS.588         	5.815          	2.087
MS.589         	5.802          	2.141
MS.590         	5.793          	2.205
MS.591         	5.78           	2.111
MS.592         	5.767          	2.216
MS.593         	5.757          	1.881
MS.594         	5.745          	2.012
MS.595         	5.735          	2.012
MS.596         	5.722          	1.982
MS.597         	5.71           	1.937
MS.598         	5.7            	1.853
MS.599         	5.688          	1.858
MS.600         	5.677          	1.807
MS.601         	5.665          	1.777
MS.602         	5.655          	1.754
MS.603         	5.642          	1.754
MS.604         	5.632          	1.807
MS.605         	5.62           	1.888
MS.606         	5.61           	1.722
MS.607         	5.597          	1.649
MS.608         	5.588          	1.721
MS.609         	5.575          	1.694
MS.610         	5.565          	1.688
MS.611         	5.552          	1.694
MS.612         	5.543          	1.652
MS.613         	5.53           	1.758
MS.614         	5.52           	1.655
MS.615         	5.51           	1.567
MS.616         	5.497          	1.597
MS.617         	5.487          	1.692
MS.618         	5.475          	1.526
MS.619         	5.465          	1.658
MS.620         	5.455          	1.459
MS.621         	5.443          	1.53
MS.622         	5.432          	1.469
MS.623         	5.422          	1.508
MS.624         	5.41           	1.514
MS.625         	5.4            	1.528
MS.626         	5.39           	1.475
MS.627         	5.378          	1.517
MS.628         	5.367          	1.533
MS.629         	5.358          	1.499
MS.630         	5.345          	1.461
MS.631         	5.335          	1.451
MS.632         	5.325          	1.361
MS.633         	5.315          	1.439
MS.634         	5.302          	1.411
MS.635         	5.293          	1.342
MS.636         	5.282          	1.261
MS.637         	5.273          	1.279
MS.638         	5.262          	1.302
MS.639         	5.25           	1.461
MS.640         	5.24           	1.368
MS.641         	5.23           	1.277
MS.642         	5.22           	1.194
MS.643         	5.21           	1.172
MS.644         	5.197          	1.232
MS.645         	5.188          	1.168
MS.646         	5.177          	1.204
MS.647         	5.168          	1.232
MS.648         	5.157          	1.132
MS.649         	5.148          	1.262
MS.650         	5.137          	1.189
MS.651         	5.125          	1.034
MS.652         	5.115          	1.063
MS.653         	5.105          	1.069
MS.654         	5.095          	1.022
MS.655         	5.085          	1.031
MS.656         	5.075          	1.024
MS.657         	5.065          	1.028
MS.658         	5.055          	0.996
MS.659         	5.045          	1.01
MS.660         	5.035          	0.967
MS.661         	5.025          	0.956
MS.662         	5.015          	1.021
MS.663         	5.005          	1.005
MS.664         	4.995          	0.84
MS.665         	4.985          	0.852
MS.666         	4.975          	0.916
MS.667         	4.965          	0.813
MS.668         	4.955          	0.901
MS.669         	4.945          	0.818
MS.670         	4.935          	0.897
MS.671         	4.925          	0.812
MS.672         	4.915          	0.74
MS.673         	4.905          	0.767
MS.674         	4.895          	0.801
MS.675         	4.885          	0.729
MS.676         	4.875          	0.758
MS.677         	4.867          	0.754
MS.678         	4.858          	0.786
MS.679         	4.847          	0.712
MS.680         	4.838          	0.708
MS.681         	4.827          	0.698
MS.682         	4.818          	0.614
MS.683         	4.807          	0.718
MS.684         	4.8            	0.679
MS.685         	4.79           	0.645
MS.686         	4.78           	0.654
MS.687         	4.77           	0.677
MS.688         	4.76           	0.685
MS.689         	4.75           	0.46
MS.690         	4.742          	0.562
MS.691         	4.733          	0.498
MS.692         	4.722          	0.566
MS.693         	4.713          	0.544
MS.694         	4.705          	0.482
MS.695         	4.695          	0.581
MS.696         	4.685          	0.642
MS.697         	4.675          	0.458
MS.698         	4.668          	0.504
MS.699         	4.657          	0.464
MS.700         	4.648          	0.576
MS.701         	4.637          	0.612
MS.702         	4.63           	0.454
MS.703         	4.62           	0.403
MS.704         	4.61           	0.403
MS.705         	4.602          	0.483
MS.706         	4.592          	0.371
MS.707         	4.582          	0.366
MS.708         	4.575          	0.376
MS.709         	4.565          	0.542
MS.710         	4.555          	0.435
MS.711         	4.548          	0.359
MS.712         	4.537          	0.344
MS.713         	4.527          	0.464
MS.714         	4.52           	0.38
MS.715         	4.51           	0.295
MS.716         	4.503          	0.385
MS.717         	4.492          	0.273
MS.718         	4.483          	0.364
MS.719         	4.475          	0.249
MS.720         	4.465          	0.277
MS.721         	4.457          	0.392
MS.722         	4.447          	0.356
MS.723         	4.438          	0.321
MS.724         	4.43           	0.299
MS.725         	4.42           	0.345
MS.726         	4.412          	0.294
MS.727         	4.402          	0.333
MS.728         	4.395          	0.287
MS.729         	4.385          	0.291
MS.730         	4.378          	0.298
MS.731         	4.367          	0.211
MS.732         	4.36           	0.238
MS.733         	4.35           	0.253
MS.734         	4.342          	0.244
MS.735         	4.332          	0.303
MS.736         	4.325          	0.242
MS.737         	4.315          	0.236
MS.738         	4.307          	0.248
MS.739         	4.3            	0.233
MS.740         	4.29           	0.253
MS.741         	4.282          	0.244
MS.742         	4.273          	0.247
MS.743         	4.265          	0.25
MS.744         	4.255          	0.154
MS.745         	4.247          	0.221
MS.746         	4.24           	0.2
MS.747         	4.23           	0.225
MS.748         	4.222          	0.225
MS.749         	4.215          	0.227
MS.750         	4.205          	0.16
MS.751         	4.197          	0.193
MS.752         	4.188          	0.22
MS.753         	4.18           	0.223
MS.754         	4.173          	0.219
MS.755         	4.162          	0.173
MS.756         	4.155          	0.173
MS.757         	4.148          	0.154
MS.758         	4.137          	0.171
MS.759         	4.13           	0.173
MS.760         	4.122          	0.166
MS.761         	4.115          	0.175
MS.762         	4.105          	0.14
MS.763         	4.097          	0.145
MS.764         	4.09           	0.194
MS.765         	4.08           	0.146
MS.766         	4.072          	0.132
MS.767         	4.065          	0.188
MS.768         	4.057          	0.172
MS.769         	4.048          	0.074
MS.770         	4.04           	0.15
MS.771         	4.032          	0.146
MS.772         	4.025          	0.145
MS.773         	4.017          	0.139
MS.774         	4.007          	0.15
MS.775         	4              	0.134
MS.776         	3.992          	0.193
MS.777         	3.985          	0.146
MS.778         	3.977          	0.151
MS.779         	3.967          	0.013
MS.780         	3.96           	0.14
MS.781         	3.952          	0.143
MS.782         	3.945          	0.062
MS.783         	3.938          	0.137
MS.784         	3.93           	0.131
MS.785         	3.92           	0.132
MS.786         	3.912          	0.146
MS.787         	3.905          	0.132
MS.788         	3.897          	0.009
MS.789         	3.89           	0.131
MS.790         	3.882          	0.016
MS.791         	3.875          	0.066
MS.792         	3.867          	0.074
MS.793         	3.86           	0.063
MS.794         	3.85           	0.009
MS.795         	3.842          	0.011
MS.796         	3.835          	0.011
MS.797         	3.827          	0.01
MS.798         	3.82           	0.011
MS.799         	3.812          	0.101
MS.800         	3.805          	0.012
MS.801         	3.797          	0.134
MS.802         	3.79           	0.012
MS.803         	3.783          	0.133
MS.804         	3.775          	0.007
MS.805         	3.767          	0.011
MS.806         	3.76           	0.01
MS.807         	3.752          	0.012
MS.808         	3.745          	0.011
MS.809         	3.737          	0.013
MS.810         	3.73           	0.015
MS.811         	3.722          	0.013
MS.812         	3.715          	0.009
MS.813         	3.707          	0.013
MS.814         	3.7            	0.011
MS.815         	3.692          	0.079
MS.816         	3.685          	0.01
MS.817         	3.678          	0.012
MS.818         	3.67           	0.011
MS.819         	3.662          	0.013
MS.820         	3.655          	0.012
MS.821         	3.647          	0.01
MS.822         	3.642          	0.01
MS.823         	3.635          	0.01
MS.824         	3.627          	0.01
MS.825         	3.62           	0.016
MS.826         	3.612          	0.01
MS.827         	3.605          	0.012
MS.828         	3.597          	0.013
MS.829         	3.59           	0.012
MS.830         	3.582          	0.011
MS.831         	3.577          	0.013
MS.832         	3.57           	0.013
MS.833         	3.562          	0.015
MS.834         	3.555          	0.013
MS.835         	3.547          	0.012
MS.836         	3.54           	0.01
MS.837         	3.535          	0.01
MS.838         	3.527          	0.012
MS.839         	3.52           	0.013
MS.840         	3.512          	0.015
MS.841         	3.505          	0.011
MS.842         	3.497          	0.009
MS.843         	3.492          	0.011
MS.844         	3.485          	0.01
MS.845         	3.477          	0.015
MS.846         	3.47           	0.006
MS.847         	3.465          	0.011
MS.848         	3.457          	0.013
MS.849         	3.45           	0.012
MS.850         	3.442          	0.015
MS.851         	3.435          	0.012
MS.852         	3.43           	0.011
MS.853         	3.422          	0.012
MS.854         	3.415          	0.015
MS.855         	3.41           	0.012
MS.856         	3.402          	0.012
MS.857         	3.395          	0.013
MS.858         	3.387          	0.012
MS.859         	3.382          	0.012
MS.860         	3.375          	0.012
MS.861         	3.367          	0.011
MS.862         	3.362          	0.013
MS.863         	3.355          	0.015
MS.864         	3.347          	0.012
MS.865         	3.342          	0.012
MS.866         	3.335          	0.015
MS.867         	3.327          	0.013
MS.868         	3.322          	0.016
MS.869         	3.315          	0.013
MS.870         	3.307          	0.013
MS.871         	3.303          	0.012
MS.872         	3.295          	0.015
MS.873         	3.287          	0.012
MS.874         	3.283          	0.015
MS.875         	3.275          	0.015
MS.876         	3.267          	0.011
MS.877         	3.262          	0.012
MS.878         	3.255          	0.012
MS.879         	3.25           	0.011
MS.880         	3.242          	0.012
MS.881         	3.235          	0.016
MS.882         	3.23           	0.013
MS.883         	3.222          	0.013
MS.884         	3.217          	0.011
MS.885         	3.21           	0.013
MS.886         	3.205          	0.013
MS.887         	3.197          	0.01
MS.888         	3.19           	0.011
MS.889         	3.185          	0.013
MS.890         	3.178          	0.01
MS.891         	3.172          	0.011
MS.892         	3.165          	0.012
MS.893         	3.16           	0.011
MS.894         	3.152          	0.012
MS.895         	3.148          	0.012
MS.896         	3.14           	0.013
MS.897         	3.135          	0.012
MS.898         	3.127          	0.012
MS.899         	3.122          	0.01
MS.900         	3.115          	0.012
MS.901         	3.11           	0.012
MS.902         	3.102          	0.012
MS.903         	3.097          	0.011
MS.904         	3.09           	0.011
MS.905         	3.085          	0.013
MS.906         	3.077          	0.011
MS.907         	3.072          	0.012
MS.908         	3.065          	0.011
MS.909         	3.06           	0.011
MS.910         	3.055          	0.011
MS.911         	3.047          	0.012
MS.912         	3.043          	0.011
MS.913         	3.035          	0.011
MS.914         	3.03           	0.012
MS.915         	3.023          	0.012
MS.916         	3.017          	0.011
MS.917         	3.013          	0.012
MS.918         	3.005          	0.013
MS.919         	3              	0.011
MS.920         	2.992          	0.01
MS.921         	2.987          	0.011
MS.922         	2.982          	0.013
MS.923         	2.975          	0.009
MS.924         	2.97           	0.012
MS.925         	2.962          	0.011
MS.926         	2.957          	0.011
MS.927         	2.952          	0.015
MS.928         	2.945          	0.005
MS.929         	2.94           	0.012
MS.930         	2.935          	0.013
MS.931         	2.928          	0.011
MS.932         	2.922          	0.012
MS.933         	2.918          	0.012
MS.934         	2.91           	0.012
MS.935         	2.905          	0.015
MS.936         	2.9            	0.013
MS.937         	2.892          	0.006
MS.938         	2.888          	0.011
MS.939         	2.882          	0.007
MS.940         	2.875          	0.006
MS.941         	2.87           	0.006
MS.942         	2.865          	0.012
MS.943         	2.857          	0.007
MS.944         	2.852          	0.006
MS.945         	2.847          	0.006
MS.946         	2.842          	0.006
MS.947         	2.835          	0.006
MS.948         	2.83           	0.009
MS.949         	2.825          	0.007
MS.950         	2.82           	0.013
MS.951         	2.812          	0.005
MS.952         	2.807          	0.007
MS.953         	2.803          	0.005
MS.954         	2.797          	0.006
MS.955         	2.79           	0.015
MS.956         	2.785          	0.009
MS.957         	2.78           	0.007
MS.958         	2.775          	0.005
MS.959         	2.767          	0.007
MS.960         	2.763          	0.005
MS.961         	2.757          	0.006
MS.962         	2.753          	0.005
MS.963         	2.747          	0.006
MS.964         	2.74           	0.01
MS.965         	2.735          	0.006
MS.966         	2.73           	0.01
MS.967         	2.725          	0.006
MS.968         	2.72           	0.009
MS.969         	2.715          	0.007
MS.970         	2.707          	0.007
MS.971         	2.702          	0.006
MS.972         	2.697          	0.006
MS.973         	2.692          	0.006
MS.974         	2.688          	0.006
MS.975         	2.682          	0.005
MS.976         	2.675          	0.004
MS.977         	2.67           	0.006
MS.978         	2.665          	0.005
MS.979         	2.66           	0.005
MS.980         	2.655          	0.006
MS.981         	2.65           	0.007
MS.982         	2.645          	0.006
MS.983         	2.64           	0.004
MS.984         	2.632          	0.004
MS.985         	2.628          	0.005
MS.986         	2.622          	0.007
MS.987         	2.617          	0.004
MS.988         	2.612          	0.007
MS.989         	2.607          	0.005
DERIVED EXCITABILITY VARIABLES
Program = QTracP 12/2/2021
Threshold method = 6 (optimised for CAP, using data for present condition only)
SR method = 1 (using actual data values)
6.                 	0.000               	Peak response\(mV)
9.                 	33.2                	Temperature ( C)
17.                	58                  	Age (years)
18.                	2                   	Sex (M=1, F=2)

EXTRA VARIABLES

MScPeak(mV) = 6.76
MScS5(mA) = 4.47
MScS50(mA) = 6.65
MScS95(mA) = 12.75
MScNSteps = 0
MScSteps(%) = 0.0
MScStepMax(%) = 0.0
MScD50 = 99
MScSlope = 2.09
MSFPeakAmp(mV) = 6.7
MSFNUnits = 140
MSFMeanUnitAmp(uV) = 47.9
MSFHuntTime(m) = 2.65
MSFError(%) = 2.95
MSFNLarge = 46.89
MSFMedianAmp(%) = 0.624
MSFMedianAmp(mV) = 0.0418
MSFHalfAmpAmp(%) = 0.735
MSFHalfAmpAmp(mV) = 0.0492
MSFLargestAmp(%) = 2.25
MSFLargestAmp(mV) = 0.151
MSFMeanRS(%) = 1.99
MSFOpts = 10106022032
MSFTraces = 945
MSFSizeLimit(uV) = 22.3
MSFLimitType = 1
MSFSmallestAmp(uV) = 22.9
MSFSDMax = 12.8
MSFSDMin = 1.07

EXTRA WAVEFORMS


!MScan Model
!140
	1	3.84	0.62	2
	2	3.87	1.1	2
	3	4.11	0.68	2
	4	4.18	0.4	2
	5	4.27	0.52	2
	6	4.34	0.53	2
	7	4.48	1.29	2
	8	4.57	1.05	2
	9	4.71	2.07	2
	10	4.75	0.44	2
	11	4.78	0.66	2
	12	4.81	0.57	2
	13	4.83	0.47	2
	14	4.87	0.73	2
	15	4.91	0.61	2
	16	4.95	0.81	2
	17	4.96	0.39	2
	18	4.99	0.57	2
	19	5.01	0.52	2
	20	5.03	0.41	2
	21	5.05	0.46	2
	22	5.07	0.44	2
	23	5.1	0.55	2
	24	5.11	0.37	2
	25	5.13	0.55	2
	26	5.16	0.48	2
	27	5.2	1.18	2
	28	5.24	0.72	2
	29	5.26	0.52	2
	30	5.3	1.06	2
	31	5.34	0.81	2
	32	5.39	0.69	2
	33	5.45	0.91	2
	34	5.48	0.53	2
	35	5.52	0.74	2
	36	5.56	0.89	2
	37	5.6	0.56	2
	38	5.63	0.58	2
	39	5.64	0.36	2
	40	5.66	0.39	2
	41	5.68	0.51	2
	42	5.68	0.63	2
	43	5.7	0.73	2
	44	5.72	0.71	2
	45	5.74	0.69	2
	46	5.77	0.82	2
	47	5.82	1.65	2
	48	5.82	0.58	2
	49	5.86	1.05	2
	50	5.89	0.96	2
	51	5.99	1.06	1.8
	52	6.05	1.06	2
	53	6.16	1.83	2
	54	6.23	0.77	2
	55	6.29	1.44	2
	56	6.34	1.06	2
	57	6.38	0.75	2
	58	6.41	0.59	2
	59	6.43	0.68	2
	60	6.46	0.84	2
	61	6.49	0.94	2
	62	6.52	0.83	2
	63	6.55	0.59	2
	64	6.59	1.02	2
	65	6.63	1.06	2
	66	6.67	1.14	2
	67	6.72	1.05	2
	68	6.77	1.04	2
	69	6.81	0.61	2
	70	6.84	0.65	2
	71	6.89	0.78	2
	72	6.9	0.39	2
	73	6.92	0.42	2
	74	6.96	0.65	2
	75	6.98	0.46	2
	76	7	0.47	2
	77	7.02	0.36	2
	78	7.04	0.42	2
	79	7.07	0.59	2
	80	7.1	0.82	2
	81	7.17	0.68	2
	82	7.22	0.62	2
	83	7.25	0.4	2
	84	7.31	0.7	2
	85	7.36	0.61	2
	86	7.42	0.74	2
	87	7.47	0.73	2
	88	7.5	0.34	2
	89	7.53	0.54	2
	90	7.57	0.5	2
	91	7.62	0.57	2
	92	7.65	0.44	2
	93	7.68	0.52	2
	94	7.7	0.42	2
	95	7.73	0.41	2
	96	7.77	0.52	2
	97	7.79	0.41	2
	98	7.83	0.86	2
	99	7.89	0.63	2
	100	8.03	0.91	2
	101	8.11	0.6	2
	102	8.17	0.7	2
	103	8.22	0.55	2
	104	8.26	0.4	2
	105	8.29	0.34	2
	106	8.32	0.36	2
	107	8.34	0.59	2
	108	8.35	0.37	2
	109	8.41	0.57	2
	110	8.43	0.37	2
	111	8.47	0.56	2
	112	8.75	1.5	2
	113	9.19	2.25	1.6
	114	9.61	1.31	2
	115	9.72	1.44	2
	116	9.8	0.87	2
	117	9.86	0.68	2
	118	9.93	0.78	2
	119	10	0.63	2
	120	10.16	1.32	2
	121	10.29	0.64	2
	122	10.41	0.59	2
	123	10.54	0.58	2
	124	10.74	0.6	2
	125	10.89	0.62	2
	126	10.97	0.4	2
	127	11.07	0.53	2
	128	11.18	0.64	2
	129	11.43	0.74	2
	130	11.75	0.67	2
	131	12	0.57	2
	132	12.29	0.59	2
	133	12.5	0.43	2
	134	12.97	0.86	2
	135	13.21	0.74	2
	136	13.75	1.11	2
	137	14.29	0.5	2
	138	14.91	0.59	2
	139	15.31	0.41	2
	140	15.8	0.47	2

