File:              	n:\Qtrac\Data\MScan\Normative Controls\CP Nerve\MSCC10717C.QZD
Name:              	MI06W
Protocol:          	MSCAN-R2
Date:              	17/7/21
Start time:        	10:17:20
Age:               	20
Sex:               	M
Temperature:       	32.8
S/R sites:         	Knee CP-TA
NC/disease:        	NC
Operator:          	BJ
Comments:
M-SCAN DATA (Repeat 2/2, 23.4-10.7m)
Scanpts: 2, 22, 737, 760
Stim. (mA)     	Amp. (mV)
MS.1           	10.5           	7.324
MS.2           	10.5           	7.351
MS.3           	10.48          	7.357
MS.4           	10.457         	7.333
MS.5           	10.438         	7.336
MS.6           	10.417         	7.335
MS.7           	10.395         	7.345
MS.8           	10.375         	7.345
MS.9           	10.355         	7.344
MS.10          	10.332         	7.34
MS.11          	10.312         	7.318
MS.12          	10.292         	7.34
MS.13          	10.273         	7.333
MS.14          	10.25          	7.35
MS.15          	10.23          	7.318
MS.16          	10.21          	7.339
MS.17          	10.19          	7.35
MS.18          	10.17          	7.363
MS.19          	10.15          	7.363
MS.20          	10.127         	7.361
MS.21          	10.108         	7.36
MS.22          	10.087         	7.391
MS.23          	10.068         	7.336
MS.24          	10.047         	7.347
MS.25          	10.028         	7.366
MS.26          	10.007         	7.357
MS.27          	9.988          	7.344
MS.28          	9.967          	7.34
MS.29          	9.948          	7.332
MS.30          	9.927          	7.354
MS.31          	9.907          	7.352
MS.32          	9.887          	7.344
MS.33          	9.87           	7.328
MS.34          	9.85           	7.344
MS.35          	9.83           	7.361
MS.36          	9.81           	7.349
MS.37          	9.79           	7.334
MS.38          	9.77           	7.336
MS.39          	9.75           	7.34
MS.40          	9.733          	7.334
MS.41          	9.712          	7.349
MS.42          	9.693          	7.35
MS.43          	9.672          	7.349
MS.44          	9.655          	7.336
MS.45          	9.635          	7.323
MS.46          	9.615          	7.323
MS.47          	9.597          	7.318
MS.48          	9.577          	7.334
MS.49          	9.557          	7.373
MS.50          	9.54           	7.316
MS.51          	9.52           	7.312
MS.52          	9.5            	7.318
MS.53          	9.483          	7.332
MS.54          	9.462          	7.302
MS.55          	9.445          	7.311
MS.56          	9.425          	7.301
MS.57          	9.407          	7.313
MS.58          	9.387          	7.31
MS.59          	9.367          	7.297
MS.60          	9.35           	7.31
MS.61          	9.332          	7.29
MS.62          	9.312          	7.308
MS.63          	9.295          	7.318
MS.64          	9.275          	7.312
MS.65          	9.257          	7.291
MS.66          	9.238          	7.318
MS.67          	9.22           	7.361
MS.68          	9.202          	7.314
MS.69          	9.182          	7.3
MS.70          	9.165          	7.284
MS.71          	9.148          	7.3
MS.72          	9.127          	7.305
MS.73          	9.11           	7.3
MS.74          	9.092          	7.308
MS.75          	9.073          	7.314
MS.76          	9.055          	7.312
MS.77          	9.037          	7.296
MS.78          	9.02           	7.294
MS.79          	9.002          	7.34
MS.80          	8.983          	7.274
MS.81          	8.965          	7.31
MS.82          	8.948          	7.299
MS.83          	8.93           	7.299
MS.84          	8.912          	7.302
MS.85          	8.895          	7.289
MS.86          	8.875          	7.261
MS.87          	8.858          	7.262
MS.88          	8.84           	7.3
MS.89          	8.823          	7.267
MS.90          	8.805          	7.277
MS.91          	8.787          	7.314
MS.92          	8.77           	7.29
MS.93          	8.752          	7.302
MS.94          	8.735          	7.25
MS.95          	8.717          	7.266
MS.96          	8.7            	7.262
MS.97          	8.682          	7.283
MS.98          	8.665          	7.267
MS.99          	8.648          	7.249
MS.100         	8.63           	7.219
MS.101         	8.615          	7.25
MS.102         	8.597          	7.281
MS.103         	8.58           	7.228
MS.104         	8.562          	7.26
MS.105         	8.545          	7.258
MS.106         	8.528          	7.241
MS.107         	8.51           	7.277
MS.108         	8.495          	7.299
MS.109         	8.477          	7.296
MS.110         	8.46           	7.261
MS.111         	8.443          	7.241
MS.112         	8.427          	7.238
MS.113         	8.41           	7.284
MS.114         	8.392          	7.273
MS.115         	8.375          	7.236
MS.116         	8.36           	7.244
MS.117         	8.342          	7.22
MS.118         	8.325          	7.19
MS.119         	8.31           	7.275
MS.120         	8.292          	7.284
MS.121         	8.275          	7.256
MS.122         	8.26           	7.258
MS.123         	8.242          	7.292
MS.124         	8.227          	7.271
MS.125         	8.21           	7.269
MS.126         	8.195          	7.126
MS.127         	8.177          	7.235
MS.128         	8.16           	7.245
MS.129         	8.145          	7.244
MS.130         	8.127          	7.192
MS.131         	8.113          	7.23
MS.132         	8.095          	7.135
MS.133         	8.08           	7.219
MS.134         	8.062          	7.106
MS.135         	8.047          	7.118
MS.136         	8.033          	7.157
MS.137         	8.015          	7.129
MS.138         	8              	7.195
MS.139         	7.982          	7.234
MS.140         	7.967          	7.225
MS.141         	7.952          	7.198
MS.142         	7.935          	7.155
MS.143         	7.92           	7.172
MS.144         	7.905          	7.263
MS.145         	7.887          	7.219
MS.146         	7.872          	7.214
MS.147         	7.857          	7.198
MS.148         	7.84           	7.061
MS.149         	7.825          	7.241
MS.150         	7.81           	7.097
MS.151         	7.795          	7.151
MS.152         	7.777          	7.084
MS.153         	7.762          	7.041
MS.154         	7.747          	7.123
MS.155         	7.732          	7.174
MS.156         	7.717          	7.108
MS.157         	7.7            	7.227
MS.158         	7.685          	7.024
MS.159         	7.67           	7.186
MS.160         	7.655          	7.166
MS.161         	7.64           	7.153
MS.162         	7.625          	7.17
MS.163         	7.61           	7.147
MS.164         	7.595          	6.874
MS.165         	7.58           	7.008
MS.166         	7.565          	7.026
MS.167         	7.547          	7.097
MS.168         	7.532          	7.037
MS.169         	7.517          	7.018
MS.170         	7.503          	6.969
MS.171         	7.487          	6.958
MS.172         	7.472          	6.772
MS.173         	7.457          	6.907
MS.174         	7.442          	6.934
MS.175         	7.43           	6.936
MS.176         	7.415          	6.904
MS.177         	7.4            	7
MS.178         	7.385          	7.039
MS.179         	7.37           	6.821
MS.180         	7.355          	6.881
MS.181         	7.34           	6.952
MS.182         	7.325          	6.869
MS.183         	7.31           	6.792
MS.184         	7.297          	6.855
MS.185         	7.282          	6.908
MS.186         	7.267          	6.904
MS.187         	7.253          	6.903
MS.188         	7.237          	6.862
MS.189         	7.225          	6.904
MS.190         	7.21           	6.899
MS.191         	7.195          	6.938
MS.192         	7.18           	7.019
MS.193         	7.165          	6.74
MS.194         	7.152          	6.848
MS.195         	7.137          	7.021
MS.196         	7.122          	6.809
MS.197         	7.11           	6.682
MS.198         	7.095          	6.831
MS.199         	7.08           	7.026
MS.200         	7.067          	6.746
MS.201         	7.052          	6.903
MS.202         	7.037          	6.841
MS.203         	7.025          	6.848
MS.204         	7.01           	6.724
MS.205         	6.997          	6.801
MS.206         	6.983          	6.75
MS.207         	6.967          	6.84
MS.208         	6.955          	6.862
MS.209         	6.94           	6.669
MS.210         	6.927          	6.844
MS.211         	6.912          	6.783
MS.212         	6.9            	6.748
MS.213         	6.885          	6.672
MS.214         	6.872          	6.948
MS.215         	6.858          	6.711
MS.216         	6.845          	6.591
MS.217         	6.83           	6.757
MS.218         	6.817          	6.663
MS.219         	6.802          	6.46
MS.220         	6.79           	6.627
MS.221         	6.775          	6.65
MS.222         	6.762          	6.366
MS.223         	6.75           	6.477
MS.224         	6.735          	6.434
MS.225         	6.722          	6.729
MS.226         	6.707          	6.594
MS.227         	6.695          	6.603
MS.228         	6.682          	6.543
MS.229         	6.668          	6.351
MS.230         	6.655          	6.481
MS.231         	6.642          	6.542
MS.232         	6.628          	6.198
MS.233         	6.615          	6.594
MS.234         	6.602          	6.425
MS.235         	6.59           	6.453
MS.236         	6.575          	6.456
MS.237         	6.562          	6.434
MS.238         	6.55           	6.353
MS.239         	6.537          	6.406
MS.240         	6.523          	6.267
MS.241         	6.51           	6.334
MS.242         	6.497          	6.282
MS.243         	6.485          	6.431
MS.244         	6.472          	6.471
MS.245         	6.457          	6.521
MS.246         	6.445          	6.305
MS.247         	6.432          	6.436
MS.248         	6.42           	6.241
MS.249         	6.407          	6.305
MS.250         	6.395          	6.331
MS.251         	6.382          	6.417
MS.252         	6.367          	6.36
MS.253         	6.355          	6.189
MS.254         	6.342          	6.226
MS.255         	6.33           	6.157
MS.256         	6.317          	6.115
MS.257         	6.305          	5.952
MS.258         	6.293          	5.944
MS.259         	6.28           	5.997
MS.260         	6.267          	6.003
MS.261         	6.255          	5.984
MS.262         	6.242          	5.837
MS.263         	6.23           	6.001
MS.264         	6.217          	5.83
MS.265         	6.205          	5.85
MS.266         	6.192          	5.944
MS.267         	6.18           	5.814
MS.268         	6.168          	5.867
MS.269         	6.155          	5.793
MS.270         	6.142          	5.826
MS.271         	6.13           	5.789
MS.272         	6.12           	5.728
MS.273         	6.108          	5.739
MS.274         	6.095          	5.789
MS.275         	6.082          	5.753
MS.276         	6.07           	5.585
MS.277         	6.057          	5.614
MS.278         	6.045          	5.625
MS.279         	6.035          	5.597
MS.280         	6.023          	5.568
MS.281         	6.01           	5.557
MS.282         	5.997          	5.703
MS.283         	5.985          	5.582
MS.284         	5.972          	5.665
MS.285         	5.963          	5.554
MS.286         	5.95           	5.591
MS.287         	5.938          	5.582
MS.288         	5.925          	5.425
MS.289         	5.915          	5.54
MS.290         	5.902          	5.428
MS.291         	5.89           	5.548
MS.292         	5.88           	5.367
MS.293         	5.867          	5.354
MS.294         	5.855          	5.295
MS.295         	5.845          	5.43
MS.296         	5.832          	5.338
MS.297         	5.82           	5.315
MS.298         	5.81           	5.276
MS.299         	5.797          	5.192
MS.300         	5.785          	5.236
MS.301         	5.775          	5.15
MS.302         	5.762          	5.175
MS.303         	5.75           	5.126
MS.304         	5.74           	5.071
MS.305         	5.727          	5.013
MS.306         	5.717          	4.989
MS.307         	5.705          	5.027
MS.308         	5.695          	5.139
MS.309         	5.682          	4.924
MS.310         	5.67           	4.961
MS.311         	5.66           	4.868
MS.312         	5.648          	4.774
MS.313         	5.637          	4.945
MS.314         	5.625          	4.812
MS.315         	5.615          	4.894
MS.316         	5.602          	4.757
MS.317         	5.592          	4.78
MS.318         	5.58           	4.742
MS.319         	5.57           	4.709
MS.320         	5.56           	4.576
MS.321         	5.547          	4.642
MS.322         	5.537          	4.508
MS.323         	5.525          	4.526
MS.324         	5.515          	4.534
MS.325         	5.503          	4.481
MS.326         	5.492          	4.436
MS.327         	5.483          	4.497
MS.328         	5.47           	4.344
MS.329         	5.46           	4.388
MS.330         	5.447          	4.172
MS.331         	5.438          	4.327
MS.332         	5.427          	4.132
MS.333         	5.415          	4.219
MS.334         	5.405          	4.282
MS.335         	5.395          	4.097
MS.336         	5.382          	4.105
MS.337         	5.372          	3.928
MS.338         	5.362          	3.96
MS.339         	5.352          	3.79
MS.340         	5.34           	4.032
MS.341         	5.33           	3.862
MS.342         	5.32           	3.888
MS.343         	5.31           	3.929
MS.344         	5.297          	3.8
MS.345         	5.287          	3.925
MS.346         	5.277          	3.669
MS.347         	5.267          	3.795
MS.348         	5.255          	3.798
MS.349         	5.245          	3.654
MS.350         	5.235          	3.824
MS.351         	5.225          	3.545
MS.352         	5.215          	3.71
MS.353         	5.202          	3.483
MS.354         	5.193          	3.629
MS.355         	5.182          	3.477
MS.356         	5.172          	3.483
MS.357         	5.162          	3.473
MS.358         	5.152          	3.381
MS.359         	5.142          	3.323
MS.360         	5.132          	3.25
MS.361         	5.12           	3.23
MS.362         	5.11           	3.376
MS.363         	5.1            	3.179
MS.364         	5.09           	3.208
MS.365         	5.08           	3.192
MS.366         	5.07           	3.228
MS.367         	5.06           	3.152
MS.368         	5.05           	3.031
MS.369         	5.04           	3.027
MS.370         	5.03           	3.014
MS.371         	5.02           	3.047
MS.372         	5.01           	2.941
MS.373         	5              	2.986
MS.374         	4.99           	2.924
MS.375         	4.98           	2.931
MS.376         	4.97           	2.793
MS.377         	4.96           	2.976
MS.378         	4.95           	2.686
MS.379         	4.94           	2.771
MS.380         	4.93           	2.917
MS.381         	4.92           	2.787
MS.382         	4.91           	2.747
MS.383         	4.9            	2.672
MS.384         	4.89           	2.715
MS.385         	4.88           	2.66
MS.386         	4.872          	2.74
MS.387         	4.862          	2.592
MS.388         	4.852          	2.667
MS.389         	4.842          	2.605
MS.390         	4.832          	2.543
MS.391         	4.822          	2.504
MS.392         	4.812          	2.291
MS.393         	4.802          	2.399
MS.394         	4.795          	2.441
MS.395         	4.785          	2.413
MS.396         	4.775          	2.329
MS.397         	4.765          	2.356
MS.398         	4.755          	2.251
MS.399         	4.747          	2.312
MS.400         	4.737          	2.179
MS.401         	4.727          	2.179
MS.402         	4.717          	2.015
MS.403         	4.707          	2.083
MS.404         	4.7            	1.987
MS.405         	4.69           	1.83
MS.406         	4.68           	1.986
MS.407         	4.67           	1.892
MS.408         	4.662          	1.964
MS.409         	4.652          	1.823
MS.410         	4.642          	1.752
MS.411         	4.635          	1.774
MS.412         	4.625          	1.91
MS.413         	4.615          	1.733
MS.414         	4.605          	1.658
MS.415         	4.597          	1.603
MS.416         	4.588          	1.655
MS.417         	4.577          	1.554
MS.418         	4.57           	1.534
MS.419         	4.56           	1.537
MS.420         	4.55           	1.493
MS.421         	4.543          	1.619
MS.422         	4.532          	1.519
MS.423         	4.525          	1.591
MS.424         	4.515          	1.483
MS.425         	4.505          	1.445
MS.426         	4.497          	1.354
MS.427         	4.487          	1.31
MS.428         	4.48           	1.381
MS.429         	4.47           	1.283
MS.430         	4.46           	1.323
MS.431         	4.452          	1.306
MS.432         	4.443          	1.228
MS.433         	4.435          	1.378
MS.434         	4.425          	1.331
MS.435         	4.418          	1.321
MS.436         	4.407          	1.335
MS.437         	4.4            	1.301
MS.438         	4.39           	1.207
MS.439         	4.382          	1.211
MS.440         	4.372          	1.124
MS.441         	4.365          	1.113
MS.442         	4.355          	1.129
MS.443         	4.347          	1.115
MS.444         	4.338          	1.09
MS.445         	4.33           	0.897
MS.446         	4.32           	1.061
MS.447         	4.312          	1.034
MS.448         	4.302          	0.975
MS.449         	4.295          	0.901
MS.450         	4.285          	0.968
MS.451         	4.277          	0.846
MS.452         	4.27           	0.886
MS.453         	4.26           	0.928
MS.454         	4.253          	0.767
MS.455         	4.242          	0.845
MS.456         	4.235          	0.795
MS.457         	4.227          	0.743
MS.458         	4.217          	0.757
MS.459         	4.21           	0.76
MS.460         	4.2            	0.732
MS.461         	4.193          	0.728
MS.462         	4.185          	0.685
MS.463         	4.175          	0.63
MS.464         	4.168          	0.671
MS.465         	4.16           	0.637
MS.466         	4.15           	0.68
MS.467         	4.142          	0.632
MS.468         	4.135          	0.59
MS.469         	4.128          	0.554
MS.470         	4.117          	0.553
MS.471         	4.11           	0.559
MS.472         	4.102          	0.613
MS.473         	4.092          	0.568
MS.474         	4.085          	0.549
MS.475         	4.077          	0.511
MS.476         	4.07           	0.494
MS.477         	4.06           	0.507
MS.478         	4.052          	0.479
MS.479         	4.045          	0.499
MS.480         	4.037          	0.461
MS.481         	4.027          	0.504
MS.482         	4.02           	0.537
MS.483         	4.012          	0.491
MS.484         	4.005          	0.405
MS.485         	3.997          	0.4
MS.486         	3.987          	0.381
MS.487         	3.98           	0.399
MS.488         	3.972          	0.421
MS.489         	3.965          	0.347
MS.490         	3.957          	0.349
MS.491         	3.947          	0.365
MS.492         	3.94           	0.32
MS.493         	3.932          	0.315
MS.494         	3.925          	0.344
MS.495         	3.918          	0.309
MS.496         	3.91           	0.339
MS.497         	3.902          	0.264
MS.498         	3.895          	0.225
MS.499         	3.885          	0.259
MS.500         	3.877          	0.229
MS.501         	3.87           	0.267
MS.502         	3.862          	0.221
MS.503         	3.855          	0.209
MS.504         	3.847          	0.193
MS.505         	3.84           	0.222
MS.506         	3.832          	0.194
MS.507         	3.825          	0.181
MS.508         	3.817          	0.188
MS.509         	3.81           	0.217
MS.510         	3.803          	0.171
MS.511         	3.795          	0.168
MS.512         	3.785          	0.17
MS.513         	3.777          	0.167
MS.514         	3.77           	0.172
MS.515         	3.762          	0.159
MS.516         	3.755          	0.154
MS.517         	3.747          	0.156
MS.518         	3.74           	0.145
MS.519         	3.732          	0.151
MS.520         	3.725          	0.135
MS.521         	3.717          	0.151
MS.522         	3.712          	0.15
MS.523         	3.705          	0.145
MS.524         	3.697          	0.132
MS.525         	3.69           	0.125
MS.526         	3.682          	0.145
MS.527         	3.675          	0.173
MS.528         	3.668          	0.127
MS.529         	3.66           	0.128
MS.530         	3.652          	0.137
MS.531         	3.645          	0.133
MS.532         	3.637          	0.111
MS.533         	3.63           	0.098
MS.534         	3.622          	0.085
MS.535         	3.615          	0.121
MS.536         	3.61           	0.116
MS.537         	3.602          	0.105
MS.538         	3.595          	0.105
MS.539         	3.587          	0.114
MS.540         	3.58           	0.104
MS.541         	3.572          	0.072
MS.542         	3.565          	0.126
MS.543         	3.557          	0.107
MS.544         	3.553          	0.083
MS.545         	3.545          	0.093
MS.546         	3.537          	0.094
MS.547         	3.53           	0.072
MS.548         	3.523          	0.105
MS.549         	3.515          	0.084
MS.550         	3.51           	0.067
MS.551         	3.502          	0.078
MS.552         	3.495          	0.067
MS.553         	3.487          	0.057
MS.554         	3.48           	0.057
MS.555         	3.475          	0.076
MS.556         	3.467          	0.068
MS.557         	3.46           	0.054
MS.558         	3.452          	0.088
MS.559         	3.447          	0.06
MS.560         	3.44           	0.054
MS.561         	3.432          	0.065
MS.562         	3.425          	0.059
MS.563         	3.42           	0.051
MS.564         	3.412          	0.052
MS.565         	3.405          	0.05
MS.566         	3.398          	0.037
MS.567         	3.392          	0.027
MS.568         	3.385          	0.067
MS.569         	3.377          	0.026
MS.570         	3.372          	0.048
MS.571         	3.365          	0.023
MS.572         	3.357          	0.033
MS.573         	3.352          	0.021
MS.574         	3.345          	0.024
MS.575         	3.337          	0.022
MS.576         	3.332          	0.026
MS.577         	3.325          	0.029
MS.578         	3.317          	0.029
MS.579         	3.312          	0.031
MS.580         	3.305          	0.027
MS.581         	3.297          	0.026
MS.582         	3.293          	0.023
MS.583         	3.285          	0.028
MS.584         	3.277          	0.02
MS.585         	3.273          	0.022
MS.586         	3.265          	0.026
MS.587         	3.26           	0.022
MS.588         	3.252          	0.023
MS.589         	3.245          	0.02
MS.590         	3.24           	0.023
MS.591         	3.232          	0.026
MS.592         	3.227          	0.022
MS.593         	3.22           	0.027
MS.594         	3.212          	0.022
MS.595         	3.207          	0.018
MS.596         	3.2            	0.023
MS.597         	3.195          	0.024
MS.598         	3.188          	0.02
MS.599         	3.182          	0.02
MS.600         	3.175          	0.02
MS.601         	3.17           	0.023
MS.602         	3.162          	0.022
MS.603         	3.155          	0.018
MS.604         	3.15           	0.021
MS.605         	3.142          	0.02
MS.606         	3.138          	0.021
MS.607         	3.13           	0.018
MS.608         	3.125          	0.02
MS.609         	3.117          	0.018
MS.610         	3.112          	0.021
MS.611         	3.105          	0.022
MS.612         	3.1            	0.021
MS.613         	3.092          	0.022
MS.614         	3.087          	0.026
MS.615         	3.082          	0.021
MS.616         	3.075          	0.021
MS.617         	3.07           	0.02
MS.618         	3.062          	0.021
MS.619         	3.057          	0.021
MS.620         	3.05           	0.021
MS.621         	3.045          	0.021
MS.622         	3.037          	0.021
MS.623         	3.033          	0.018
MS.624         	3.027          	0.018
MS.625         	3.02           	0.018
MS.626         	3.015          	0.021
MS.627         	3.007          	0.023
MS.628         	3.002          	0.021
MS.629         	2.997          	0.021
MS.630         	2.99           	0.021
MS.631         	2.985          	0.023
MS.632         	2.977          	0.024
MS.633         	2.972          	0.018
MS.634         	2.967          	0.018
MS.635         	2.96           	0.022
MS.636         	2.955          	0.018
MS.637         	2.947          	0.02
MS.638         	2.942          	0.023
MS.639         	2.938          	0.022
MS.640         	2.93           	0.024
MS.641         	2.925          	0.018
MS.642         	2.92           	0.021
MS.643         	2.912          	0.018
MS.644         	2.908          	0.023
MS.645         	2.902          	0.017
MS.646         	2.895          	0.022
MS.647         	2.89           	0.018
MS.648         	2.885          	0.018
MS.649         	2.88           	0.022
MS.650         	2.872          	0.021
MS.651         	2.867          	0.021
MS.652         	2.862          	0.021
MS.653         	2.855          	0.023
MS.654         	2.85           	0.021
MS.655         	2.845          	0.018
MS.656         	2.84           	0.018
MS.657         	2.832          	0.021
MS.658         	2.827          	0.022
MS.659         	2.822          	0.022
MS.660         	2.815          	0.02
MS.661         	2.81           	0.026
MS.662         	2.805          	0.02
MS.663         	2.8            	0.02
MS.664         	2.793          	0.023
MS.665         	2.787          	0.022
MS.666         	2.783          	0.018
MS.667         	2.777          	0.02
MS.668         	2.773          	0.02
MS.669         	2.765          	0.02
MS.670         	2.76           	0.021
MS.671         	2.755          	0.018
MS.672         	2.75           	0.021
MS.673         	2.745          	0.021
MS.674         	2.737          	0.02
MS.675         	2.732          	0.02
MS.676         	2.727          	0.02
MS.677         	2.722          	0.02
MS.678         	2.717          	0.023
MS.679         	2.71           	0.021
MS.680         	2.705          	0.021
MS.681         	2.7            	0.022
MS.682         	2.695          	0.02
MS.683         	2.69           	0.02
MS.684         	2.685          	0.021
MS.685         	2.68           	0.023
MS.686         	2.672          	0.021
MS.687         	2.668          	0.022
MS.688         	2.662          	0.021
MS.689         	2.658          	0.021
MS.690         	2.652          	0.022
MS.691         	2.648          	0.021
MS.692         	2.642          	0.021
MS.693         	2.638          	0.022
MS.694         	2.63           	0.02
MS.695         	2.625          	0.022
MS.696         	2.62           	0.023
MS.697         	2.615          	0.018
MS.698         	2.61           	0.022
MS.699         	2.605          	0.02
MS.700         	2.6            	0.033
MS.701         	2.595          	0.021
MS.702         	2.59           	0.022
MS.703         	2.585          	0.023
MS.704         	2.58           	0.021
MS.705         	2.575          	0.02
MS.706         	2.567          	0.02
MS.707         	2.562          	0.017
MS.708         	2.557          	0.018
MS.709         	2.553          	0.02
MS.710         	2.547          	0.021
MS.711         	2.543          	0.022
MS.712         	2.537          	0.022
MS.713         	2.533          	0.022
MS.714         	2.527          	0.018
MS.715         	2.523          	0.018
MS.716         	2.517          	0.021
MS.717         	2.513          	0.018
MS.718         	2.507          	0.023
MS.719         	2.503          	0.022
MS.720         	2.497          	0.018
MS.721         	2.492          	0.022
MS.722         	2.487          	0.021
MS.723         	2.482          	0.021
MS.724         	2.477          	0.02
MS.725         	2.472          	0.01
MS.726         	2.467          	0.022
MS.727         	2.462          	0.022
MS.728         	2.457          	0.007
MS.729         	2.452          	0.009
MS.730         	2.447          	0.021
MS.731         	2.442          	0.011
MS.732         	2.438          	0.022
MS.733         	2.432          	0.021
MS.734         	2.428          	0.022
MS.735         	2.425          	0.022
MS.736         	2.42           	0.017
MS.737         	2.415          	0.017
MS.738         	2.41           	0.007
MS.739         	2.405          	0.02
MS.740         	2.4            	0.01
MS.741         	2.395          	0.012
MS.742         	2.39           	0.009
MS.743         	2.385          	0.021
MS.744         	2.38           	0.017
MS.745         	2.375          	0.006
MS.746         	2.37           	0.012
MS.747         	2.367          	0.012
MS.748         	2.362          	0.01
MS.749         	2.357          	0.009
MS.750         	2.352          	0.017
MS.751         	2.347          	0.009
MS.752         	2.342          	0.02
MS.753         	2.337          	0.007
MS.754         	2.332          	0.012
MS.755         	2.33           	0.007
MS.756         	2.325          	0.011
MS.757         	2.32           	0.01
MS.758         	2.315          	0.009
MS.759         	2.31           	0.009
MS.760         	2.305          	0.01
MS.761         	2.3            	0.01
MS.762         	2.297          	0.01
DERIVED EXCITABILITY VARIABLES
Program = QTracP 12/2/2021
Threshold method = 6 (optimised for CAP, using data for present condition only)
SR method = 1 (using actual data values)
6.                 	0.000               	Peak response\(mV)
9.                 	32.8                	Temperature ( C)
17.                	20                  	Age (years)
18.                	1                   	Sex (M=1, F=2)

EXTRA VARIABLES

MScPeak(mV) = 7.34
MScS5(mA) = 3.97
MScS50(mA) = 5.24
MScS95(mA) = 7.3
MScNSteps = 0
MScSteps(%) = 0.0
MScStepMax(%) = 0.0
MScD50 = 65
MScSlope = 4.19
MSFPeakAmp(mV) = 7.33
MSFNUnits = 159
MSFMeanUnitAmp(uV) = 46.1
MSFHuntTime(m) = 2.84
MSFError(%) = 2.29
MSFNLarge = 54.85
MSFMedianAmp(%) = 0.555
MSFMedianAmp(mV) = 0.0407
MSFHalfAmpAmp(%) = 0.638
MSFHalfAmpAmp(mV) = 0.0468
MSFLargestAmp(%) = 2.44
MSFLargestAmp(mV) = 0.179
MSFMeanRS(%) = 2
MSFOpts = 10106022032
MSFTraces = 759
MSFSizeLimit(uV) = 24.4
MSFLimitType = 1
MSFSmallestAmp(uV) = 24.8
MSFSDMax = 16.3
MSFSDMin = 4.45

EXTRA WAVEFORMS


!MScan Model
!159
	1	3.36	0.65	1.6
	2	3.6	0.98	2
	3	3.8	0.69	2
	4	3.85	0.57	2
	5	3.88	0.59	2
	6	3.93	0.69	2
	7	3.94	0.39	2
	8	3.96	0.42	2
	9	3.98	0.56	2
	10	4.01	0.45	2
	11	4.03	0.43	2
	12	4.07	0.66	2
	13	4.1	0.39	2
	14	4.12	0.37	2
	15	4.13	0.38	2
	16	4.16	0.46	2
	17	4.18	0.61	2
	18	4.2	0.35	2
	19	4.21	0.39	2
	20	4.23	0.54	2
	21	4.24	0.41	2
	22	4.26	0.75	2
	23	4.29	0.81	2
	24	4.3	0.55	2
	25	4.32	0.69	2
	26	4.33	0.64	2
	27	4.35	0.69	2
	28	4.37	0.58	2
	29	4.38	0.4	2
	30	4.41	0.93	2
	31	4.45	0.81	2
	32	4.46	0.66	2
	33	4.48	0.58	2
	34	4.5	0.48	2
	35	4.53	0.67	2
	36	4.54	0.67	2
	37	4.56	0.73	2
	38	4.57	0.42	2
	39	4.58	0.42	2
	40	4.61	0.92	2
	41	4.62	0.65	2
	42	4.63	0.34	2
	43	4.64	0.45	2
	44	4.65	0.45	2
	45	4.66	0.44	2
	46	4.67	0.48	2
	47	4.68	0.5	2
	48	4.69	0.58	2
	49	4.7	0.75	2
	50	4.72	0.64	2
	51	4.73	0.67	2
	52	4.74	0.36	2
	53	4.75	0.44	2
	54	4.75	0.44	2
	55	4.76	0.49	2
	56	4.77	0.49	2
	57	4.78	0.54	2
	58	4.79	0.56	2
	59	4.8	0.51	2
	60	4.81	0.42	2
	61	4.82	0.37	2
	62	4.83	0.63	2
	63	4.84	0.37	2
	64	4.85	0.37	2
	65	4.87	0.98	2
	66	4.9	1.02	2
	67	4.93	0.81	2
	68	4.95	0.67	2
	69	4.97	0.65	2
	70	4.99	0.62	2
	71	5	0.44	2
	72	5.02	0.62	2
	73	5.03	0.47	2
	74	5.04	0.53	2
	75	5.05	0.37	2
	76	5.07	0.74	2
	77	5.09	0.83	2
	78	5.11	0.65	2
	79	5.12	0.47	2
	80	5.13	0.41	2
	81	5.14	0.39	2
	82	5.14	0.53	2
	83	5.17	0.64	2
	84	5.18	0.64	2
	85	5.19	0.39	2
	86	5.2	0.5	2
	87	5.21	0.84	2
	88	5.23	0.64	2
	89	5.24	0.61	2
	90	5.29	1.41	2
	91	5.31	0.65	2
	92	5.33	0.72	2
	93	5.35	0.84	2
	94	5.36	0.49	2
	95	5.37	0.37	2
	96	5.38	0.36	2
	97	5.39	0.56	2
	98	5.4	0.56	2
	99	5.41	0.53	2
	100	5.42	0.52	2
	101	5.43	0.48	2
	102	5.44	0.52	2
	103	5.45	0.46	2
	104	5.47	0.6	2
	105	5.48	0.46	2
	106	5.49	0.61	2
	107	5.5	0.52	2
	108	5.52	0.66	2
	109	5.54	0.69	2
	110	5.55	0.55	2
	111	5.56	0.43	2
	112	5.58	0.61	2
	113	5.59	0.45	2
	114	5.6	0.49	2
	115	5.61	0.45	2
	116	5.62	0.41	2
	117	5.63	0.49	2
	118	5.65	0.55	2
	119	5.66	0.39	2
	120	5.68	0.46	2
	121	5.7	0.68	2
	122	5.72	0.76	2
	123	5.74	0.61	2
	124	5.76	0.38	2
	125	5.77	0.62	2
	126	5.8	0.56	2
	127	5.81	0.38	2
	128	5.82	0.46	2
	129	5.83	0.4	2
	130	5.84	0.35	2
	131	5.85	0.34	2
	132	5.87	0.5	2
	133	5.89	0.55	2
	134	5.9	0.51	2
	135	5.96	1.2	2
	136	6.03	1.12	2
	137	6.08	0.74	2
	138	6.12	0.81	2
	139	6.15	0.64	2
	140	6.2	1.05	2
	141	6.24	0.64	2
	142	6.26	0.58	2
	143	6.27	0.57	2
	144	6.29	0.45	2
	145	6.3	0.4	2
	146	6.31	0.37	2
	147	6.32	0.43	2
	148	6.34	0.48	2
	149	6.38	2.44	2
	150	6.65	2.33	2
	151	6.82	1.89	2
	152	7.04	1.49	2
	153	7.04	0.99	2
	154	7.48	1.3	2
	155	7.57	1.64	2
	156	7.98	1.18	2
	157	7.98	0.79	2
	158	8.92	0.89	2
	159	9.54	0.43	2

