File:              	n:\Qtrac\Data\MScan\Normative Controls\CP Nerve\MSCC10731C.QZD
Name:              	WE08N
Protocol:          	MSCAN-R2
Date:              	31/7/21
Start time:        	10:02:33
Age:               	58
Sex:               	M
Temperature:       	38
S/R sites:         	Knee CP-TA
NC/disease:        	NC
Operator:          	BJ
Comments:
M-SCAN DATA (13.2-2.9m)
Scanpts: 20, 38, 643, 662
Stim. (mA)     	Amp. (mV)
MS.1           	13             	7.772
MS.2           	13             	7.838
MS.3           	13             	8.029
MS.4           	13             	7.872
MS.5           	13             	7.783
MS.6           	13             	7.797
MS.7           	13             	7.793
MS.8           	13             	7.778
MS.9           	13             	7.795
MS.10          	13             	7.78
MS.11          	13             	7.786
MS.12          	13             	7.816
MS.13          	13             	7.773
MS.14          	13             	7.788
MS.15          	13             	7.793
MS.16          	13             	7.827
MS.17          	13             	7.834
MS.18          	13             	7.827
MS.19          	13             	7.865
MS.20          	13             	7.823
MS.21          	13             	7.836
MS.22          	13             	7.811
MS.23          	13             	7.805
MS.24          	12.947         	7.839
MS.25          	12.922         	7.87
MS.26          	12.898         	7.855
MS.27          	12.87          	7.869
MS.28          	12.845         	7.86
MS.29          	12.82          	7.832
MS.30          	12.792         	7.845
MS.31          	12.767         	7.795
MS.32          	12.742         	7.836
MS.33          	12.717         	7.783
MS.34          	12.693         	7.837
MS.35          	12.667         	7.866
MS.36          	12.64          	7.826
MS.37          	12.615         	7.831
MS.38          	12.59          	7.811
MS.39          	12.565         	7.832
MS.40          	12.54          	7.859
MS.41          	12.515         	7.838
MS.42          	12.49          	7.808
MS.43          	12.465         	7.897
MS.44          	12.44          	7.848
MS.45          	12.415         	7.751
MS.46          	12.39          	7.882
MS.47          	12.365         	7.793
MS.48          	12.34          	7.719
MS.49          	12.318         	7.756
MS.50          	12.292         	7.723
MS.51          	12.267         	7.601
MS.52          	12.242         	7.644
MS.53          	12.217         	7.694
MS.54          	12.195         	7.692
MS.55          	12.17          	7.604
MS.56          	12.145         	7.617
MS.57          	12.12          	7.712
MS.58          	12.097         	7.66
MS.59          	12.072         	7.592
MS.60          	12.047         	7.67
MS.61          	12.025         	7.686
MS.62          	12             	7.628
MS.63          	11.977         	7.665
MS.64          	11.952         	7.62
MS.65          	11.927         	7.614
MS.66          	11.905         	7.581
MS.67          	11.88          	7.527
MS.68          	11.858         	7.631
MS.69          	11.832         	7.484
MS.70          	11.81          	7.66
MS.71          	11.787         	7.584
MS.72          	11.762         	7.505
MS.73          	11.74          	7.604
MS.74          	11.715         	7.524
MS.75          	11.693         	7.466
MS.76          	11.67          	7.48
MS.77          	11.645         	7.52
MS.78          	11.622         	7.52
MS.79          	11.6           	7.479
MS.80          	11.575         	7.506
MS.81          	11.552         	7.488
MS.82          	11.53          	7.446
MS.83          	11.507         	7.357
MS.84          	11.485         	7.448
MS.85          	11.46          	7.332
MS.86          	11.438         	7.235
MS.87          	11.415         	7.352
MS.88          	11.392         	7.262
MS.89          	11.37          	7.223
MS.90          	11.347         	7.272
MS.91          	11.325         	7.217
MS.92          	11.302         	7.225
MS.93          	11.28          	7.217
MS.94          	11.257         	7.166
MS.95          	11.235         	7.308
MS.96          	11.212         	7.336
MS.97          	11.19          	7.218
MS.98          	11.167         	7.196
MS.99          	11.145         	7.178
MS.100         	11.122         	7.157
MS.101         	11.1           	7.163
MS.102         	11.077         	7.084
MS.103         	11.055         	7.091
MS.104         	11.032         	7.051
MS.105         	11.012         	7.031
MS.106         	10.99          	7.119
MS.107         	10.967         	7.023
MS.108         	10.945         	7.102
MS.109         	10.925         	7.07
MS.110         	10.903         	7.13
MS.111         	10.88          	6.96
MS.112         	10.858         	7.047
MS.113         	10.837         	7.004
MS.114         	10.815         	6.978
MS.115         	10.792         	6.929
MS.116         	10.773         	6.753
MS.117         	10.75          	6.956
MS.118         	10.73          	6.858
MS.119         	10.707         	6.885
MS.120         	10.685         	6.914
MS.121         	10.665         	6.935
MS.122         	10.642         	6.809
MS.123         	10.622         	6.862
MS.124         	10.6           	6.816
MS.125         	10.58          	6.906
MS.126         	10.557         	6.909
MS.127         	10.537         	6.886
MS.128         	10.517         	6.799
MS.129         	10.495         	6.782
MS.130         	10.475         	6.731
MS.131         	10.452         	6.725
MS.132         	10.432         	6.584
MS.133         	10.412         	6.786
MS.134         	10.39          	6.525
MS.135         	10.37          	6.702
MS.136         	10.35          	6.792
MS.137         	10.33          	6.578
MS.138         	10.307         	6.782
MS.139         	10.287         	6.588
MS.140         	10.267         	6.639
MS.141         	10.247         	6.479
MS.142         	10.225         	6.501
MS.143         	10.205         	6.462
MS.144         	10.185         	6.608
MS.145         	10.165         	6.602
MS.146         	10.145         	6.508
MS.147         	10.125         	6.488
MS.148         	10.105         	6.587
MS.149         	10.085         	6.592
MS.150         	10.065         	6.443
MS.151         	10.042         	6.399
MS.152         	10.023         	6.644
MS.153         	10.002         	6.505
MS.154         	9.983          	6.378
MS.155         	9.962          	6.494
MS.156         	9.945          	6.482
MS.157         	9.925          	6.434
MS.158         	9.905          	6.354
MS.159         	9.885          	6.602
MS.160         	9.865          	6.299
MS.161         	9.845          	6.575
MS.162         	9.825          	6.183
MS.163         	9.805          	6.321
MS.164         	9.785          	6.573
MS.165         	9.767          	6.156
MS.166         	9.747          	6.143
MS.167         	9.727          	6.216
MS.168         	9.707          	6.499
MS.169         	9.688          	6.04
MS.170         	9.67           	6.401
MS.171         	9.65           	6.041
MS.172         	9.63           	5.989
MS.173         	9.613          	6.274
MS.174         	9.592          	6.047
MS.175         	9.573          	6.132
MS.176         	9.555          	6.248
MS.177         	9.535          	6.071
MS.178         	9.515          	6.094
MS.179         	9.497          	6.038
MS.180         	9.477          	6.066
MS.181         	9.46           	6.191
MS.182         	9.44           	5.746
MS.183         	9.42           	6.309
MS.184         	9.403          	5.673
MS.185         	9.382          	5.991
MS.186         	9.365          	5.924
MS.187         	9.345          	5.679
MS.188         	9.327          	5.718
MS.189         	9.307          	5.688
MS.190         	9.29           	5.701
MS.191         	9.273          	5.605
MS.192         	9.252          	5.63
MS.193         	9.235          	5.61
MS.194         	9.215          	5.587
MS.195         	9.198          	5.408
MS.196         	9.18           	5.405
MS.197         	9.16           	5.519
MS.198         	9.142          	5.366
MS.199         	9.125          	5.242
MS.200         	9.105          	5.411
MS.201         	9.087          	5.372
MS.202         	9.07           	5.347
MS.203         	9.052          	5.337
MS.204         	9.033          	5.319
MS.205         	9.015          	5.208
MS.206         	8.997          	5.05
MS.207         	8.98           	5.176
MS.208         	8.962          	5.037
MS.209         	8.943          	5.074
MS.210         	8.925          	5.201
MS.211         	8.908          	5.134
MS.212         	8.89           	5.071
MS.213         	8.872          	5.043
MS.214         	8.855          	5.089
MS.215         	8.837          	4.973
MS.216         	8.82           	5.051
MS.217         	8.802          	4.895
MS.218         	8.785          	4.978
MS.219         	8.767          	4.912
MS.220         	8.75           	4.596
MS.221         	8.733          	4.865
MS.222         	8.715          	4.843
MS.223         	8.698          	4.933
MS.224         	8.68           	4.778
MS.225         	8.662          	4.641
MS.226         	8.645          	4.867
MS.227         	8.627          	4.745
MS.228         	8.61           	4.763
MS.229         	8.592          	4.615
MS.230         	8.575          	4.653
MS.231         	8.557          	4.377
MS.232         	8.542          	4.474
MS.233         	8.525          	4.496
MS.234         	8.507          	4.683
MS.235         	8.49           	4.177
MS.236         	8.472          	4.463
MS.237         	8.457          	4.287
MS.238         	8.44           	4.366
MS.239         	8.422          	4.5
MS.240         	8.405          	4.344
MS.241         	8.39           	4.287
MS.242         	8.372          	4.048
MS.243         	8.355          	4.308
MS.244         	8.34           	4.133
MS.245         	8.323          	4.03
MS.246         	8.305          	4.114
MS.247         	8.29           	3.997
MS.248         	8.273          	3.789
MS.249         	8.255          	4.226
MS.250         	8.24           	4.147
MS.251         	8.222          	4.009
MS.252         	8.207          	3.925
MS.253         	8.19           	3.995
MS.254         	8.175          	3.826
MS.255         	8.158          	3.761
MS.256         	8.142          	3.899
MS.257         	8.125          	3.923
MS.258         	8.11           	3.781
MS.259         	8.092          	3.75
MS.260         	8.077          	3.846
MS.261         	8.06           	3.779
MS.262         	8.045          	3.662
MS.263         	8.028          	3.693
MS.264         	8.012          	3.632
MS.265         	7.995          	3.661
MS.266         	7.98           	3.613
MS.267         	7.965          	3.61
MS.268         	7.947          	3.652
MS.269         	7.932          	3.724
MS.270         	7.918          	3.513
MS.271         	7.9            	3.585
MS.272         	7.885          	3.569
MS.273         	7.87           	3.392
MS.274         	7.852          	3.544
MS.275         	7.837          	3.486
MS.276         	7.822          	3.483
MS.277         	7.807          	3.517
MS.278         	7.79           	3.267
MS.279         	7.775          	3.464
MS.280         	7.76           	3.379
MS.281         	7.745          	3.25
MS.282         	7.727          	3.28
MS.283         	7.712          	3.424
MS.284         	7.697          	3.203
MS.285         	7.682          	3.267
MS.286         	7.668          	3.271
MS.287         	7.652          	3.237
MS.288         	7.637          	3.281
MS.289         	7.622          	3.295
MS.290         	7.605          	3.284
MS.291         	7.59           	3.126
MS.292         	7.575          	3.096
MS.293         	7.56           	2.943
MS.294         	7.545          	2.823
MS.295         	7.53           	2.953
MS.296         	7.515          	3.081
MS.297         	7.5            	2.831
MS.298         	7.485          	2.791
MS.299         	7.47           	2.913
MS.300         	7.455          	3.021
MS.301         	7.44           	2.981
MS.302         	7.425          	2.816
MS.303         	7.41           	3.004
MS.304         	7.395          	2.761
MS.305         	7.382          	2.666
MS.306         	7.367          	2.689
MS.307         	7.352          	2.479
MS.308         	7.337          	2.451
MS.309         	7.322          	2.738
MS.310         	7.307          	2.808
MS.311         	7.293          	2.502
MS.312         	7.277          	2.656
MS.313         	7.265          	2.769
MS.314         	7.25           	2.416
MS.315         	7.235          	2.653
MS.316         	7.22           	2.401
MS.317         	7.205          	2.535
MS.318         	7.192          	2.644
MS.319         	7.177          	2.377
MS.320         	7.162          	2.542
MS.321         	7.15           	2.435
MS.322         	7.135          	2.224
MS.323         	7.12           	2.408
MS.324         	7.105          	2.268
MS.325         	7.092          	2.423
MS.326         	7.077          	2.362
MS.327         	7.062          	2.321
MS.328         	7.05           	2.419
MS.329         	7.035          	2.396
MS.330         	7.023          	2.177
MS.331         	7.007          	2.197
MS.332         	6.992          	2.072
MS.333         	6.98           	2.183
MS.334         	6.965          	2.119
MS.335         	6.952          	2.224
MS.336         	6.938          	2.302
MS.337         	6.922          	2.042
MS.338         	6.91           	2.02
MS.339         	6.895          	2.003
MS.340         	6.882          	1.974
MS.341         	6.867          	2.013
MS.342         	6.855          	1.981
MS.343         	6.84           	1.963
MS.344         	6.827          	1.831
MS.345         	6.815          	1.937
MS.346         	6.8            	1.824
MS.347         	6.787          	1.998
MS.348         	6.773          	1.893
MS.349         	6.76           	1.792
MS.350         	6.745          	1.805
MS.351         	6.733          	1.752
MS.352         	6.72           	1.873
MS.353         	6.705          	1.857
MS.354         	6.692          	1.796
MS.355         	6.68           	1.803
MS.356         	6.665          	1.636
MS.357         	6.652          	1.754
MS.358         	6.64           	1.772
MS.359         	6.625          	1.573
MS.360         	6.612          	1.608
MS.361         	6.6            	1.509
MS.362         	6.585          	1.6
MS.363         	6.572          	1.609
MS.364         	6.56           	1.573
MS.365         	6.547          	1.677
MS.366         	6.532          	1.456
MS.367         	6.52           	1.569
MS.368         	6.507          	1.438
MS.369         	6.495          	1.488
MS.370         	6.483          	1.542
MS.371         	6.467          	1.697
MS.372         	6.455          	1.517
MS.373         	6.442          	1.576
MS.374         	6.43           	1.581
MS.375         	6.418          	1.577
MS.376         	6.405          	1.394
MS.377         	6.392          	1.571
MS.378         	6.378          	1.526
MS.379         	6.365          	1.605
MS.380         	6.352          	1.486
MS.381         	6.34           	1.523
MS.382         	6.327          	1.552
MS.383         	6.315          	1.454
MS.384         	6.302          	1.429
MS.385         	6.29           	1.583
MS.386         	6.277          	1.41
MS.387         	6.265          	1.403
MS.388         	6.253          	1.377
MS.389         	6.24           	1.407
MS.390         	6.227          	1.414
MS.391         	6.215          	1.475
MS.392         	6.202          	1.367
MS.393         	6.19           	1.338
MS.394         	6.177          	1.256
MS.395         	6.165          	1.248
MS.396         	6.152          	1.278
MS.397         	6.14           	1.309
MS.398         	6.128          	1.328
MS.399         	6.115          	1.282
MS.400         	6.105          	1.151
MS.401         	6.092          	1.304
MS.402         	6.08           	1.144
MS.403         	6.067          	1.245
MS.404         	6.055          	1.244
MS.405         	6.043          	1.25
MS.406         	6.03           	1.191
MS.407         	6.02           	1.21
MS.408         	6.007          	1.245
MS.409         	5.995          	1.238
MS.410         	5.983          	1.094
MS.411         	5.97           	1.154
MS.412         	5.96           	1.09
MS.413         	5.947          	1.035
MS.414         	5.935          	1.213
MS.415         	5.922          	1.104
MS.416         	5.912          	1.143
MS.417         	5.9            	1.046
MS.418         	5.887          	1.124
MS.419         	5.878          	0.767
MS.420         	5.865          	1.082
MS.421         	5.852          	0.941
MS.422         	5.842          	1.088
MS.423         	5.83           	0.834
MS.424         	5.817          	0.979
MS.425         	5.807          	1.091
MS.426         	5.795          	0.95
MS.427         	5.782          	0.828
MS.428         	5.773          	1.058
MS.429         	5.76           	0.886
MS.430         	5.747          	0.865
MS.431         	5.737          	0.781
MS.432         	5.725          	0.729
MS.433         	5.715          	1.039
MS.434         	5.702          	0.77
MS.435         	5.692          	0.82
MS.436         	5.68           	0.726
MS.437         	5.668          	0.896
MS.438         	5.657          	0.795
MS.439         	5.645          	1.064
MS.440         	5.635          	0.776
MS.441         	5.622          	0.817
MS.442         	5.612          	0.747
MS.443         	5.6            	0.757
MS.444         	5.59           	0.747
MS.445         	5.577          	0.734
MS.446         	5.567          	0.808
MS.447         	5.557          	0.879
MS.448         	5.545          	0.811
MS.449         	5.535          	0.806
MS.450         	5.523          	0.815
MS.451         	5.512          	0.762
MS.452         	5.5            	0.725
MS.453         	5.49           	0.757
MS.454         	5.48           	0.702
MS.455         	5.467          	0.774
MS.456         	5.457          	0.737
MS.457         	5.447          	0.676
MS.458         	5.435          	0.654
MS.459         	5.425          	0.673
MS.460         	5.415          	0.674
MS.461         	5.402          	0.68
MS.462         	5.392          	0.675
MS.463         	5.382          	0.647
MS.464         	5.37           	0.712
MS.465         	5.36           	0.659
MS.466         	5.35           	0.66
MS.467         	5.338          	0.659
MS.468         	5.327          	0.67
MS.469         	5.318          	0.68
MS.470         	5.307          	0.669
MS.471         	5.295          	0.679
MS.472         	5.285          	0.758
MS.473         	5.275          	0.635
MS.474         	5.265          	0.67
MS.475         	5.255          	0.634
MS.476         	5.242          	0.684
MS.477         	5.233          	0.763
MS.478         	5.222          	0.659
MS.479         	5.213          	0.638
MS.480         	5.202          	0.662
MS.481         	5.19           	0.637
MS.482         	5.18           	0.64
MS.483         	5.17           	0.657
MS.484         	5.16           	0.605
MS.485         	5.15           	0.625
MS.486         	5.14           	0.603
MS.487         	5.13           	0.553
MS.488         	5.12           	0.636
MS.489         	5.108          	0.583
MS.490         	5.097          	0.632
MS.491         	5.088          	0.579
MS.492         	5.077          	0.577
MS.493         	5.068          	0.56
MS.494         	5.057          	0.546
MS.495         	5.047          	0.532
MS.496         	5.037          	0.511
MS.497         	5.027          	0.594
MS.498         	5.017          	0.579
MS.499         	5.007          	0.491
MS.500         	4.997          	0.601
MS.501         	4.987          	0.471
MS.502         	4.977          	0.475
MS.503         	4.967          	0.631
MS.504         	4.957          	0.559
MS.505         	4.947          	0.515
MS.506         	4.938          	0.491
MS.507         	4.927          	0.472
MS.508         	4.918          	0.526
MS.509         	4.907          	0.503
MS.510         	4.898          	0.511
MS.511         	4.89           	0.46
MS.512         	4.88           	0.475
MS.513         	4.87           	0.485
MS.514         	4.86           	0.496
MS.515         	4.85           	0.46
MS.516         	4.84           	0.51
MS.517         	4.83           	0.476
MS.518         	4.82           	0.475
MS.519         	4.81           	0.465
MS.520         	4.802          	0.496
MS.521         	4.793          	0.471
MS.522         	4.782          	0.468
MS.523         	4.773          	0.468
MS.524         	4.762          	0.471
MS.525         	4.755          	0.469
MS.526         	4.745          	0.508
MS.527         	4.735          	0.477
MS.528         	4.725          	0.494
MS.529         	4.715          	0.472
MS.530         	4.707          	0.441
MS.531         	4.697          	0.477
MS.532         	4.688          	0.444
MS.533         	4.677          	0.475
MS.534         	4.67           	0.466
MS.535         	4.66           	0.464
MS.536         	4.65           	0.448
MS.537         	4.64           	0.47
MS.538         	4.632          	0.526
MS.539         	4.622          	0.457
MS.540         	4.612          	0.471
MS.541         	4.605          	0.461
MS.542         	4.595          	0.3
MS.543         	4.585          	0.468
MS.544         	4.577          	0.465
MS.545         	4.568          	0.466
MS.546         	4.557          	0.461
MS.547         	4.55           	0.463
MS.548         	4.54           	0.476
MS.549         	4.53           	0.465
MS.550         	4.523          	0.267
MS.551         	4.512          	0.466
MS.552         	4.505          	0.459
MS.553         	4.495          	0.26
MS.554         	4.485          	0.454
MS.555         	4.477          	0.264
MS.556         	4.467          	0.266
MS.557         	4.46           	0.232
MS.558         	4.45           	0.256
MS.559         	4.443          	0.255
MS.560         	4.432          	0.258
MS.561         	4.423          	0.253
MS.562         	4.415          	0.251
MS.563         	4.405          	0.114
MS.564         	4.398          	0.248
MS.565         	4.387          	0.04
MS.566         	4.38           	0.247
MS.567         	4.37           	0.251
MS.568         	4.362          	0.25
MS.569         	4.352          	0.254
MS.570         	4.345          	0.25
MS.571         	4.335          	0.25
MS.572         	4.327          	0.454
MS.573         	4.318          	0.19
MS.574         	4.31           	0.254
MS.575         	4.302          	0.043
MS.576         	4.293          	0.193
MS.577         	4.285          	0.04
MS.578         	4.275          	0.189
MS.579         	4.267          	0.188
MS.580         	4.257          	0.101
MS.581         	4.25           	0.249
MS.582         	4.242          	0.043
MS.583         	4.233          	0.049
MS.584         	4.225          	0.105
MS.585         	4.215          	0.1
MS.586         	4.207          	0.189
MS.587         	4.2            	0.25
MS.588         	4.19           	0.105
MS.589         	4.182          	0.046
MS.590         	4.175          	0.19
MS.591         	4.165          	0.197
MS.592         	4.157          	0.194
MS.593         	4.15           	0.043
MS.594         	4.14           	0.049
MS.595         	4.132          	0.046
MS.596         	4.125          	0.104
MS.597         	4.117          	0.046
MS.598         	4.108          	0.044
MS.599         	4.1            	0.004
MS.600         	4.092          	0.043
MS.601         	4.082          	0.004
MS.602         	4.075          	0.002
MS.603         	4.068          	0.048
MS.604         	4.06           	0.004
MS.605         	4.05           	0.048
MS.606         	4.043          	0.106
MS.607         	4.035          	0.048
MS.608         	4.027          	0.044
MS.609         	4.017          	0.048
MS.610         	4.01           	0.046
MS.611         	4.003          	0.005
MS.612         	3.995          	0.048
MS.613         	3.987          	0.001
MS.614         	3.977          	0.001
MS.615         	3.97           	0.046
MS.616         	3.962          	0.004
MS.617         	3.955          	0.046
MS.618         	3.947          	0.004
MS.619         	3.94           	0.004
MS.620         	3.93           	0.002
MS.621         	3.922          	0.002
MS.622         	3.915          	0.049
MS.623         	3.908          	0.004
MS.624         	3.9            	0.049
MS.625         	3.892          	0.002
MS.626         	3.885          	0.002
MS.627         	3.877          	0.049
MS.628         	3.87           	0.004
MS.629         	3.86           	0.004
MS.630         	3.852          	0.004
MS.631         	3.845          	0.004
MS.632         	3.837          	0.004
MS.633         	3.83           	0.006
MS.634         	3.822          	0.024
MS.635         	3.815          	0.004
MS.636         	3.807          	0.004
MS.637         	3.8            	0.006
MS.638         	3.793          	0.007
MS.639         	3.785          	0.004
MS.640         	3.777          	0.002
MS.641         	3.77           	0.004
MS.642         	3.762          	0.002
MS.643         	3.755          	0.001
MS.644         	3.747          	0.004
MS.645         	3.74           	0.004
MS.646         	3.732          	0.004
MS.647         	3.725          	0.004
MS.648         	3.717          	0.001
MS.649         	3.71           	0.004
MS.650         	3.702          	0.002
MS.651         	3.695          	0.004
MS.652         	3.688          	0.002
MS.653         	3.68           	0.002
MS.654         	3.672          	0.002
MS.655         	3.665          	0.002
MS.656         	3.658          	0.004
MS.657         	3.65           	0.002
MS.658         	3.642          	0.002
MS.659         	3.635          	0.002
MS.660         	3.63           	0.002
MS.661         	3.622          	0.006
MS.662         	3.615          	0.004
MS.663         	3.607          	0.002
DERIVED EXCITABILITY VARIABLES
Program = QTracP 12/2/2021
Threshold method = 6 (optimised for CAP, using data for present condition only)
SR method = 1 (using actual data values)
6.                 	0.000               	Peak response\(mV)
9.                 	38                  	Temperature ( C)
17.                	58                  	Age (years)
18.                	1                   	Sex (M=1, F=2)

EXTRA VARIABLES

MScPeak(mV) = 7.82
MScS5(mA) = 4.48
MScS50(mA) = 8.2
MScS95(mA) = 11.5
MScNSteps = 1
MScSteps(%) = 2.3
MScStepMax(%) = 2.3
MScD50 = 77
MScSlope = 3.15
MSFPeakAmp(mV) = 7.83
MSFNUnits = 111
MSFMeanUnitAmp(uV) = 70.5
MSFHuntTime(m) = 1.89
MSFError(%) = 3.23
MSFNLarge = 30.15
MSFMedianAmp(%) = 0.679
MSFMedianAmp(mV) = 0.0532
MSFHalfAmpAmp(%) = 1.12
MSFHalfAmpAmp(mV) = 0.0876
MSFLargestAmp(%) = 3.08
MSFLargestAmp(mV) = 0.241
MSFMeanRS(%) = 2
MSFOpts = 10106022032
MScDuration(min) = 10.3
MSFTraces = 643
MSFSizeLimit(uV) = 26.1
MSFLimitType = 1
MSFSmallestAmp(uV) = 26.5
MSFSDMax = 25
MSFSDMin = 1.33

EXTRA WAVEFORMS


!MScan Model
!111
	1	4.09	0.62	2
	2	4.24	1.35	2
	3	4.24	1.17	2
	4	4.46	0.68	2
	5	4.54	2.08	2
	6	4.9	0.66	2
	7	5.05	0.71	2
	8	5.11	0.46	2
	9	5.15	0.44	2
	10	5.38	0.75	2
	11	5.47	0.55	2
	12	5.53	0.79	2
	13	5.82	2.16	2
	14	5.92	0.87	2
	15	5.92	0.69	2
	16	5.93	1.31	2
	17	6.08	0.84	2
	18	6.13	0.54	2
	19	6.17	0.5	2
	20	6.2	0.44	2
	21	6.23	0.39	2
	22	6.36	1.74	2
	23	6.59	1.14	2
	24	6.62	0.59	2
	25	6.65	0.63	2
	26	6.68	0.37	2
	27	6.71	0.68	2
	28	6.75	0.74	2
	29	6.78	0.58	2
	30	6.83	0.67	2
	31	6.86	0.55	2
	32	6.89	0.41	2
	33	6.92	0.64	2
	34	6.95	0.76	2
	35	6.98	0.58	2
	36	7.08	2.1	2
	37	7.17	1.55	2
	38	7.33	2.8	2
	39	7.39	1.14	2
	40	7.48	1.77	2
	41	7.52	1.03	2
	42	7.56	1.22	2
	43	7.61	0.52	2
	44	7.61	0.35	2
	45	7.69	1.96	2
	46	7.74	0.61	2
	47	7.78	0.59	2
	48	7.82	0.61	2
	49	7.85	0.6	2
	50	7.89	0.7	2
	51	7.93	0.6	2
	52	7.96	0.36	2
	53	7.99	0.5	2
	54	8.01	0.5	2
	55	8.04	0.42	2
	56	8.08	0.54	2
	57	8.15	1.36	2
	58	8.24	1.42	2
	59	8.3	1.38	2
	60	8.37	1.63	2
	61	8.44	1.33	2
	62	8.49	1.63	2
	63	8.54	1.17	2
	64	8.58	0.68	2
	65	8.63	1.36	2
	66	8.69	1.03	2
	67	8.75	1.17	2
	68	8.82	1.06	2
	69	8.88	0.84	2
	70	8.92	0.95	2
	71	8.96	0.72	2
	72	8.99	0.57	2
	73	9.03	0.6	2
	74	9.06	0.54	2
	75	9.09	0.43	2
	76	9.11	0.5	2
	77	9.13	0.43	2
	78	9.15	0.34	2
	79	9.18	0.65	2
	80	9.2	0.35	2
	81	9.21	0.38	2
	82	9.23	0.38	2
	83	9.27	0.83	2
	84	9.31	1.47	2
	85	9.38	3.08	2
	86	9.58	2.71	2
	87	9.58	0.68	2
	88	9.91	2.14	2
	89	9.91	0.53	2
	90	10.21	1.6	2
	91	10.4	1.63	2
	92	10.53	1.12	2
	93	10.7	1.29	2
	94	10.79	0.64	2
	95	10.87	0.67	2
	96	10.96	0.76	2
	97	11.03	0.7	2
	98	11.16	0.75	2
	99	11.29	0.91	2
	100	11.37	0.54	2
	101	11.41	0.41	2
	102	11.44	0.34	2
	103	11.5	0.51	2
	104	11.55	0.55	2
	105	11.61	0.64	2
	106	11.71	0.67	2
	107	11.84	0.6	2
	108	12.16	1.04	2
	109	12.24	0.5	2
	110	12.33	0.56	2
	111	12.41	0.72	2

