File:              	n:\Qtrac\Data\MScan\Normative Controls\CP Nerve\MSCC10714C.QZD
Name:              	IM02A
Protocol:          	MSCAN-R2
Date:              	14/7/21
Start time:        	11:19:20
Age:               	70
Sex:               	F
Temperature:       	30.4
S/R sites:         	Knee CP-TA
NC/disease:        	NC
Operator:          	BJ
Comments:
M-SCAN DATA (11.1-2.9m)
Scanpts: 37, 48, 844, 865
Stim. (mA)     	Amp. (mV)
MS.1           	15.5           	6.122
MS.2           	15.5           	6.133
MS.3           	15.5           	6.129
MS.4           	15.5           	6.104
MS.5           	15.5           	6.08
MS.6           	15.5           	6.093
MS.7           	15.5           	6.083
MS.8           	15.5           	6.083
MS.9           	15.5           	6.084
MS.10          	15.5           	6.088
MS.11          	15.5           	6.083
MS.12          	15.5           	6.084
MS.13          	15.5           	6.082
MS.14          	15.5           	6.078
MS.15          	15.5           	6.086
MS.16          	15.5           	6.082
MS.17          	15.5           	6.075
MS.18          	15.5           	6.08
MS.19          	15.5           	6.078
MS.20          	15.5           	6.075
MS.21          	15.5           	6.075
MS.22          	15.5           	6.078
MS.23          	15.5           	6.097
MS.24          	15.438         	6.072
MS.25          	15.407         	6.067
MS.26          	15.377         	6.067
MS.27          	15.345         	6.068
MS.28          	15.315         	6.071
MS.29          	15.285         	6.06
MS.30          	15.255         	6.064
MS.31          	15.222         	6.067
MS.32          	15.193         	6.056
MS.33          	15.162         	6.061
MS.34          	15.132         	6.062
MS.35          	15.102         	6.055
MS.36          	15.072         	6.058
MS.37          	15.042         	6.069
MS.38          	15.012         	6.063
MS.39          	14.983         	6.068
MS.40          	14.952         	6.069
MS.41          	14.922         	6.066
MS.42          	14.892         	6.06
MS.43          	14.862         	6.067
MS.44          	14.832         	6.063
MS.45          	14.802         	6.063
MS.46          	14.773         	6.067
MS.47          	14.745         	6.068
MS.48          	14.715         	6.066
MS.49          	14.685         	6.064
MS.50          	14.655         	6.06
MS.51          	14.627         	6.056
MS.52          	14.597         	6.06
MS.53          	14.568         	6.038
MS.54          	14.54          	6.064
MS.55          	14.51          	6.063
MS.56          	14.48          	6.068
MS.57          	14.452         	6.064
MS.58          	14.422         	6.063
MS.59          	14.395         	6.055
MS.60          	14.365         	6.064
MS.61          	14.337         	6.04
MS.62          	14.307         	6.063
MS.63          	14.28          	6.057
MS.64          	14.25          	6.072
MS.65          	14.222         	6.034
MS.66          	14.195         	6.067
MS.67          	14.165         	6.038
MS.68          	14.137         	6.045
MS.69          	14.11          	6.035
MS.70          	14.08          	6.042
MS.71          	14.052         	6.057
MS.72          	14.025         	6.046
MS.73          	13.997         	6.039
MS.74          	13.97          	6.058
MS.75          	13.94          	6.05
MS.76          	13.912         	6.052
MS.77          	13.885         	6.044
MS.78          	13.858         	6.05
MS.79          	13.83          	6.047
MS.80          	13.802         	6.049
MS.81          	13.775         	6.053
MS.82          	13.747         	6.053
MS.83          	13.72          	6.044
MS.84          	13.693         	6.05
MS.85          	13.665         	6.044
MS.86          	13.637         	6.04
MS.87          	13.61          	6.047
MS.88          	13.582         	6.042
MS.89          	13.555         	6.05
MS.90          	13.53          	6.044
MS.91          	13.502         	6.028
MS.92          	13.475         	6.046
MS.93          	13.447         	6.035
MS.94          	13.42          	6.038
MS.95          	13.395         	6.033
MS.96          	13.367         	6.055
MS.97          	13.34          	6.041
MS.98          	13.315         	6.045
MS.99          	13.287         	6.033
MS.100         	13.26          	6.039
MS.101         	13.235         	6.041
MS.102         	13.207         	6.045
MS.103         	13.182         	6.042
MS.104         	13.155         	6.047
MS.105         	13.13          	6.047
MS.106         	13.102         	6.05
MS.107         	13.077         	6.05
MS.108         	13.05          	6.045
MS.109         	13.025         	6.041
MS.110         	12.997         	6.049
MS.111         	12.972         	6.041
MS.112         	12.947         	6.05
MS.113         	12.92          	6.051
MS.114         	12.895         	6.044
MS.115         	12.87          	6.045
MS.116         	12.842         	6.045
MS.117         	12.818         	6.033
MS.118         	12.792         	6.045
MS.119         	12.767         	6.055
MS.120         	12.74          	6.042
MS.121         	12.715         	6.035
MS.122         	12.69          	6.035
MS.123         	12.665         	6.04
MS.124         	12.64          	6.038
MS.125         	12.615         	6.041
MS.126         	12.59          	6.042
MS.127         	12.565         	6.038
MS.128         	12.54          	6.022
MS.129         	12.515         	6.038
MS.130         	12.49          	6.038
MS.131         	12.465         	6.04
MS.132         	12.44          	6.049
MS.133         	12.415         	6.021
MS.134         	12.39          	6.029
MS.135         	12.365         	6.034
MS.136         	12.34          	6.018
MS.137         	12.315         	6.001
MS.138         	12.29          	5.99
MS.139         	12.265         	6.025
MS.140         	12.242         	6.001
MS.141         	12.217         	6.008
MS.142         	12.193         	5.983
MS.143         	12.167         	5.983
MS.144         	12.145         	5.977
MS.145         	12.12          	5.977
MS.146         	12.095         	6.007
MS.147         	12.072         	5.978
MS.148         	12.047         	5.984
MS.149         	12.023         	5.989
MS.150         	12             	5.979
MS.151         	11.975         	5.997
MS.152         	11.95          	5.969
MS.153         	11.927         	5.972
MS.154         	11.903         	5.941
MS.155         	11.88          	5.983
MS.156         	11.855         	5.98
MS.157         	11.832         	5.97
MS.158         	11.807         	5.966
MS.159         	11.785         	5.942
MS.160         	11.762         	5.936
MS.161         	11.738         	5.935
MS.162         	11.715         	5.961
MS.163         	11.69          	5.944
MS.164         	11.667         	5.927
MS.165         	11.645         	5.937
MS.166         	11.622         	5.948
MS.167         	11.597         	5.948
MS.168         	11.575         	5.928
MS.169         	11.552         	5.951
MS.170         	11.528         	5.93
MS.171         	11.505         	5.955
MS.172         	11.483         	5.918
MS.173         	11.46          	5.916
MS.174         	11.438         	5.924
MS.175         	11.415         	5.927
MS.176         	11.39          	5.918
MS.177         	11.367         	5.902
MS.178         	11.345         	5.913
MS.179         	11.322         	5.908
MS.180         	11.3           	5.906
MS.181         	11.278         	5.901
MS.182         	11.255         	5.92
MS.183         	11.233         	5.906
MS.184         	11.21          	5.905
MS.185         	11.188         	5.901
MS.186         	11.165         	5.902
MS.187         	11.142         	5.898
MS.188         	11.12          	5.896
MS.189         	11.1           	5.898
MS.190         	11.077         	5.903
MS.191         	11.055         	5.906
MS.192         	11.032         	5.897
MS.193         	11.01          	5.889
MS.194         	10.988         	5.887
MS.195         	10.967         	5.883
MS.196         	10.945         	5.884
MS.197         	10.922         	5.88
MS.198         	10.9           	5.89
MS.199         	10.88          	5.895
MS.200         	10.858         	5.887
MS.201         	10.835         	5.87
MS.202         	10.815         	5.806
MS.203         	10.792         	5.874
MS.204         	10.77          	5.865
MS.205         	10.75          	5.861
MS.206         	10.727         	5.856
MS.207         	10.707         	5.867
MS.208         	10.685         	5.825
MS.209         	10.662         	5.823
MS.210         	10.642         	5.762
MS.211         	10.62          	5.818
MS.212         	10.6           	5.831
MS.213         	10.577         	5.833
MS.214         	10.557         	5.826
MS.215         	10.537         	5.848
MS.216         	10.515         	5.803
MS.217         	10.495         	5.811
MS.218         	10.472         	5.743
MS.219         	10.452         	5.739
MS.220         	10.432         	5.742
MS.221         	10.41          	5.732
MS.222         	10.39          	5.737
MS.223         	10.37          	5.72
MS.224         	10.347         	5.688
MS.225         	10.327         	5.704
MS.226         	10.307         	5.721
MS.227         	10.287         	5.725
MS.228         	10.265         	5.706
MS.229         	10.245         	5.693
MS.230         	10.225         	5.706
MS.231         	10.205         	5.698
MS.232         	10.185         	5.69
MS.233         	10.165         	5.679
MS.234         	10.142         	5.706
MS.235         	10.122         	5.673
MS.236         	10.102         	5.648
MS.237         	10.082         	5.676
MS.238         	10.062         	5.631
MS.239         	10.042         	5.634
MS.240         	10.023         	5.624
MS.241         	10.002         	5.638
MS.242         	9.983          	5.647
MS.243         	9.962          	5.636
MS.244         	9.943          	5.631
MS.245         	9.922          	5.621
MS.246         	9.903          	5.638
MS.247         	9.882          	5.62
MS.248         	9.863          	5.621
MS.249         	9.842          	5.599
MS.250         	9.825          	5.585
MS.251         	9.805          	5.618
MS.252         	9.785          	5.598
MS.253         	9.765          	5.574
MS.254         	9.745          	5.586
MS.255         	9.727          	5.566
MS.256         	9.707          	5.594
MS.257         	9.688          	5.566
MS.258         	9.667          	5.583
MS.259         	9.65           	5.562
MS.260         	9.63           	5.57
MS.261         	9.61           	5.574
MS.262         	9.59           	5.527
MS.263         	9.573          	5.542
MS.264         	9.552          	5.568
MS.265         	9.532          	5.493
MS.266         	9.515          	5.551
MS.267         	9.495          	5.569
MS.268         	9.477          	5.525
MS.269         	9.457          	5.548
MS.270         	9.44           	5.53
MS.271         	9.42           	5.555
MS.272         	9.4            	5.538
MS.273         	9.382          	5.54
MS.274         	9.363          	5.487
MS.275         	9.345          	5.504
MS.276         	9.327          	5.514
MS.277         	9.307          	5.48
MS.278         	9.29           	5.509
MS.279         	9.27           	5.482
MS.280         	9.252          	5.464
MS.281         	9.233          	5.468
MS.282         	9.215          	5.469
MS.283         	9.198          	5.436
MS.284         	9.177          	5.466
MS.285         	9.16           	5.455
MS.286         	9.142          	5.457
MS.287         	9.122          	5.452
MS.288         	9.105          	5.441
MS.289         	9.087          	5.438
MS.290         	9.07           	5.439
MS.291         	9.05           	5.424
MS.292         	9.033          	5.42
MS.293         	9.015          	5.443
MS.294         	8.997          	5.42
MS.295         	8.977          	5.402
MS.296         	8.96           	5.409
MS.297         	8.943          	5.383
MS.298         	8.925          	5.425
MS.299         	8.908          	5.389
MS.300         	8.89           	5.389
MS.301         	8.872          	5.405
MS.302         	8.852          	5.382
MS.303         	8.835          	5.392
MS.304         	8.818          	5.371
MS.305         	8.8            	5.403
MS.306         	8.783          	5.365
MS.307         	8.765          	5.394
MS.308         	8.747          	5.36
MS.309         	8.73           	5.358
MS.310         	8.712          	5.345
MS.311         	8.695          	5.378
MS.312         	8.677          	5.375
MS.313         	8.66           	5.361
MS.314         	8.642          	5.295
MS.315         	8.627          	5.303
MS.316         	8.61           	5.347
MS.317         	8.592          	5.297
MS.318         	8.575          	5.334
MS.319         	8.557          	5.332
MS.320         	8.54           	5.303
MS.321         	8.523          	5.32
MS.322         	8.507          	5.239
MS.323         	8.49           	5.259
MS.324         	8.472          	5.26
MS.325         	8.455          	5.232
MS.326         	8.44           	5.255
MS.327         	8.422          	5.245
MS.328         	8.405          	5.242
MS.329         	8.387          	5.203
MS.330         	8.372          	5.181
MS.331         	8.355          	5.222
MS.332         	8.337          	5.216
MS.333         	8.323          	5.16
MS.334         	8.305          	5.143
MS.335         	8.287          	5.179
MS.336         	8.273          	5.175
MS.337         	8.255          	5.151
MS.338         	8.238          	5.142
MS.339         	8.222          	5.16
MS.340         	8.205          	5.106
MS.341         	8.19           	5.101
MS.342         	8.172          	5.094
MS.343         	8.158          	5.083
MS.344         	8.14           	5.11
MS.345         	8.125          	5.067
MS.346         	8.108          	5.05
MS.347         	8.092          	5.067
MS.348         	8.075          	5.006
MS.349         	8.06           	5.043
MS.350         	8.042          	5.029
MS.351         	8.028          	5.02
MS.352         	8.01           	4.956
MS.353         	7.995          	5
MS.354         	7.98           	4.934
MS.355         	7.962          	4.977
MS.356         	7.947          	4.973
MS.357         	7.932          	4.955
MS.358         	7.915          	4.977
MS.359         	7.9            	4.985
MS.360         	7.885          	4.961
MS.361         	7.867          	4.937
MS.362         	7.852          	4.922
MS.363         	7.837          	4.938
MS.364         	7.82           	4.935
MS.365         	7.805          	4.913
MS.366         	7.79           	4.885
MS.367         	7.775          	4.894
MS.368         	7.76           	4.807
MS.369         	7.742          	4.88
MS.370         	7.727          	4.919
MS.371         	7.712          	4.799
MS.372         	7.697          	4.843
MS.373         	7.682          	4.777
MS.374         	7.668          	4.833
MS.375         	7.65           	4.789
MS.376         	7.635          	4.749
MS.377         	7.62           	4.744
MS.378         	7.605          	4.833
MS.379         	7.59           	4.712
MS.380         	7.575          	4.698
MS.381         	7.56           	4.695
MS.382         	7.545          	4.696
MS.383         	7.53           	4.708
MS.384         	7.515          	4.672
MS.385         	7.5            	4.686
MS.386         	7.485          	4.697
MS.387         	7.47           	4.69
MS.388         	7.455          	4.687
MS.389         	7.44           	4.622
MS.390         	7.425          	4.712
MS.391         	7.41           	4.674
MS.392         	7.395          	4.662
MS.393         	7.38           	4.662
MS.394         	7.365          	4.635
MS.395         	7.35           	4.598
MS.396         	7.337          	4.609
MS.397         	7.322          	4.645
MS.398         	7.307          	4.531
MS.399         	7.293          	4.525
MS.400         	7.277          	4.578
MS.401         	7.262          	4.495
MS.402         	7.25           	4.553
MS.403         	7.235          	4.542
MS.404         	7.22           	4.513
MS.405         	7.205          	4.497
MS.406         	7.19           	4.515
MS.407         	7.177          	4.38
MS.408         	7.162          	4.463
MS.409         	7.148          	4.42
MS.410         	7.132          	4.375
MS.411         	7.12           	4.358
MS.412         	7.105          	4.424
MS.413         	7.09           	4.36
MS.414         	7.077          	4.365
MS.415         	7.062          	4.358
MS.416         	7.047          	4.297
MS.417         	7.035          	4.313
MS.418         	7.02           	4.197
MS.419         	7.007          	4.196
MS.420         	6.992          	4.192
MS.421         	6.977          	4.253
MS.422         	6.965          	4.176
MS.423         	6.95           	4.233
MS.424         	6.938          	4.159
MS.425         	6.922          	4.2
MS.426         	6.91           	4.141
MS.427         	6.895          	4.16
MS.428         	6.882          	4.178
MS.429         	6.867          	4.147
MS.430         	6.855          	4.089
MS.431         	6.84           	4.095
MS.432         	6.827          	4.099
MS.433         	6.812          	4.005
MS.434         	6.8            	4.095
MS.435         	6.785          	3.981
MS.436         	6.773          	4
MS.437         	6.757          	3.987
MS.438         	6.745          	3.965
MS.439         	6.733          	3.953
MS.440         	6.717          	4.028
MS.441         	6.705          	4.008
MS.442         	6.692          	3.912
MS.443         	6.677          	3.972
MS.444         	6.665          	3.887
MS.445         	6.652          	3.857
MS.446         	6.637          	3.929
MS.447         	6.625          	3.901
MS.448         	6.612          	3.859
MS.449         	6.597          	3.873
MS.450         	6.585          	3.804
MS.451         	6.572          	3.741
MS.452         	6.56           	3.776
MS.453         	6.545          	3.79
MS.454         	6.532          	3.754
MS.455         	6.52           	3.715
MS.456         	6.507          	3.704
MS.457         	6.492          	3.721
MS.458         	6.48           	3.677
MS.459         	6.467          	3.649
MS.460         	6.455          	3.713
MS.461         	6.442          	3.701
MS.462         	6.43           	3.645
MS.463         	6.418          	3.663
MS.464         	6.402          	3.627
MS.465         	6.39           	3.658
MS.466         	6.378          	3.674
MS.467         	6.365          	3.584
MS.468         	6.352          	3.618
MS.469         	6.34           	3.582
MS.470         	6.327          	3.589
MS.471         	6.315          	3.612
MS.472         	6.302          	3.556
MS.473         	6.29           	3.48
MS.474         	6.277          	3.48
MS.475         	6.265          	3.51
MS.476         	6.253          	3.557
MS.477         	6.24           	3.494
MS.478         	6.227          	3.457
MS.479         	6.215          	3.474
MS.480         	6.202          	3.448
MS.481         	6.19           	3.442
MS.482         	6.177          	3.484
MS.483         	6.165          	3.464
MS.484         	6.152          	3.405
MS.485         	6.14           	3.466
MS.486         	6.128          	3.398
MS.487         	6.115          	3.467
MS.488         	6.102          	3.427
MS.489         	6.09           	3.378
MS.490         	6.08           	3.367
MS.491         	6.067          	3.372
MS.492         	6.055          	3.357
MS.493         	6.043          	3.394
MS.494         	6.03           	3.292
MS.495         	6.017          	3.318
MS.496         	6.007          	3.313
MS.497         	5.995          	3.289
MS.498         	5.983          	3.28
MS.499         	5.97           	3.246
MS.500         	5.957          	3.282
MS.501         	5.947          	3.242
MS.502         	5.935          	3.253
MS.503         	5.922          	3.206
MS.504         	5.91           	3.196
MS.505         	5.9            	3.191
MS.506         	5.887          	3.151
MS.507         	5.875          	3.18
MS.508         	5.865          	3.168
MS.509         	5.852          	3.168
MS.510         	5.84           	3.112
MS.511         	5.83           	3.09
MS.512         	5.817          	3.03
MS.513         	5.805          	3.112
MS.514         	5.795          	3.087
MS.515         	5.782          	3.005
MS.516         	5.77           	3.062
MS.517         	5.76           	2.997
MS.518         	5.747          	3
MS.519         	5.737          	2.986
MS.520         	5.725          	3.003
MS.521         	5.713          	2.904
MS.522         	5.702          	2.979
MS.523         	5.69           	2.927
MS.524         	5.68           	2.903
MS.525         	5.668          	2.955
MS.526         	5.657          	2.914
MS.527         	5.645          	2.906
MS.528         	5.635          	2.894
MS.529         	5.622          	2.852
MS.530         	5.612          	2.82
MS.531         	5.6            	2.822
MS.532         	5.59           	2.871
MS.533         	5.577          	2.8
MS.534         	5.567          	2.795
MS.535         	5.555          	2.812
MS.536         	5.545          	2.805
MS.537         	5.532          	2.804
MS.538         	5.523          	2.709
MS.539         	5.512          	2.765
MS.540         	5.5            	2.731
MS.541         	5.49           	2.666
MS.542         	5.477          	2.689
MS.543         	5.467          	2.697
MS.544         	5.457          	2.643
MS.545         	5.445          	2.681
MS.546         	5.435          	2.693
MS.547         	5.425          	2.599
MS.548         	5.412          	2.642
MS.549         	5.402          	2.664
MS.550         	5.392          	2.62
MS.551         	5.38           	2.474
MS.552         	5.37           	2.435
MS.553         	5.36           	2.626
MS.554         	5.347          	2.505
MS.555         	5.338          	2.306
MS.556         	5.327          	2.557
MS.557         	5.318          	2.583
MS.558         	5.305          	2.546
MS.559         	5.295          	2.528
MS.560         	5.285          	2.435
MS.561         	5.275          	2.432
MS.562         	5.262          	2.444
MS.563         	5.253          	2.371
MS.564         	5.242          	2.39
MS.565         	5.233          	2.322
MS.566         	5.222          	2.366
MS.567         	5.213          	2.206
MS.568         	5.2            	2.197
MS.569         	5.19           	2.159
MS.570         	5.18           	2.224
MS.571         	5.17           	2.206
MS.572         	5.16           	2.191
MS.573         	5.15           	2.201
MS.574         	5.14           	2.159
MS.575         	5.128          	2.102
MS.576         	5.117          	2.076
MS.577         	5.108          	2.208
MS.578         	5.097          	1.969
MS.579         	5.088          	2.006
MS.580         	5.077          	2.046
MS.581         	5.068          	2.067
MS.582         	5.057          	1.99
MS.583         	5.047          	1.979
MS.584         	5.037          	1.976
MS.585         	5.027          	1.866
MS.586         	5.017          	2.015
MS.587         	5.007          	1.871
MS.588         	4.997          	1.777
MS.589         	4.987          	1.727
MS.590         	4.977          	1.68
MS.591         	4.967          	1.831
MS.592         	4.957          	1.705
MS.593         	4.947          	1.691
MS.594         	4.938          	1.669
MS.595         	4.927          	1.654
MS.596         	4.918          	1.648
MS.597         	4.907          	1.636
MS.598         	4.898          	1.619
MS.599         	4.887          	1.648
MS.600         	4.878          	1.554
MS.601         	4.867          	1.606
MS.602         	4.86           	1.593
MS.603         	4.85           	1.573
MS.604         	4.84           	1.604
MS.605         	4.83           	1.564
MS.606         	4.82           	1.55
MS.607         	4.81           	1.521
MS.608         	4.8            	1.545
MS.609         	4.793          	1.475
MS.610         	4.782          	1.519
MS.611         	4.773          	1.42
MS.612         	4.762          	1.515
MS.613         	4.753          	1.508
MS.614         	4.745          	1.392
MS.615         	4.735          	1.411
MS.616         	4.725          	1.36
MS.617         	4.715          	1.342
MS.618         	4.705          	1.305
MS.619         	4.697          	1.422
MS.620         	4.688          	1.405
MS.621         	4.677          	1.263
MS.622         	4.668          	1.317
MS.623         	4.66           	1.417
MS.624         	4.65           	1.295
MS.625         	4.64           	1.277
MS.626         	4.632          	1.31
MS.627         	4.622          	1.377
MS.628         	4.612          	1.27
MS.629         	4.602          	1.289
MS.630         	4.595          	1.262
MS.631         	4.585          	1.353
MS.632         	4.575          	1.268
MS.633         	4.568          	1.218
MS.634         	4.557          	1.161
MS.635         	4.548          	1.232
MS.636         	4.54           	1.169
MS.637         	4.53           	1.218
MS.638         	4.523          	1.213
MS.639         	4.512          	1.179
MS.640         	4.503          	1.075
MS.641         	4.495          	1.11
MS.642         	4.485          	1.121
MS.643         	4.477          	1.034
MS.644         	4.467          	1.084
MS.645         	4.457          	1.062
MS.646         	4.45           	1.063
MS.647         	4.44           	1.044
MS.648         	4.432          	1.082
MS.649         	4.423          	1.057
MS.650         	4.415          	1.013
MS.651         	4.405          	0.992
MS.652         	4.398          	0.895
MS.653         	4.387          	1.03
MS.654         	4.38           	0.864
MS.655         	4.37           	1.014
MS.656         	4.362          	0.896
MS.657         	4.352          	0.898
MS.658         	4.345          	0.863
MS.659         	4.335          	0.946
MS.660         	4.327          	0.881
MS.661         	4.318          	0.916
MS.662         	4.31           	0.898
MS.663         	4.3            	0.801
MS.664         	4.293          	0.916
MS.665         	4.285          	0.858
MS.666         	4.275          	0.826
MS.667         	4.267          	0.818
MS.668         	4.257          	0.809
MS.669         	4.25           	0.78
MS.670         	4.24           	0.785
MS.671         	4.233          	0.826
MS.672         	4.225          	0.779
MS.673         	4.215          	0.859
MS.674         	4.207          	0.784
MS.675         	4.2            	0.725
MS.676         	4.19           	0.706
MS.677         	4.182          	0.787
MS.678         	4.175          	0.752
MS.679         	4.165          	0.715
MS.680         	4.157          	0.684
MS.681         	4.15           	0.739
MS.682         	4.14           	0.721
MS.683         	4.132          	0.647
MS.684         	4.125          	0.701
MS.685         	4.115          	0.647
MS.686         	4.108          	0.664
MS.687         	4.1            	0.704
MS.688         	4.09           	0.657
MS.689         	4.082          	0.648
MS.690         	4.075          	0.674
MS.691         	4.068          	0.668
MS.692         	4.057          	0.605
MS.693         	4.05           	0.623
MS.694         	4.043          	0.593
MS.695         	4.035          	0.583
MS.696         	4.025          	0.61
MS.697         	4.017          	0.555
MS.698         	4.01           	0.571
MS.699         	4.003          	0.585
MS.700         	3.995          	0.555
MS.701         	3.985          	0.573
MS.702         	3.977          	0.547
MS.703         	3.97           	0.579
MS.704         	3.962          	0.52
MS.705         	3.955          	0.5
MS.706         	3.947          	0.474
MS.707         	3.938          	0.525
MS.708         	3.93           	0.453
MS.709         	3.922          	0.469
MS.710         	3.915          	0.461
MS.711         	3.908          	0.403
MS.712         	3.9            	0.453
MS.713         	3.892          	0.449
MS.714         	3.885          	0.414
MS.715         	3.875          	0.437
MS.716         	3.867          	0.425
MS.717         	3.86           	0.382
MS.718         	3.852          	0.394
MS.719         	3.845          	0.342
MS.720         	3.837          	0.398
MS.721         	3.83           	0.352
MS.722         	3.822          	0.437
MS.723         	3.815          	0.385
MS.724         	3.807          	0.327
MS.725         	3.8            	0.345
MS.726         	3.793          	0.311
MS.727         	3.785          	0.333
MS.728         	3.777          	0.309
MS.729         	3.77           	0.292
MS.730         	3.762          	0.278
MS.731         	3.755          	0.295
MS.732         	3.747          	0.349
MS.733         	3.74           	0.291
MS.734         	3.732          	0.286
MS.735         	3.725          	0.303
MS.736         	3.717          	0.262
MS.737         	3.71           	0.288
MS.738         	3.702          	0.295
MS.739         	3.695          	0.304
MS.740         	3.688          	0.283
MS.741         	3.68           	0.267
MS.742         	3.672          	0.26
MS.743         	3.665          	0.291
MS.744         	3.658          	0.255
MS.745         	3.65           	0.245
MS.746         	3.642          	0.272
MS.747         	3.635          	0.221
MS.748         	3.627          	0.236
MS.749         	3.622          	0.247
MS.750         	3.615          	0.249
MS.751         	3.607          	0.236
MS.752         	3.6            	0.253
MS.753         	3.592          	0.242
MS.754         	3.585          	0.275
MS.755         	3.577          	0.253
MS.756         	3.57           	0.214
MS.757         	3.565          	0.2
MS.758         	3.557          	0.206
MS.759         	3.55           	0.255
MS.760         	3.543          	0.242
MS.761         	3.535          	0.208
MS.762         	3.527          	0.237
MS.763         	3.523          	0.242
MS.764         	3.515          	0.212
MS.765         	3.507          	0.186
MS.766         	3.5            	0.206
MS.767         	3.492          	0.208
MS.768         	3.487          	0.201
MS.769         	3.48           	0.197
MS.770         	3.472          	0.203
MS.771         	3.465          	0.199
MS.772         	3.457          	0.194
MS.773         	3.452          	0.183
MS.774         	3.445          	0.194
MS.775         	3.438          	0.184
MS.776         	3.43           	0.171
MS.777         	3.425          	0.19
MS.778         	3.418          	0.187
MS.779         	3.41           	0.183
MS.780         	3.402          	0.168
MS.781         	3.398          	0.167
MS.782         	3.39           	0.155
MS.783         	3.382          	0.187
MS.784         	3.377          	0.159
MS.785         	3.37           	0.168
MS.786         	3.362          	0.166
MS.787         	3.357          	0.156
MS.788         	3.35           	0.156
MS.789         	3.342          	0.159
MS.790         	3.335          	0.145
MS.791         	3.33           	0.165
MS.792         	3.322          	0.082
MS.793         	3.317          	0.1
MS.794         	3.31           	0.151
MS.795         	3.303          	0.139
MS.796         	3.297          	0.127
MS.797         	3.29           	0.132
MS.798         	3.283          	0.085
MS.799         	3.277          	0.138
MS.800         	3.27           	0.085
MS.801         	3.262          	0.134
MS.802         	3.257          	0.109
MS.803         	3.25           	0.093
MS.804         	3.245          	0.129
MS.805         	3.237          	0.131
MS.806         	3.23           	0.096
MS.807         	3.225          	0.092
MS.808         	3.217          	0.072
MS.809         	3.212          	0.089
MS.810         	3.205          	0.089
MS.811         	3.2            	0.132
MS.812         	3.192          	0.079
MS.813         	3.185          	0.083
MS.814         	3.18           	0.074
MS.815         	3.172          	0.129
MS.816         	3.168          	0.093
MS.817         	3.16           	0.063
MS.818         	3.155          	0.063
MS.819         	3.148          	0.074
MS.820         	3.142          	0.109
MS.821         	3.135          	0.063
MS.822         	3.13           	0.079
MS.823         	3.122          	0.071
MS.824         	3.117          	0.077
MS.825         	3.11           	0.099
MS.826         	3.105          	0.063
MS.827         	3.097          	0.067
MS.828         	3.092          	0.065
MS.829         	3.085          	0.074
MS.830         	3.08           	0.067
MS.831         	3.072          	0.066
MS.832         	3.067          	0.066
MS.833         	3.062          	0.062
MS.834         	3.055          	0.061
MS.835         	3.05           	0.063
MS.836         	3.043          	0.06
MS.837         	3.037          	0.065
MS.838         	3.03           	0.065
MS.839         	3.025          	0.061
MS.840         	3.017          	0.063
MS.841         	3.013          	0.056
MS.842         	3.007          	0.062
MS.843         	3              	0.068
MS.844         	2.995          	0.062
MS.845         	2.987          	0.062
MS.846         	2.982          	0.063
MS.847         	2.977          	0.065
MS.848         	2.97           	0.056
MS.849         	2.965          	0.063
MS.850         	2.96           	0.068
MS.851         	2.952          	0.063
MS.852         	2.947          	0.056
MS.853         	2.942          	0.067
MS.854         	2.935          	0.057
MS.855         	2.93           	0.061
MS.856         	2.922          	0.061
MS.857         	2.918          	0.062
MS.858         	2.912          	0.049
MS.859         	2.905          	0.06
MS.860         	2.9            	0.056
MS.861         	2.895          	0.054
MS.862         	2.89           	0.054
MS.863         	2.882          	0.067
MS.864         	2.877          	0.059
MS.865         	2.872          	0.06
DERIVED EXCITABILITY VARIABLES
Program = QTracP 12/2/2021
Threshold method = 6 (optimised for CAP, using data for present condition only)
SR method = 1 (using actual data values)
6.                 	0.000               	Peak response\(mV)
9.                 	30.4                	Temperature ( C)
17.                	70                  	Age (years)
18.                	2                   	Sex (M=1, F=2)

EXTRA VARIABLES

MScPeak(mV) = 6.03
MScS5(mA) = 3.73
MScS50(mA) = 5.78
MScS95(mA) = 10.38
MScNSteps = 0
MScSteps(%) = 0.0
MScStepMax(%) = 0.0
MScD50 = 102
MScSlope = 2.33
MSFPeakAmp(mV) = 6.01
MSFNUnits = 175
MSFMeanUnitAmp(uV) = 34.3
MSFHuntTime(m) = 2.67
MSFError(%) = 1.32
MSFNLarge = 65.51
MSFMedianAmp(%) = 0.53
MSFMedianAmp(mV) = 0.0318
MSFHalfAmpAmp(%) = 0.587
MSFHalfAmpAmp(mV) = 0.0353
MSFLargestAmp(%) = 1.93
MSFLargestAmp(mV) = 0.116
MSFMeanRS(%) = 2
MSFOpts = 10106022032
MScDuration(min) = 8.2
MSFTraces = 829
MSFSizeLimit(uV) = 20
MSFLimitType = 1
MSFSmallestAmp(uV) = 20.1
MSFSDMax = 2.93
MSFSDMin = 2.93

EXTRA WAVEFORMS


!MScan Model
!175
	1	3.24	0.92	2
	2	3.32	0.5	2
	3	3.37	0.39	2
	4	3.42	0.35	2
	5	3.48	0.39	2
	6	3.57	0.49	2
	7	3.67	0.57	2
	8	3.73	0.44	2
	9	3.77	0.69	2
	10	3.85	0.85	2
	11	3.87	0.5	2
	12	3.91	0.6	2
	13	3.93	0.45	2
	14	3.95	0.39	2
	15	3.97	0.44	2
	16	3.99	0.57	2
	17	4.04	0.67	2
	18	4.07	0.53	2
	19	4.1	0.41	2
	20	4.12	0.39	2
	21	4.15	0.6	2
	22	4.2	0.75	2
	23	4.23	0.52	2
	24	4.27	0.64	2
	25	4.31	0.62	2
	26	4.35	0.73	2
	27	4.38	0.78	2
	28	4.41	0.58	2
	29	4.43	0.56	2
	30	4.46	0.57	2
	31	4.47	0.49	2
	32	4.49	0.5	2
	33	4.51	0.6	2
	34	4.54	0.68	2
	35	4.59	0.92	2
	36	4.68	1.66	2
	37	4.71	0.43	2
	38	4.73	0.58	2
	39	4.75	0.37	2
	40	4.77	0.43	2
	41	4.77	0.52	2
	42	4.79	0.46	2
	43	4.8	0.38	2
	44	4.82	0.36	2
	45	4.85	0.79	2
	46	4.89	0.67	2
	47	4.91	0.78	2
	48	4.93	0.36	2
	49	4.94	0.35	2
	50	4.95	0.49	2
	51	4.98	0.58	2
	52	5	0.42	2
	53	5.01	0.59	2
	54	5.03	0.71	2
	55	5.05	0.67	2
	56	5.06	0.64	2
	57	5.09	1.13	2
	58	5.12	0.84	2
	59	5.14	0.51	2
	60	5.16	0.67	2
	61	5.17	0.53	2
	62	5.19	0.72	2
	63	5.21	0.42	2
	64	5.22	0.44	2
	65	5.25	0.95	2
	66	5.3	1.57	2
	67	5.38	1.93	2
	68	5.42	0.72	2
	69	5.45	0.68	2
	70	5.47	0.53	2
	71	5.49	0.43	2
	72	5.52	0.53	2
	73	5.54	0.48	2
	74	5.57	0.53	2
	75	5.6	0.51	2
	76	5.62	0.44	2
	77	5.64	0.47	2
	78	5.67	0.44	2
	79	5.71	0.66	2
	80	5.73	0.61	2
	81	5.77	0.65	2
	82	5.79	0.36	2
	83	5.82	0.68	2
	84	5.85	0.56	2
	85	5.87	0.52	2
	86	5.91	0.83	2
	87	5.95	0.64	2
	88	5.99	0.59	2
	89	6.01	0.64	2
	90	6.07	0.84	2
	91	6.12	0.68	2
	92	6.16	0.47	2
	93	6.19	0.44	2
	94	6.24	0.64	2
	95	6.3	0.83	2
	96	6.34	0.59	2
	97	6.37	0.37	2
	98	6.4	0.5	2
	99	6.44	0.52	2
	100	6.48	0.61	2
	101	6.5	0.53	2
	102	6.55	0.6	2
	103	6.58	0.63	2
	104	6.61	0.75	2
	105	6.66	0.62	2
	106	6.68	0.49	2
	107	6.71	0.44	2
	108	6.73	0.43	2
	109	6.76	0.46	2
	110	6.78	0.4	2
	111	6.8	0.38	2
	112	6.82	0.39	2
	113	6.85	0.42	2
	114	6.88	0.38	2
	115	6.9	0.39	2
	116	6.93	0.37	2
	117	6.95	0.46	2
	118	6.97	0.46	2
	119	6.99	0.35	2
	120	7.03	0.57	2
	121	7.05	0.36	2
	122	7.07	0.33	2
	123	7.1	0.63	2
	124	7.12	0.35	2
	125	7.14	0.4	2
	126	7.16	0.46	2
	127	7.18	0.37	2
	128	7.22	0.62	2
	129	7.25	0.55	2
	130	7.28	0.46	2
	131	7.32	0.57	2
	132	7.36	0.46	2
	133	7.4	0.34	2
	134	7.48	0.82	2
	135	7.54	0.55	2
	136	7.62	0.74	2
	137	7.65	0.4	2
	138	7.68	0.36	2
	139	7.71	0.38	2
	140	7.74	0.36	2
	141	7.79	0.64	2
	142	7.85	0.56	2
	143	7.9	0.39	2
	144	7.94	0.38	2
	145	7.99	0.47	2
	146	8.07	0.78	2
	147	8.15	0.74	2
	148	8.22	0.67	2
	149	8.28	0.55	2
	150	8.35	0.58	2
	151	8.4	0.41	2
	152	8.44	0.44	2
	153	8.5	0.59	2
	154	8.63	0.78	2
	155	8.72	0.65	2
	156	8.96	0.83	2
	157	9.16	0.77	2
	158	9.35	0.74	2
	159	9.49	0.52	2
	160	9.7	0.58	2
	161	9.86	0.56	2
	162	9.96	0.39	2
	163	10.08	0.47	2
	164	10.2	0.41	2
	165	10.27	0.39	2
	166	10.37	0.49	2
	167	10.49	0.55	2
	168	10.59	0.57	2
	169	10.91	1.23	2.4
	170	11.18	0.37	2
	171	11.53	0.5	2
	172	11.89	0.59	2
	173	12.12	0.37	2
	174	12.44	0.59	2
	175	13.72	0.35	2

