File:              	n:\Qtrac\Data\MScan\Normative Controls\CP Nerve\MSCC10721C.QZD
Name:              	IM02A
Protocol:          	MSCAN-R2
Date:              	21/7/21
Start time:        	10:40:45
Age:               	70
Sex:               	F
Temperature:       	30.6
S/R sites:         	Knee CP-TA
NC/disease:        	NC
Operator:          	BJ
Comments:
M-SCAN DATA (19.4-4.8m)
Scanpts: 13, 39, 889, 921
Stim. (mA)     	Amp. (mV)
MS.1           	15             	5.613
MS.2           	15             	5.604
MS.3           	15             	5.608
MS.4           	15             	5.608
MS.5           	15             	5.605
MS.6           	15             	5.609
MS.7           	15             	5.608
MS.8           	15             	5.598
MS.9           	15             	5.607
MS.10          	15             	5.602
MS.11          	15             	5.608
MS.12          	15             	5.608
MS.13          	15             	5.614
MS.14          	15             	5.613
MS.15          	15             	5.612
MS.16          	15             	5.61
MS.17          	15             	5.608
MS.18          	15             	5.61
MS.19          	15             	5.614
MS.20          	15             	5.612
MS.21          	15             	5.619
MS.22          	15             	5.619
MS.23          	15             	5.616
MS.24          	14.94          	5.61
MS.25          	14.91          	5.615
MS.26          	14.88          	5.607
MS.27          	14.85          	5.619
MS.28          	14.82          	5.61
MS.29          	14.792         	5.607
MS.30          	14.762         	5.618
MS.31          	14.733         	5.61
MS.32          	14.702         	5.61
MS.33          	14.672         	5.599
MS.34          	14.645         	5.607
MS.35          	14.615         	5.613
MS.36          	14.585         	5.607
MS.37          	14.557         	5.604
MS.38          	14.527         	5.614
MS.39          	14.497         	5.609
MS.40          	14.47          	5.614
MS.41          	14.44          	5.616
MS.42          	14.412         	5.608
MS.43          	14.382         	5.615
MS.44          	14.355         	5.607
MS.45          	14.325         	5.618
MS.46          	14.297         	5.579
MS.47          	14.267         	5.588
MS.48          	14.24          	5.609
MS.49          	14.212         	5.602
MS.50          	14.182         	5.586
MS.51          	14.155         	5.59
MS.52          	14.127         	5.58
MS.53          	14.097         	5.594
MS.54          	14.07          	5.586
MS.55          	14.042         	5.614
MS.56          	14.015         	5.59
MS.57          	13.985         	5.604
MS.58          	13.957         	5.605
MS.59          	13.93          	5.609
MS.60          	13.903         	5.603
MS.61          	13.875         	5.593
MS.62          	13.847         	5.568
MS.63          	13.82          	5.587
MS.64          	13.792         	5.574
MS.65          	13.765         	5.58
MS.66          	13.737         	5.593
MS.67          	13.71          	5.573
MS.68          	13.682         	5.582
MS.69          	13.655         	5.59
MS.70          	13.627         	5.582
MS.71          	13.6           	5.593
MS.72          	13.572         	5.596
MS.73          	13.545         	5.598
MS.74          	13.517         	5.602
MS.75          	13.492         	5.583
MS.76          	13.465         	5.594
MS.77          	13.438         	5.598
MS.78          	13.41          	5.594
MS.79          	13.385         	5.597
MS.80          	13.358         	5.598
MS.81          	13.33          	5.596
MS.82          	13.305         	5.59
MS.83          	13.278         	5.592
MS.84          	13.25          	5.593
MS.85          	13.225         	5.563
MS.86          	13.197         	5.582
MS.87          	13.172         	5.594
MS.88          	13.145         	5.603
MS.89          	13.12          	5.599
MS.90          	13.092         	5.596
MS.91          	13.068         	5.591
MS.92          	13.04          	5.583
MS.93          	13.015         	5.598
MS.94          	12.987         	5.59
MS.95          	12.962         	5.596
MS.96          	12.938         	5.554
MS.97          	12.91          	5.588
MS.98          	12.885         	5.588
MS.99          	12.86          	5.594
MS.100         	12.832         	5.598
MS.101         	12.807         	5.563
MS.102         	12.782         	5.563
MS.103         	12.757         	5.56
MS.104         	12.73          	5.558
MS.105         	12.705         	5.563
MS.106         	12.68          	5.549
MS.107         	12.655         	5.557
MS.108         	12.63          	5.566
MS.109         	12.605         	5.553
MS.110         	12.58          	5.551
MS.111         	12.555         	5.559
MS.112         	12.53          	5.551
MS.113         	12.505         	5.566
MS.114         	12.48          	5.551
MS.115         	12.455         	5.557
MS.116         	12.43          	5.557
MS.117         	12.405         	5.562
MS.118         	12.38          	5.559
MS.119         	12.355         	5.566
MS.120         	12.33          	5.558
MS.121         	12.305         	5.563
MS.122         	12.28          	5.56
MS.123         	12.257         	5.557
MS.124         	12.233         	5.551
MS.125         	12.207         	5.557
MS.126         	12.182         	5.552
MS.127         	12.157         	5.551
MS.128         	12.135         	5.547
MS.129         	12.11          	5.547
MS.130         	12.085         	5.549
MS.131         	12.062         	5.559
MS.132         	12.037         	5.583
MS.133         	12.012         	5.552
MS.134         	11.99          	5.543
MS.135         	11.965         	5.548
MS.136         	11.943         	5.551
MS.137         	11.917         	5.579
MS.138         	11.895         	5.536
MS.139         	11.87          	5.599
MS.140         	11.847         	5.57
MS.141         	11.822         	5.551
MS.142         	11.8           	5.542
MS.143         	11.775         	5.557
MS.144         	11.752         	5.557
MS.145         	11.73          	5.577
MS.146         	11.705         	5.543
MS.147         	11.682         	5.582
MS.148         	11.657         	5.551
MS.149         	11.635         	5.574
MS.150         	11.613         	5.553
MS.151         	11.59          	5.566
MS.152         	11.565         	5.592
MS.153         	11.542         	5.571
MS.154         	11.52          	5.548
MS.155         	11.497         	5.579
MS.156         	11.472         	5.586
MS.157         	11.45          	5.571
MS.158         	11.427         	5.568
MS.159         	11.405         	5.569
MS.160         	11.382         	5.562
MS.161         	11.36          	5.568
MS.162         	11.337         	5.555
MS.163         	11.315         	5.554
MS.164         	11.292         	5.56
MS.165         	11.27          	5.551
MS.166         	11.247         	5.524
MS.167         	11.225         	5.549
MS.168         	11.202         	5.549
MS.169         	11.18          	5.559
MS.170         	11.157         	5.546
MS.171         	11.135         	5.533
MS.172         	11.113         	5.551
MS.173         	11.09          	5.542
MS.174         	11.068         	5.552
MS.175         	11.045         	5.548
MS.176         	11.023         	5.547
MS.177         	11.002         	5.551
MS.178         	10.98          	5.57
MS.179         	10.957         	5.546
MS.180         	10.935         	5.546
MS.181         	10.915         	5.553
MS.182         	10.892         	5.548
MS.183         	10.87          	5.533
MS.184         	10.847         	5.555
MS.185         	10.827         	5.54
MS.186         	10.805         	5.548
MS.187         	10.785         	5.529
MS.188         	10.762         	5.533
MS.189         	10.74          	5.537
MS.190         	10.72          	5.538
MS.191         	10.698         	5.53
MS.192         	10.677         	5.549
MS.193         	10.655         	5.518
MS.194         	10.635         	5.521
MS.195         	10.613         	5.53
MS.196         	10.592         	5.546
MS.197         	10.57          	5.535
MS.198         	10.55          	5.522
MS.199         	10.528         	5.509
MS.200         	10.507         	5.52
MS.201         	10.485         	5.515
MS.202         	10.465         	5.531
MS.203         	10.445         	5.532
MS.204         	10.422         	5.514
MS.205         	10.403         	5.527
MS.206         	10.382         	5.522
MS.207         	10.36          	5.516
MS.208         	10.34          	5.524
MS.209         	10.32          	5.52
MS.210         	10.3           	5.52
MS.211         	10.278         	5.513
MS.212         	10.257         	5.507
MS.213         	10.238         	5.503
MS.214         	10.217         	5.496
MS.215         	10.198         	5.507
MS.216         	10.175         	5.511
MS.217         	10.155         	5.509
MS.218         	10.135         	5.504
MS.219         	10.115         	5.502
MS.220         	10.095         	5.479
MS.221         	10.075         	5.508
MS.222         	10.055         	5.507
MS.223         	10.035         	5.511
MS.224         	10.015         	5.491
MS.225         	9.995          	5.491
MS.226         	9.975          	5.492
MS.227         	9.955          	5.483
MS.228         	9.935          	5.481
MS.229         	9.915          	5.5
MS.230         	9.895          	5.507
MS.231         	9.875          	5.493
MS.232         	9.855          	5.461
MS.233         	9.835          	5.465
MS.234         	9.818          	5.482
MS.235         	9.797          	5.476
MS.236         	9.778          	5.479
MS.237         	9.757          	5.472
MS.238         	9.738          	5.464
MS.239         	9.717          	5.455
MS.240         	9.7            	5.469
MS.241         	9.68           	5.463
MS.242         	9.66           	5.459
MS.243         	9.64           	5.474
MS.244         	9.622          	5.459
MS.245         	9.602          	5.47
MS.246         	9.582          	5.461
MS.247         	9.565          	5.47
MS.248         	9.545          	5.464
MS.249         	9.525          	5.461
MS.250         	9.507          	5.455
MS.251         	9.488          	5.457
MS.252         	9.47           	5.448
MS.253         	9.45           	5.439
MS.254         	9.432          	5.448
MS.255         	9.412          	5.426
MS.256         	9.395          	5.441
MS.257         	9.375          	5.452
MS.258         	9.358          	5.425
MS.259         	9.337          	5.43
MS.260         	9.32           	5.419
MS.261         	9.3            	5.433
MS.262         	9.283          	5.428
MS.263         	9.262          	5.438
MS.264         	9.245          	5.408
MS.265         	9.225          	5.431
MS.266         	9.207          	5.422
MS.267         	9.19           	5.427
MS.268         	9.17           	5.402
MS.269         	9.153          	5.393
MS.270         	9.135          	5.388
MS.271         	9.115          	5.385
MS.272         	9.097          	5.387
MS.273         	9.08           	5.377
MS.274         	9.062          	5.405
MS.275         	9.042          	5.406
MS.276         	9.025          	5.41
MS.277         	9.007          	5.372
MS.278         	8.99           	5.372
MS.279         	8.972          	5.361
MS.280         	8.952          	5.359
MS.281         	8.935          	5.378
MS.282         	8.917          	5.397
MS.283         	8.9            	5.35
MS.284         	8.882          	5.337
MS.285         	8.865          	5.382
MS.286         	8.847          	5.342
MS.287         	8.83           	5.367
MS.288         	8.812          	5.374
MS.289         	8.795          	5.364
MS.290         	8.775          	5.341
MS.291         	8.757          	5.349
MS.292         	8.74           	5.321
MS.293         	8.722          	5.292
MS.294         	8.707          	5.298
MS.295         	8.69           	5.293
MS.296         	8.672          	5.31
MS.297         	8.655          	5.289
MS.298         	8.637          	5.217
MS.299         	8.62           	5.264
MS.300         	8.602          	5.278
MS.301         	8.585          	5.276
MS.302         	8.568          	5.275
MS.303         	8.55           	5.276
MS.304         	8.535          	5.199
MS.305         	8.517          	5.203
MS.306         	8.5            	5.199
MS.307         	8.483          	5.197
MS.308         	8.465          	5.208
MS.309         	8.45           	5.203
MS.310         	8.432          	5.188
MS.311         	8.415          	5.182
MS.312         	8.398          	5.154
MS.313         	8.382          	5.173
MS.314         	8.365          	5.151
MS.315         	8.347          	5.164
MS.316         	8.332          	5.137
MS.317         	8.315          	5.125
MS.318         	8.297          	5.129
MS.319         	8.283          	5.106
MS.320         	8.265          	5.154
MS.321         	8.247          	5.111
MS.322         	8.233          	5.1
MS.323         	8.215          	5.1
MS.324         	8.2            	5.089
MS.325         	8.182          	5.085
MS.326         	8.167          	5.067
MS.327         	8.15           	5.07
MS.328         	8.135          	5.067
MS.329         	8.117          	5.043
MS.330         	8.102          	5.081
MS.331         	8.085          	5.05
MS.332         	8.07           	5.048
MS.333         	8.052          	5.068
MS.334         	8.037          	5.01
MS.335         	8.02           	4.996
MS.336         	8.005          	4.982
MS.337         	7.99           	4.974
MS.338         	7.972          	5.02
MS.339         	7.957          	5.023
MS.340         	7.94           	5.011
MS.341         	7.925          	4.95
MS.342         	7.91           	4.917
MS.343         	7.892          	4.95
MS.344         	7.878          	4.941
MS.345         	7.862          	4.977
MS.346         	7.847          	4.944
MS.347         	7.83           	4.916
MS.348         	7.815          	4.928
MS.349         	7.8            	4.905
MS.350         	7.785          	4.9
MS.351         	7.767          	4.923
MS.352         	7.753          	4.873
MS.353         	7.737          	4.855
MS.354         	7.722          	4.871
MS.355         	7.707          	4.891
MS.356         	7.69           	4.89
MS.357         	7.675          	4.867
MS.358         	7.66           	4.835
MS.359         	7.645          	4.816
MS.360         	7.63           	4.856
MS.361         	7.615          	4.839
MS.362         	7.6            	4.863
MS.363         	7.585          	4.814
MS.364         	7.57           	4.824
MS.365         	7.555          	4.803
MS.366         	7.537          	4.758
MS.367         	7.523          	4.836
MS.368         	7.507          	4.814
MS.369         	7.492          	4.801
MS.370         	7.477          	4.779
MS.371         	7.462          	4.781
MS.372         	7.447          	4.753
MS.373         	7.435          	4.736
MS.374         	7.42           	4.8
MS.375         	7.405          	4.785
MS.376         	7.39           	4.724
MS.377         	7.375          	4.708
MS.378         	7.36           	4.711
MS.379         	7.345          	4.702
MS.380         	7.33           	4.728
MS.381         	7.315          	4.723
MS.382         	7.302          	4.729
MS.383         	7.287          	4.692
MS.384         	7.273          	4.722
MS.385         	7.257          	4.655
MS.386         	7.242          	4.668
MS.387         	7.227          	4.688
MS.388         	7.215          	4.629
MS.389         	7.2            	4.611
MS.390         	7.185          	4.689
MS.391         	7.17           	4.624
MS.392         	7.157          	4.625
MS.393         	7.142          	4.62
MS.394         	7.128          	4.609
MS.395         	7.115          	4.591
MS.396         	7.1            	4.6
MS.397         	7.085          	4.574
MS.398         	7.072          	4.559
MS.399         	7.057          	4.587
MS.400         	7.043          	4.508
MS.401         	7.03           	4.557
MS.402         	7.015          	4.501
MS.403         	7              	4.459
MS.404         	6.987          	4.495
MS.405         	6.972          	4.534
MS.406         	6.96           	4.515
MS.407         	6.945          	4.5
MS.408         	6.932          	4.495
MS.409         	6.918          	4.469
MS.410         	6.902          	4.442
MS.411         	6.89           	4.442
MS.412         	6.875          	4.407
MS.413         	6.862          	4.364
MS.414         	6.847          	4.412
MS.415         	6.835          	4.365
MS.416         	6.822          	4.364
MS.417         	6.807          	4.357
MS.418         	6.795          	4.359
MS.419         	6.78           	4.33
MS.420         	6.767          	4.316
MS.421         	6.753          	4.32
MS.422         	6.74           	4.276
MS.423         	6.727          	4.28
MS.424         	6.712          	4.327
MS.425         	6.7            	4.275
MS.426         	6.685          	4.222
MS.427         	6.672          	4.191
MS.428         	6.66           	4.23
MS.429         	6.645          	4.224
MS.430         	6.632          	4.277
MS.431         	6.62           	4.177
MS.432         	6.608          	4.138
MS.433         	6.592          	4.265
MS.434         	6.58           	4.192
MS.435         	6.567          	4.191
MS.436         	6.555          	4.161
MS.437         	6.54           	4.121
MS.438         	6.527          	4.113
MS.439         	6.515          	4.169
MS.440         	6.503          	4.066
MS.441         	6.487          	4.121
MS.442         	6.475          	4.1
MS.443         	6.462          	4.138
MS.444         	6.45           	4.033
MS.445         	6.438          	4.028
MS.446         	6.425          	4.015
MS.447         	6.41           	3.979
MS.448         	6.398          	3.975
MS.449         	6.385          	3.981
MS.450         	6.372          	4.06
MS.451         	6.36           	3.965
MS.452         	6.347          	3.931
MS.453         	6.335          	3.984
MS.454         	6.322          	3.993
MS.455         	6.31           	3.905
MS.456         	6.297          	3.86
MS.457         	6.285          	3.86
MS.458         	6.273          	3.938
MS.459         	6.26           	3.916
MS.460         	6.247          	3.749
MS.461         	6.235          	3.835
MS.462         	6.222          	3.903
MS.463         	6.21           	3.85
MS.464         	6.197          	3.831
MS.465         	6.185          	3.837
MS.466         	6.172          	3.834
MS.467         	6.16           	3.805
MS.468         	6.148          	3.772
MS.469         	6.135          	3.802
MS.470         	6.122          	3.8
MS.471         	6.11           	3.701
MS.472         	6.097          	3.743
MS.473         	6.088          	3.8
MS.474         	6.075          	3.726
MS.475         	6.062          	3.693
MS.476         	6.05           	3.729
MS.477         	6.037          	3.688
MS.478         	6.025          	3.594
MS.479         	6.012          	3.696
MS.480         	6.003          	3.643
MS.481         	5.99           	3.618
MS.482         	5.977          	3.561
MS.483         	5.965          	3.492
MS.484         	5.955          	3.479
MS.485         	5.942          	3.512
MS.486         	5.93           	3.547
MS.487         	5.918          	3.467
MS.488         	5.907          	3.552
MS.489         	5.895          	3.407
MS.490         	5.882          	3.501
MS.491         	5.87           	3.344
MS.492         	5.86           	3.229
MS.493         	5.847          	3.281
MS.494         	5.835          	3.422
MS.495         	5.825          	3.381
MS.496         	5.812          	3.359
MS.497         	5.8            	3.254
MS.498         	5.79           	3.264
MS.499         	5.777          	3.253
MS.500         	5.767          	3.325
MS.501         	5.755          	3.218
MS.502         	5.742          	3.275
MS.503         	5.733          	3.235
MS.504         	5.72           	3.174
MS.505         	5.71           	3.129
MS.506         	5.697          	3.14
MS.507         	5.685          	3.187
MS.508         	5.675          	3.154
MS.509         	5.662          	3.147
MS.510         	5.652          	3.136
MS.511         	5.64           	3.12
MS.512         	5.63           	3.124
MS.513         	5.617          	3.149
MS.514         	5.608          	3.083
MS.515         	5.595          	3.031
MS.516         	5.585          	3.035
MS.517         	5.572          	3.164
MS.518         	5.562          	2.98
MS.519         	5.552          	3.046
MS.520         	5.54           	2.946
MS.521         	5.53           	2.942
MS.522         	5.517          	2.915
MS.523         	5.507          	2.874
MS.524         	5.495          	2.959
MS.525         	5.485          	2.849
MS.526         	5.475          	2.854
MS.527         	5.463          	2.841
MS.528         	5.452          	2.826
MS.529         	5.443          	2.688
MS.530         	5.43           	2.791
MS.531         	5.42           	2.789
MS.532         	5.41           	2.697
MS.533         	5.398          	2.697
MS.534         	5.387          	2.585
MS.535         	5.378          	2.62
MS.536         	5.365          	2.656
MS.537         	5.355          	2.605
MS.538         	5.345          	2.579
MS.539         	5.332          	2.535
MS.540         	5.322          	2.635
MS.541         	5.312          	2.632
MS.542         	5.302          	2.512
MS.543         	5.29           	2.515
MS.544         	5.28           	2.407
MS.545         	5.27           	2.446
MS.546         	5.26           	2.332
MS.547         	5.25           	2.397
MS.548         	5.237          	2.39
MS.549         	5.227          	2.372
MS.550         	5.217          	2.319
MS.551         	5.207          	2.333
MS.552         	5.197          	2.318
MS.553         	5.188          	2.489
MS.554         	5.175          	2.191
MS.555         	5.165          	2.252
MS.556         	5.155          	2.274
MS.557         	5.145          	2.316
MS.558         	5.135          	2.294
MS.559         	5.125          	2.227
MS.560         	5.115          	2.209
MS.561         	5.105          	2.151
MS.562         	5.095          	2.118
MS.563         	5.082          	2.222
MS.564         	5.072          	2.159
MS.565         	5.062          	2.051
MS.566         	5.052          	2.084
MS.567         	5.043          	2.053
MS.568         	5.032          	2.109
MS.569         	5.023          	1.974
MS.570         	5.012          	1.957
MS.571         	5.003          	1.98
MS.572         	4.992          	2.067
MS.573         	4.983          	1.913
MS.574         	4.972          	1.882
MS.575         	4.963          	1.97
MS.576         	4.952          	1.798
MS.577         	4.943          	1.91
MS.578         	4.932          	1.857
MS.579         	4.922          	1.724
MS.580         	4.915          	1.805
MS.581         	4.905          	1.747
MS.582         	4.895          	1.689
MS.583         	4.885          	1.659
MS.584         	4.875          	1.628
MS.585         	4.865          	1.61
MS.586         	4.855          	1.562
MS.587         	4.845          	1.544
MS.588         	4.835          	1.553
MS.589         	4.825          	1.525
MS.590         	4.818          	1.53
MS.591         	4.807          	1.519
MS.592         	4.797          	1.486
MS.593         	4.787          	1.481
MS.594         	4.777          	1.427
MS.595         	4.767          	1.364
MS.596         	4.76           	1.466
MS.597         	4.75           	1.371
MS.598         	4.74           	1.354
MS.599         	4.73           	1.322
MS.600         	4.72           	1.356
MS.601         	4.713          	1.362
MS.602         	4.702          	1.295
MS.603         	4.693          	1.376
MS.604         	4.682          	1.256
MS.605         	4.675          	1.262
MS.606         	4.665          	1.224
MS.607         	4.655          	1.2
MS.608         	4.645          	1.176
MS.609         	4.637          	1.2
MS.610         	4.628          	1.169
MS.611         	4.617          	1.205
MS.612         	4.61           	1.184
MS.613         	4.6            	1.134
MS.614         	4.59           	1.174
MS.615         	4.582          	1.129
MS.616         	4.572          	1.102
MS.617         	4.562          	1.09
MS.618         	4.555          	1.14
MS.619         	4.545          	1.117
MS.620         	4.535          	1.102
MS.621         	4.527          	1.158
MS.622         	4.517          	1.094
MS.623         	4.51           	1.079
MS.624         	4.5            	1.073
MS.625         	4.49           	1.075
MS.626         	4.483          	1.031
MS.627         	4.472          	0.992
MS.628         	4.465          	1.075
MS.629         	4.455          	1.046
MS.630         	4.445          	1.047
MS.631         	4.438          	1.058
MS.632         	4.427          	0.99
MS.633         	4.42           	1.006
MS.634         	4.41           	1.005
MS.635         	4.402          	0.952
MS.636         	4.392          	1.007
MS.637         	4.385          	0.955
MS.638         	4.375          	0.979
MS.639         	4.367          	0.93
MS.640         	4.358          	0.981
MS.641         	4.35           	0.969
MS.642         	4.34           	0.978
MS.643         	4.332          	0.914
MS.644         	4.322          	0.876
MS.645         	4.315          	0.946
MS.646         	4.305          	0.853
MS.647         	4.298          	0.85
MS.648         	4.29           	0.834
MS.649         	4.28           	0.859
MS.650         	4.273          	0.881
MS.651         	4.262          	0.823
MS.652         	4.255          	0.819
MS.653         	4.247          	0.868
MS.654         	4.237          	0.856
MS.655         	4.23           	0.823
MS.656         	4.22           	0.782
MS.657         	4.213          	0.791
MS.658         	4.205          	0.801
MS.659         	4.195          	0.793
MS.660         	4.188          	0.768
MS.661         	4.18           	0.771
MS.662         	4.17           	0.737
MS.663         	4.162          	0.737
MS.664         	4.155          	0.768
MS.665         	4.145          	0.787
MS.666         	4.137          	0.72
MS.667         	4.13           	0.73
MS.668         	4.12           	0.729
MS.669         	4.112          	0.702
MS.670         	4.105          	0.688
MS.671         	4.095          	0.692
MS.672         	4.088          	0.712
MS.673         	4.08           	0.691
MS.674         	4.072          	0.659
MS.675         	4.062          	0.66
MS.676         	4.055          	0.67
MS.677         	4.048          	0.686
MS.678         	4.04           	0.671
MS.679         	4.03           	0.636
MS.680         	4.023          	0.601
MS.681         	4.015          	0.625
MS.682         	4.007          	0.609
MS.683         	4              	0.601
MS.684         	3.99           	0.638
MS.685         	3.982          	0.601
MS.686         	3.975          	0.616
MS.687         	3.967          	0.623
MS.688         	3.96           	0.63
MS.689         	3.952          	0.56
MS.690         	3.942          	0.599
MS.691         	3.935          	0.551
MS.692         	3.928          	0.56
MS.693         	3.92           	0.537
MS.694         	3.912          	0.551
MS.695         	3.905          	0.508
MS.696         	3.897          	0.538
MS.697         	3.887          	0.544
MS.698         	3.88           	0.5
MS.699         	3.872          	0.555
MS.700         	3.865          	0.508
MS.701         	3.857          	0.511
MS.702         	3.85           	0.494
MS.703         	3.842          	0.521
MS.704         	3.835          	0.525
MS.705         	3.827          	0.52
MS.706         	3.82           	0.533
MS.707         	3.812          	0.496
MS.708         	3.805          	0.49
MS.709         	3.797          	0.507
MS.710         	3.79           	0.479
MS.711         	3.78           	0.469
MS.712         	3.772          	0.488
MS.713         	3.765          	0.503
MS.714         	3.757          	0.474
MS.715         	3.75           	0.461
MS.716         	3.742          	0.459
MS.717         	3.735          	0.479
MS.718         	3.727          	0.422
MS.719         	3.72           	0.444
MS.720         	3.715          	0.437
MS.721         	3.707          	0.399
MS.722         	3.7            	0.385
MS.723         	3.692          	0.409
MS.724         	3.685          	0.427
MS.725         	3.678          	0.375
MS.726         	3.67           	0.425
MS.727         	3.662          	0.396
MS.728         	3.655          	0.355
MS.729         	3.647          	0.375
MS.730         	3.64           	0.385
MS.731         	3.632          	0.331
MS.732         	3.625          	0.322
MS.733         	3.617          	0.338
MS.734         	3.61           	0.321
MS.735         	3.605          	0.323
MS.736         	3.597          	0.321
MS.737         	3.59           	0.311
MS.738         	3.582          	0.295
MS.739         	3.575          	0.295
MS.740         	3.567          	0.355
MS.741         	3.56           	0.323
MS.742         	3.555          	0.317
MS.743         	3.547          	0.289
MS.744         	3.54           	0.3
MS.745         	3.533          	0.286
MS.746         	3.525          	0.289
MS.747         	3.517          	0.282
MS.748         	3.512          	0.271
MS.749         	3.505          	0.281
MS.750         	3.497          	0.282
MS.751         	3.49           	0.273
MS.752         	3.482          	0.271
MS.753         	3.477          	0.289
MS.754         	3.47           	0.258
MS.755         	3.462          	0.27
MS.756         	3.455          	0.249
MS.757         	3.45           	0.264
MS.758         	3.442          	0.251
MS.759         	3.435          	0.261
MS.760         	3.428          	0.25
MS.761         	3.422          	0.245
MS.762         	3.415          	0.251
MS.763         	3.408          	0.251
MS.764         	3.4            	0.239
MS.765         	3.395          	0.247
MS.766         	3.387          	0.247
MS.767         	3.38           	0.22
MS.768         	3.375          	0.243
MS.769         	3.367          	0.249
MS.770         	3.36           	0.253
MS.771         	3.352          	0.24
MS.772         	3.347          	0.22
MS.773         	3.34           	0.222
MS.774         	3.332          	0.22
MS.775         	3.327          	0.215
MS.776         	3.32           	0.228
MS.777         	3.312          	0.223
MS.778         	3.307          	0.208
MS.779         	3.3            	0.203
MS.780         	3.295          	0.201
MS.781         	3.287          	0.214
MS.782         	3.28           	0.221
MS.783         	3.275          	0.173
MS.784         	3.267          	0.187
MS.785         	3.26           	0.187
MS.786         	3.255          	0.193
MS.787         	3.247          	0.2
MS.788         	3.242          	0.171
MS.789         	3.235          	0.179
MS.790         	3.227          	0.175
MS.791         	3.222          	0.173
MS.792         	3.215          	0.173
MS.793         	3.21           	0.179
MS.794         	3.202          	0.146
MS.795         	3.197          	0.159
MS.796         	3.19           	0.165
MS.797         	3.182          	0.159
MS.798         	3.178          	0.153
MS.799         	3.17           	0.159
MS.800         	3.165          	0.144
MS.801         	3.158          	0.159
MS.802         	3.152          	0.148
MS.803         	3.145          	0.139
MS.804         	3.14           	0.139
MS.805         	3.132          	0.157
MS.806         	3.127          	0.17
MS.807         	3.12           	0.133
MS.808         	3.115          	0.145
MS.809         	3.107          	0.146
MS.810         	3.102          	0.132
MS.811         	3.095          	0.148
MS.812         	3.09           	0.138
MS.813         	3.082          	0.138
MS.814         	3.077          	0.123
MS.815         	3.07           	0.148
MS.816         	3.065          	0.121
MS.817         	3.06           	0.128
MS.818         	3.053          	0.118
MS.819         	3.047          	0.133
MS.820         	3.04           	0.115
MS.821         	3.035          	0.115
MS.822         	3.027          	0.123
MS.823         	3.023          	0.121
MS.824         	3.017          	0.12
MS.825         	3.01           	0.117
MS.826         	3.005          	0.12
MS.827         	2.997          	0.114
MS.828         	2.992          	0.115
MS.829         	2.987          	0.118
MS.830         	2.98           	0.104
MS.831         	2.975          	0.114
MS.832         	2.967          	0.106
MS.833         	2.962          	0.121
MS.834         	2.957          	0.109
MS.835         	2.95           	0.11
MS.836         	2.945          	0.111
MS.837         	2.94           	0.105
MS.838         	2.932          	0.107
MS.839         	2.928          	0.107
MS.840         	2.922          	0.114
MS.841         	2.915          	0.105
MS.842         	2.91           	0.105
MS.843         	2.905          	0.11
MS.844         	2.898          	0.106
MS.845         	2.892          	0.107
MS.846         	2.888          	0.105
MS.847         	2.88           	0.105
MS.848         	2.875          	0.105
MS.849         	2.87           	0.105
MS.850         	2.862          	0.106
MS.851         	2.857          	0.107
MS.852         	2.852          	0.107
MS.853         	2.847          	0.101
MS.854         	2.84           	0.103
MS.855         	2.835          	0.107
MS.856         	2.83           	0.103
MS.857         	2.822          	0.101
MS.858         	2.817          	0.099
MS.859         	2.812          	0.1
MS.860         	2.807          	0.1
MS.861         	2.8            	0.104
MS.862         	2.795          	0.095
MS.863         	2.79           	0.103
MS.864         	2.785          	0.104
MS.865         	2.78           	0.096
MS.866         	2.773          	0.096
MS.867         	2.767          	0.098
MS.868         	2.763          	0.099
MS.869         	2.757          	0.1
MS.870         	2.75           	0.092
MS.871         	2.745          	0.1
MS.872         	2.74           	0.096
MS.873         	2.735          	0.098
MS.874         	2.73           	0.094
MS.875         	2.725          	0.103
MS.876         	2.717          	0.096
MS.877         	2.712          	0.098
MS.878         	2.707          	0.096
MS.879         	2.702          	0.092
MS.880         	2.697          	0.092
MS.881         	2.692          	0.095
MS.882         	2.685          	0.093
MS.883         	2.68           	0.093
MS.884         	2.675          	0.092
MS.885         	2.67           	0.09
MS.886         	2.665          	0.094
MS.887         	2.66           	0.095
MS.888         	2.655          	0.096
MS.889         	2.648          	0.095
MS.890         	2.642          	0.094
MS.891         	2.638          	0.094
MS.892         	2.632          	0.092
MS.893         	2.628          	0.094
MS.894         	2.622          	0.093
MS.895         	2.617          	0.09
MS.896         	2.612          	0.092
MS.897         	2.607          	0.092
MS.898         	2.602          	0.092
MS.899         	2.595          	0.088
MS.900         	2.59           	0.089
MS.901         	2.585          	0.093
MS.902         	2.58           	0.092
MS.903         	2.575          	0.092
MS.904         	2.57           	0.084
MS.905         	2.565          	0.089
MS.906         	2.56           	0.088
MS.907         	2.555          	0.093
MS.908         	2.55           	0.089
MS.909         	2.545          	0.09
MS.910         	2.54           	0.085
MS.911         	2.535          	0.088
MS.912         	2.53           	0.083
MS.913         	2.525          	0.089
MS.914         	2.52           	0.087
MS.915         	2.515          	0.083
MS.916         	2.51           	0.092
MS.917         	2.505          	0.081
MS.918         	2.5            	0.084
MS.919         	2.495          	0.085
MS.920         	2.49           	0.081
MS.921         	2.485          	0.084
MS.922         	2.48           	0.085
DERIVED EXCITABILITY VARIABLES
Program = QTracP 12/2/2021
Threshold method = 6 (optimised for CAP, using data for present condition only)
SR method = 1 (using actual data values)
6.                 	0.000               	Peak response\(mV)
9.                 	30.6                	Temperature ( C)
17.                	70                  	Age (years)
18.                	2                   	Sex (M=1, F=2)

EXTRA VARIABLES

MScPeak(mV) = 5.52
MScS5(mA) = 3.49
MScS50(mA) = 5.43
MScS95(mA) = 8.61
MScNSteps = 0
MScSteps(%) = 0.0
MScStepMax(%) = 0.0
MScD50 = 88
MScSlope = 3.02
MSFPeakAmp(mV) = 5.52
MSFNUnits = 179
MSFMeanUnitAmp(uV) = 30.9
MSFHuntTime(m) = 2.57
MSFError(%) = 1.05
MSFNLarge = 69.34
MSFMedianAmp(%) = 0.524
MSFMedianAmp(mV) = 0.0289
MSFHalfAmpAmp(%) = 0.574
MSFHalfAmpAmp(mV) = 0.0317
MSFLargestAmp(%) = 1.21
MSFLargestAmp(mV) = 0.067
MSFMeanRS(%) = 2
MSFOpts = 10106022032
MScDuration(min) = 14.6
MSFTraces = 909
MSFSizeLimit(uV) = 18.4
MSFLimitType = 1
MSFSmallestAmp(uV) = 18.4
MSFSDMax = 5.45
MSFSDMin = 4.1

EXTRA WAVEFORMS


!MScan Model
!179
	1	2.97	0.49	2
	2	3.13	0.63	2
	3	3.22	0.52	2
	4	3.29	0.55	2
	5	3.33	0.33	2
	6	3.39	0.36	2
	7	3.49	0.6	2
	8	3.55	0.62	2
	9	3.63	0.77	2
	10	3.66	0.42	2
	11	3.68	0.47	2
	12	3.71	0.5	2
	13	3.75	0.52	2
	14	3.79	0.54	2
	15	3.85	0.49	2
	16	3.88	0.42	2
	17	3.94	0.64	2
	18	3.99	0.62	2
	19	4.01	0.42	2
	20	4.05	0.57	2
	21	4.08	0.4	2
	22	4.1	0.36	2
	23	4.13	0.49	2
	24	4.15	0.34	2
	25	4.2	0.72	2
	26	4.23	0.44	2
	27	4.25	0.35	2
	28	4.27	0.4	2
	29	4.29	0.41	2
	30	4.31	0.41	2
	31	4.35	0.66	2
	32	4.37	0.49	2
	33	4.41	0.56	2
	34	4.43	0.33	2
	35	4.45	0.36	2
	36	4.5	0.7	2
	37	4.52	0.38	2
	38	4.56	0.7	2
	39	4.58	0.35	2
	40	4.61	0.47	2
	41	4.63	0.62	2
	42	4.66	0.68	2
	43	4.69	0.7	2
	44	4.7	0.4	2
	45	4.72	0.48	2
	46	4.73	0.7	2
	47	4.76	0.72	2
	48	4.78	0.53	2
	49	4.8	0.66	2
	50	4.81	0.39	2
	51	4.82	0.61	2
	52	4.83	0.46	2
	53	4.85	0.46	2
	54	4.86	0.8	2
	55	4.87	0.54	2
	56	4.89	0.62	2
	57	4.9	0.74	2
	58	4.92	0.51	2
	59	4.93	0.43	2
	60	4.93	0.43	2
	61	4.94	0.42	2
	62	4.95	0.4	2
	63	4.96	0.39	2
	64	4.97	0.4	2
	65	4.98	0.6	2
	66	5	0.65	2
	67	5.01	0.55	2
	68	5.03	0.74	2
	69	5.05	0.76	2
	70	5.07	0.63	2
	71	5.09	0.74	2
	72	5.12	0.79	2
	73	5.16	1.21	2
	74	5.19	1	2
	75	5.22	1.12	2
	76	5.25	0.71	2
	77	5.28	0.8	2
	78	5.3	0.5	2
	79	5.31	0.5	2
	80	5.33	0.52	2
	81	5.34	0.48	2
	82	5.35	0.56	2
	83	5.37	0.58	2
	84	5.38	0.49	2
	85	5.39	0.41	2
	86	5.4	0.35	2
	87	5.43	0.69	2
	88	5.44	0.4	2
	89	5.45	0.42	2
	90	5.46	0.39	2
	91	5.47	0.39	2
	92	5.48	0.43	2
	93	5.5	0.46	2
	94	5.51	0.51	2
	95	5.52	0.47	2
	96	5.54	0.44	2
	97	5.56	0.78	2
	98	5.59	0.59	2
	99	5.61	0.59	2
	100	5.64	0.94	2
	101	5.67	0.42	2
	102	5.68	0.37	2
	103	5.7	0.41	2
	104	5.72	0.41	2
	105	5.76	0.72	2
	106	5.8	0.76	2
	107	5.83	0.92	2
	108	5.86	0.75	2
	109	5.89	0.79	2
	110	5.91	0.67	2
	111	5.93	0.62	2
	112	5.96	0.71	2
	113	5.98	0.64	2
	114	5.99	0.57	2
	115	6.01	0.42	2
	116	6.02	0.35	2
	117	6.05	0.55	2
	118	6.09	0.97	2
	119	6.14	0.89	2
	120	6.2	0.86	2
	121	6.24	0.82	2
	122	6.29	0.67	2
	123	6.34	0.62	2
	124	6.37	0.61	2
	125	6.39	0.48	2
	126	6.42	0.47	2
	127	6.44	0.42	2
	128	6.47	0.49	2
	129	6.5	0.52	2
	130	6.54	0.65	2
	131	6.58	0.56	2
	132	6.62	0.48	2
	133	6.65	0.45	2
	134	6.68	0.5	2
	135	6.71	0.44	2
	136	6.74	0.44	2
	137	6.78	0.74	2
	138	6.82	0.53	2
	139	6.86	0.55	2
	140	6.89	0.38	2
	141	6.92	0.64	2
	142	6.98	0.81	2
	143	7.03	0.7	2
	144	7.1	0.64	2
	145	7.15	0.56	2
	146	7.19	0.67	2
	147	7.28	0.78	2
	148	7.32	0.37	2
	149	7.37	0.41	2
	150	7.42	0.54	2
	151	7.52	0.62	2
	152	7.58	0.6	2
	153	7.68	0.54	2
	154	7.73	0.43	2
	155	7.8	0.49	2
	156	7.87	0.7	2
	157	7.97	0.76	2
	158	8.04	0.57	2
	159	8.08	0.35	2
	160	8.13	0.37	2
	161	8.19	0.44	2
	162	8.27	0.52	2
	163	8.34	0.53	2
	164	8.41	0.5	2
	165	8.46	0.44	2
	166	8.52	0.44	2
	167	8.58	0.65	2
	168	8.66	0.51	2
	169	8.71	0.34	2
	170	8.84	0.74	2
	171	8.97	0.51	2
	172	9.14	0.49	2
	173	9.35	0.56	2
	174	9.64	0.55	2
	175	9.98	0.5	2
	176	10.41	0.49	2
	177	11.27	0.65	2
	178	12.84	0.37	2
	179	14.34	0.47	2

