File:              	C:\Qtrac\Data\Daniel M Sørensen\MScan multicentre study\Data from centres\Oxford\Processed data\ATC01214D.QZD
Name:              	UK.OXF.NC.5.2
Protocol:          	MSCAN-R2
Date:              	14/12/20
Start time:        	12:29:20
Age:               	48
Sex:               	F
Temperature:       	32.5
S/R sites:         	APB
NC/disease:        	NC
Operator:          	AT
Comments:          	Median N ABP 2nd
M-SCAN DATA (8.3-1.6m)
Scanpts: 117, 125, 539, 561
Stim. (mA)     	Amp. (mV)
MS.1           	16.5           	4.125
MS.2           	16.5           	4.145
MS.3           	16.5           	4.121
MS.4           	16.5           	4.125
MS.5           	16.5           	4.107
MS.6           	16.5           	4.113
MS.7           	16.5           	4.067
MS.8           	16.5           	3.879
MS.9           	16.5           	4.113
MS.10          	16.5           	4.103
MS.11          	16.5           	4.063
MS.12          	16.5           	4.032
MS.13          	16.5           	4.032
MS.14          	16.5           	4.042
MS.15          	16.5           	4.052
MS.16          	16.5           	4.052
MS.17          	16.5           	4.036
MS.18          	16.5           	4.055
MS.19          	16.5           	4.055
MS.20          	16.5           	4.057
MS.21          	16.5           	4.069
MS.22          	16.5           	4.085
MS.23          	16.5           	4.048
MS.24          	16.435         	4.04
MS.25          	16.4           	4.063
MS.26          	16.368         	4.022
MS.27          	16.335         	4.002
MS.28          	16.302         	4.012
MS.29          	16.27          	4.008
MS.30          	16.237         	3.974
MS.31          	16.205         	4.02
MS.32          	16.172         	4.055
MS.33          	16.14          	4.04
MS.34          	16.108         	4.044
MS.35          	16.077         	4.036
MS.36          	16.045         	4.018
MS.37          	16.012         	4.014
MS.38          	15.98          	3.982
MS.39          	15.947         	4.012
MS.40          	15.917         	3.992
MS.41          	15.885         	4.008
MS.42          	15.852         	3.98
MS.43          	15.822         	4.004
MS.44          	15.79          	4.008
MS.45          	15.757         	3.99
MS.46          	15.727         	4.014
MS.47          	15.695         	3.988
MS.48          	15.665         	3.996
MS.49          	15.632         	4.008
MS.50          	15.602         	3.998
MS.51          	15.57          	4
MS.52          	15.54          	3.992
MS.53          	15.507         	3.978
MS.54          	15.477         	3.984
MS.55          	15.445         	3.998
MS.56          	15.415         	3.988
MS.57          	15.385         	4.061
MS.58          	15.352         	4.018
MS.59          	15.322         	3.996
MS.60          	15.292         	3.988
MS.61          	15.262         	4.028
MS.62          	15.233         	3.996
MS.63          	15.2           	3.984
MS.64          	15.17          	3.952
MS.65          	15.14          	3.964
MS.66          	15.11          	3.899
MS.67          	15.08          	3.942
MS.68          	15.05          	3.998
MS.69          	15.02          	4.008
MS.70          	14.99          	4.004
MS.71          	14.96          	4.079
MS.72          	14.93          	4.055
MS.73          	14.9           	4.034
MS.74          	14.87          	4.006
MS.75          	14.84          	3.996
MS.76          	14.81          	3.976
MS.77          	14.78          	4.014
MS.78          	14.752         	4.032
MS.79          	14.722         	3.982
MS.80          	14.693         	3.984
MS.81          	14.662         	3.962
MS.82          	14.635         	3.958
MS.83          	14.605         	3.992
MS.84          	14.575         	3.976
MS.85          	14.547         	3.954
MS.86          	14.517         	3.988
MS.87          	14.487         	3.966
MS.88          	14.46          	3.992
MS.89          	14.43          	3.974
MS.90          	14.403         	3.984
MS.91          	14.372         	3.954
MS.92          	14.345         	3.992
MS.93          	14.315         	4.018
MS.94          	14.287         	3.986
MS.95          	14.257         	3.94
MS.96          	14.23          	3.909
MS.97          	14.202         	3.978
MS.98          	14.172         	3.954
MS.99          	14.145         	3.984
MS.100         	14.117         	4.004
MS.101         	14.087         	3.992
MS.102         	14.06          	4.014
MS.103         	14.032         	4.012
MS.104         	14.005         	4.016
MS.105         	13.975         	4.03
MS.106         	13.947         	4.022
MS.107         	13.92          	4.03
MS.108         	13.892         	4.057
MS.109         	13.865         	4.014
MS.110         	13.837         	3.998
MS.111         	13.81          	3.998
MS.112         	13.782         	4.01
MS.113         	13.755         	4.028
MS.114         	13.727         	4.04
MS.115         	13.7           	4.073
MS.116         	13.672         	4.026
MS.117         	13.645         	4.052
MS.118         	13.617         	4.055
MS.119         	13.59          	4.067
MS.120         	13.562         	4.103
MS.121         	13.535         	4.095
MS.122         	13.51          	4.052
MS.123         	13.483         	4.063
MS.124         	13.455         	4.042
MS.125         	13.427         	4.055
MS.126         	13.403         	4.115
MS.127         	13.375         	4.052
MS.128         	13.347         	4.101
MS.129         	13.32          	4.075
MS.130         	13.295         	4.067
MS.131         	13.267         	4.034
MS.132         	13.242         	4.085
MS.133         	13.215         	4.02
MS.134         	13.188         	4.044
MS.135         	13.162         	4.05
MS.136         	13.135         	4.036
MS.137         	13.11          	3.99
MS.138         	13.082         	4.004
MS.139         	13.057         	4.016
MS.140         	13.032         	3.964
MS.141         	13.005         	3.944
MS.142         	12.98          	3.926
MS.143         	12.952         	3.948
MS.144         	12.927         	3.899
MS.145         	12.903         	3.811
MS.146         	12.875         	3.865
MS.147         	12.85          	3.946
MS.148         	12.825         	3.883
MS.149         	12.8           	3.867
MS.150         	12.773         	3.837
MS.151         	12.747         	3.799
MS.152         	12.722         	3.865
MS.153         	12.697         	3.871
MS.154         	12.672         	3.881
MS.155         	12.645         	3.861
MS.156         	12.62          	3.885
MS.157         	12.595         	3.863
MS.158         	12.57          	3.899
MS.159         	12.545         	3.857
MS.160         	12.52          	3.948
MS.161         	12.495         	3.914
MS.162         	12.47          	3.952
MS.163         	12.445         	3.883
MS.164         	12.42          	3.952
MS.165         	12.395         	3.883
MS.166         	12.37          	3.928
MS.167         	12.347         	3.928
MS.168         	12.322         	3.97
MS.169         	12.297         	3.98
MS.170         	12.273         	3.946
MS.171         	12.247         	3.928
MS.172         	12.222         	3.926
MS.173         	12.2           	3.922
MS.174         	12.175         	3.932
MS.175         	12.15          	3.911
MS.176         	12.125         	3.851
MS.177         	12.102         	3.924
MS.178         	12.077         	3.907
MS.179         	12.052         	3.944
MS.180         	12.03          	3.942
MS.181         	12.005         	3.92
MS.182         	11.983         	3.918
MS.183         	11.957         	3.966
MS.184         	11.932         	3.94
MS.185         	11.91          	3.938
MS.186         	11.885         	3.895
MS.187         	11.863         	3.93
MS.188         	11.837         	3.952
MS.189         	11.815         	4.016
MS.190         	11.79          	4.008
MS.191         	11.767         	3.984
MS.192         	11.745         	3.986
MS.193         	11.72          	3.984
MS.194         	11.697         	3.926
MS.195         	11.675         	3.944
MS.196         	11.65          	3.97
MS.197         	11.627         	3.98
MS.198         	11.605         	3.982
MS.199         	11.58          	4.022
MS.200         	11.557         	4.034
MS.201         	11.535         	4.048
MS.202         	11.512         	4.024
MS.203         	11.488         	4.032
MS.204         	11.465         	4.036
MS.205         	11.443         	4.042
MS.206         	11.42          	4.004
MS.207         	11.398         	4.016
MS.208         	11.375         	4.02
MS.209         	11.352         	4.069
MS.210         	11.33          	3.936
MS.211         	11.307         	3.817
MS.212         	11.282         	3.748
MS.213         	11.26          	3.966
MS.214         	11.238         	3.938
MS.215         	11.215         	3.718
MS.216         	11.195         	3.787
MS.217         	11.172         	3.809
MS.218         	11.15          	3.843
MS.219         	11.127         	3.636
MS.220         	11.105         	3.646
MS.221         	11.082         	3.76
MS.222         	11.06          	3.724
MS.223         	11.037         	3.668
MS.224         	11.015         	3.634
MS.225         	10.995         	3.565
MS.226         	10.972         	3.549
MS.227         	10.95          	3.472
MS.228         	10.927         	3.601
MS.229         	10.907         	3.422
MS.230         	10.885         	3.476
MS.231         	10.863         	3.404
MS.232         	10.84          	3.4
MS.233         	10.82          	3.386
MS.234         	10.797         	3.432
MS.235         	10.778         	3.493
MS.236         	10.755         	3.319
MS.237         	10.733         	3.394
MS.238         	10.712         	3.35
MS.239         	10.69          	3.275
MS.240         	10.67          	3.217
MS.241         	10.648         	3.305
MS.242         	10.627         	3.255
MS.243         	10.605         	3.172
MS.244         	10.585         	3.219
MS.245         	10.562         	3.174
MS.246         	10.542         	3.289
MS.247         	10.52          	3.148
MS.248         	10.5           	3.13
MS.249         	10.48          	3.176
MS.250         	10.457         	3.164
MS.251         	10.438         	3.182
MS.252         	10.415         	3.209
MS.253         	10.395         	3.128
MS.254         	10.375         	3.098
MS.255         	10.355         	3.068
MS.256         	10.332         	3.066
MS.257         	10.312         	3.16
MS.258         	10.292         	3.039
MS.259         	10.273         	3.057
MS.260         	10.25          	3.043
MS.261         	10.23          	3.068
MS.262         	10.21          	3.09
MS.263         	10.19          	3.051
MS.264         	10.17          	2.921
MS.265         	10.15          	3.003
MS.266         	10.127         	2.955
MS.267         	10.108         	2.908
MS.268         	10.087         	2.943
MS.269         	10.068         	2.945
MS.270         	10.047         	3.041
MS.271         	10.028         	2.957
MS.272         	10.007         	2.796
MS.273         	9.988          	2.874
MS.274         	9.967          	3.015
MS.275         	9.948          	2.832
MS.276         	9.927          	2.858
MS.277         	9.907          	2.834
MS.278         	9.887          	2.874
MS.279         	9.867          	2.759
MS.280         	9.85           	2.8
MS.281         	9.83           	2.751
MS.282         	9.81           	2.886
MS.283         	9.79           	2.701
MS.284         	9.77           	2.647
MS.285         	9.75           	2.782
MS.286         	9.733          	2.536
MS.287         	9.712          	2.723
MS.288         	9.693          	2.683
MS.289         	9.672          	2.574
MS.290         	9.655          	2.641
MS.291         	9.635          	2.526
MS.292         	9.615          	2.52
MS.293         	9.595          	2.633
MS.294         	9.577          	2.548
MS.295         	9.557          	2.487
MS.296         	9.537          	2.242
MS.297         	9.52           	2.645
MS.298         	9.5            	2.407
MS.299         	9.483          	2.351
MS.300         	9.462          	2.33
MS.301         	9.445          	2.445
MS.302         	9.425          	2.389
MS.303         	9.405          	2.286
MS.304         	9.387          	2.367
MS.305         	9.367          	2.401
MS.306         	9.35           	2.407
MS.307         	9.33           	2.475
MS.308         	9.312          	2.318
MS.309         	9.295          	2.248
MS.310         	9.275          	2.058
MS.311         	9.257          	2.056
MS.312         	9.238          	2.183
MS.313         	9.22           	2.177
MS.314         	9.202          	2.127
MS.315         	9.182          	1.897
MS.316         	9.165          	2.085
MS.317         	9.148          	1.873
MS.318         	9.127          	2.071
MS.319         	9.11           	1.859
MS.320         	9.092          	2.004
MS.321         	9.073          	1.944
MS.322         	9.055          	2.002
MS.323         	9.037          	1.849
MS.324         	9.02           	1.716
MS.325         	9              	1.718
MS.326         	8.983          	1.615
MS.327         	8.965          	1.843
MS.328         	8.948          	1.587
MS.329         	8.93           	1.726
MS.330         	8.912          	1.581
MS.331         	8.895          	1.652
MS.332         	8.875          	1.593
MS.333         	8.858          	1.545
MS.334         	8.84           	1.434
MS.335         	8.823          	1.585
MS.336         	8.805          	1.551
MS.337         	8.787          	1.513
MS.338         	8.77           	1.438
MS.339         	8.752          	1.486
MS.340         	8.735          	1.352
MS.341         	8.717          	1.484
MS.342         	8.7            	1.499
MS.343         	8.682          	1.442
MS.344         	8.665          	1.285
MS.345         	8.648          	1.271
MS.346         	8.63           	1.223
MS.347         	8.613          	1.349
MS.348         	8.597          	1.356
MS.349         	8.58           	1.315
MS.350         	8.562          	1.208
MS.351         	8.545          	1.235
MS.352         	8.528          	1.267
MS.353         	8.51           	1.132
MS.354         	8.495          	1.206
MS.355         	8.477          	1.223
MS.356         	8.46           	1.114
MS.357         	8.443          	1.168
MS.358         	8.427          	0.995
MS.359         	8.41           	1.07
MS.360         	8.392          	1.021
MS.361         	8.375          	1.039
MS.362         	8.36           	1.035
MS.363         	8.342          	1.059
MS.364         	8.325          	1.096
MS.365         	8.31           	1.082
MS.366         	8.292          	0.804
MS.367         	8.275          	0.959
MS.368         	8.26           	0.828
MS.369         	8.242          	1.082
MS.370         	8.227          	0.933
MS.371         	8.21           	0.822
MS.372         	8.193          	0.922
MS.373         	8.177          	0.707
MS.374         	8.16           	0.632
MS.375         	8.145          	0.683
MS.376         	8.127          	0.792
MS.377         	8.113          	0.685
MS.378         	8.095          	0.602
MS.379         	8.08           	0.59
MS.380         	8.062          	0.616
MS.381         	8.047          	0.544
MS.382         	8.033          	0.574
MS.383         	8.015          	0.594
MS.384         	8              	0.685
MS.385         	7.982          	0.612
MS.386         	7.967          	0.483
MS.387         	7.952          	0.552
MS.388         	7.935          	0.459
MS.389         	7.92           	0.491
MS.390         	7.905          	0.435
MS.391         	7.887          	0.473
MS.392         	7.872          	0.536
MS.393         	7.857          	0.544
MS.394         	7.84           	0.437
MS.395         	7.825          	0.495
MS.396         	7.81           	0.469
MS.397         	7.795          	0.455
MS.398         	7.777          	0.451
MS.399         	7.762          	0.516
MS.400         	7.747          	0.532
MS.401         	7.732          	0.387
MS.402         	7.717          	0.419
MS.403         	7.7            	0.246
MS.404         	7.685          	0.361
MS.405         	7.67           	0.405
MS.406         	7.655          	0.445
MS.407         	7.64           	0.385
MS.408         	7.625          	0.354
MS.409         	7.61           	0.365
MS.410         	7.595          	0.407
MS.411         	7.58           	0.256
MS.412         	7.562          	0.298
MS.413         	7.547          	0.161
MS.414         	7.532          	0.228
MS.415         	7.517          	0.361
MS.416         	7.503          	0.222
MS.417         	7.487          	0.344
MS.418         	7.472          	0.193
MS.419         	7.457          	0.304
MS.420         	7.442          	0.203
MS.421         	7.427          	0.226
MS.422         	7.415          	0.159
MS.423         	7.4            	0.232
MS.424         	7.385          	0.226
MS.425         	7.37           	0.147
MS.426         	7.355          	0.203
MS.427         	7.34           	0.143
MS.428         	7.325          	0.242
MS.429         	7.31           	0.141
MS.430         	7.295          	0.187
MS.431         	7.282          	0.179
MS.432         	7.267          	0.171
MS.433         	7.253          	0.143
MS.434         	7.237          	0.179
MS.435         	7.222          	0.127
MS.436         	7.21           	0.137
MS.437         	7.195          	0.119
MS.438         	7.18           	0.115
MS.439         	7.165          	0.103
MS.440         	7.152          	0.193
MS.441         	7.137          	0.145
MS.442         	7.122          	0.137
MS.443         	7.11           	0.109
MS.444         	7.095          	0.103
MS.445         	7.08           	0.091
MS.446         	7.067          	0.111
MS.447         	7.052          	0.143
MS.448         	7.037          	0.149
MS.449         	7.025          	0.109
MS.450         	7.01           	0.097
MS.451         	6.995          	0.115
MS.452         	6.983          	0.127
MS.453         	6.967          	0.083
MS.454         	6.955          	0.115
MS.455         	6.94           	0.093
MS.456         	6.927          	0.101
MS.457         	6.912          	0.095
MS.458         	6.9            	0.105
MS.459         	6.885          	0.109
MS.460         	6.872          	0.141
MS.461         	6.858          	0.091
MS.462         	6.845          	0.113
MS.463         	6.83           	0.056
MS.464         	6.817          	0.085
MS.465         	6.802          	0.056
MS.466         	6.79           	0.121
MS.467         	6.775          	0.107
MS.468         	6.762          	0.115
MS.469         	6.747          	0.095
MS.470         	6.735          	0.129
MS.471         	6.722          	0.107
MS.472         	6.707          	0.05
MS.473         	6.695          	0.042
MS.474         	6.682          	0.052
MS.475         	6.668          	0.048
MS.476         	6.655          	0.05
MS.477         	6.642          	0.052
MS.478         	6.628          	0.044
MS.479         	6.615          	0.054
MS.480         	6.602          	0.121
MS.481         	6.587          	0.03
MS.482         	6.575          	0.115
MS.483         	6.562          	0.034
MS.484         	6.55           	0.042
MS.485         	6.535          	0.115
MS.486         	6.523          	0.042
MS.487         	6.51           	0.034
MS.488         	6.497          	0.042
MS.489         	6.485          	0.03
MS.490         	6.47           	0.03
MS.491         	6.457          	0.056
MS.492         	6.445          	0.06
MS.493         	6.432          	0.026
MS.494         	6.42           	0.026
MS.495         	6.407          	0.026
MS.496         	6.395          	0.03
MS.497         	6.38           	0.028
MS.498         	6.367          	0.036
MS.499         	6.355          	0.028
MS.500         	6.342          	0.034
MS.501         	6.33           	0.026
MS.502         	6.317          	0.022
MS.503         	6.305          	0.03
MS.504         	6.293          	0.034
MS.505         	6.28           	0.024
MS.506         	6.267          	0.03
MS.507         	6.255          	0.028
MS.508         	6.242          	0.02
MS.509         	6.23           	0.028
MS.510         	6.217          	0.022
MS.511         	6.205          	0.018
MS.512         	6.192          	0.016
MS.513         	6.18           	0.024
MS.514         	6.168          	0.02
MS.515         	6.155          	0.022
MS.516         	6.142          	0.024
MS.517         	6.13           	0.028
MS.518         	6.117          	0.028
MS.519         	6.108          	0.028
MS.520         	6.095          	0.024
MS.521         	6.082          	0.034
MS.522         	6.07           	0.016
MS.523         	6.057          	0.02
MS.524         	6.045          	0.014
MS.525         	6.032          	0.022
MS.526         	6.023          	0.02
MS.527         	6.01           	0.014
MS.528         	5.997          	0.016
MS.529         	5.985          	0.028
MS.530         	5.972          	0.022
MS.531         	5.963          	0.024
MS.532         	5.95           	0.02
MS.533         	5.938          	0.03
MS.534         	5.925          	0.026
MS.535         	5.915          	0.018
MS.536         	5.902          	0.022
MS.537         	5.89           	0.03
MS.538         	5.88           	0.03
MS.539         	5.867          	0.02
MS.540         	5.855          	0.024
MS.541         	5.842          	0.024
MS.542         	5.832          	0.032
MS.543         	5.82           	0.026
MS.544         	5.807          	0.02
MS.545         	5.797          	0.022
MS.546         	5.785          	0.026
MS.547         	5.775          	0.02
MS.548         	5.762          	0.024
MS.549         	5.75           	0.024
MS.550         	5.74           	0.024
MS.551         	5.727          	0.024
MS.552         	5.717          	0.028
MS.553         	5.705          	0.026
MS.554         	5.692          	0.028
MS.555         	5.682          	0.028
MS.556         	5.67           	0.024
MS.557         	5.66           	0.024
MS.558         	5.648          	0.022
MS.559         	5.637          	0.032
MS.560         	5.625          	0.024
MS.561         	5.615          	0.028
MS.562         	5.602          	0.024
MS.563         	5.592          	0.024
MS.564         	5.58           	0.026
MS.565         	5.57           	0.028
MS.566         	5.557          	0.022
MS.567         	5.547          	0.026
MS.568         	5.537          	0.032
MS.569         	5.525          	0.022
MS.570         	5.515          	0.024
MS.571         	5.503          	0.026
MS.572         	5.492          	0.028
MS.573         	5.483          	0.022
MS.574         	5.47           	0.028
MS.575         	5.46           	0.028
MS.576         	5.447          	0.028
MS.577         	5.438          	0.028
MS.578         	5.427          	0.028
MS.579         	5.415          	0.03
MS.580         	5.405          	0.022
MS.581         	5.395          	0.026
MS.582         	5.382          	0.024
MS.583         	5.372          	0.028
MS.584         	5.362          	0.028
MS.585         	5.352          	0.028
MS.586         	5.34           	0.024
MS.587         	5.33           	0.024
MS.588         	5.32           	0.028
MS.589         	5.307          	0.03
MS.590         	5.297          	0.026
MS.591         	5.287          	0.026
MS.592         	5.277          	0.024
MS.593         	5.267          	0.03
MS.594         	5.255          	0.024
MS.595         	5.245          	0.028
MS.596         	5.235          	0.026
MS.597         	5.225          	0.03
MS.598         	5.215          	0.026
MS.599         	5.202          	0.028
MS.600         	5.193          	0.034
MS.601         	5.182          	0.024
MS.602         	5.172          	0.03
MS.603         	5.162          	0.028
MS.604         	5.152          	0.024
MS.605         	5.142          	0.028
MS.606         	5.132          	0.024
MS.607         	5.12           	0.028
MS.608         	5.11           	0.028
MS.609         	5.1            	0.03
MS.610         	5.09           	0.03
MS.611         	5.08           	0.03
MS.612         	5.07           	0.03
MS.613         	5.06           	0.032
MS.614         	5.05           	0.028
MS.615         	5.04           	0.028
MS.616         	5.03           	0.03
MS.617         	5.02           	0.03
MS.618         	5.01           	0.03
MS.619         	5              	0.026
MS.620         	4.99           	0.032
MS.621         	4.98           	0.036
MS.622         	4.97           	0.028
MS.623         	4.96           	0.03
MS.624         	4.95           	0.03
MS.625         	4.94           	0.028
MS.626         	4.93           	0.03
MS.627         	4.92           	0.026
MS.628         	4.91           	0.03
MS.629         	4.9            	0.03
MS.630         	4.89           	0.026
MS.631         	4.88           	0.034
MS.632         	4.872          	0.032
MS.633         	4.862          	0.032
MS.634         	4.852          	0.032
MS.635         	4.842          	0.034
MS.636         	4.832          	0.03
MS.637         	4.822          	0.028
MS.638         	4.812          	0.03
MS.639         	4.802          	0.028
MS.640         	4.795          	0.026
MS.641         	4.785          	0.03
MS.642         	4.775          	0.014
MS.643         	4.765          	0.03
MS.644         	4.755          	0.028
MS.645         	4.747          	0.03
MS.646         	4.737          	0.028
MS.647         	4.727          	0.03
MS.648         	4.717          	0.032
MS.649         	4.707          	0.032
MS.650         	4.7            	0.032
MS.651         	4.69           	0.028
MS.652         	4.68           	0.014
MS.653         	4.67           	0.014
MS.654         	4.662          	0.012
MS.655         	4.652          	0.028
MS.656         	4.642          	0.032
MS.657         	4.632          	0.028
MS.658         	4.625          	0.026
MS.659         	4.615          	0.034
MS.660         	4.605          	0.03
MS.661         	4.597          	0.012
MS.662         	4.588          	0.012
MS.663         	4.577          	0.014
MS.664         	4.57           	0.03
MS.665         	4.56           	0.014
MS.666         	4.55           	0.012
MS.667         	4.543          	0.012
MS.668         	4.532          	0.008
MS.669         	4.525          	0.016
MS.670         	4.515          	0.014
MS.671         	4.505          	0.014
MS.672         	4.497          	0.012
MS.673         	4.487          	0.016
MS.674         	4.48           	0.016
MS.675         	4.47           	0.012
MS.676         	4.46           	0.012
MS.677         	4.452          	0.014
MS.678         	4.443          	0.018
MS.679         	4.435          	0.014
MS.680         	4.425          	0.012
MS.681         	4.418          	0.014
MS.682         	4.407          	0.01
MS.683         	4.4            	0.016
MS.684         	4.39           	0.018
MS.685         	4.382          	0.012
MS.686         	4.372          	0.014
MS.687         	4.365          	0.012
MS.688         	4.355          	0.02
MS.689         	4.347          	0.012
MS.690         	4.338          	0.014
MS.691         	4.33           	0.014
MS.692         	4.32           	0.014
MS.693         	4.312          	0.02
MS.694         	4.302          	0.012
MS.695         	4.295          	0.016
MS.696         	4.285          	0.014
MS.697         	4.277          	0.016
MS.698         	4.27           	0.012
MS.699         	4.26           	0.012
MS.700         	4.253          	0.014
MS.701         	4.242          	0.016
MS.702         	4.235          	0.012
MS.703         	4.227          	0.014
MS.704         	4.217          	0.016
MS.705         	4.21           	0.016
MS.706         	4.2            	0.014
MS.707         	4.193          	0.012
MS.708         	4.185          	0.018
MS.709         	4.175          	0.01
MS.710         	4.168          	0.012
MS.711         	4.16           	0.012
MS.712         	4.15           	0.014
MS.713         	4.142          	0.016
MS.714         	4.135          	0.016
MS.715         	4.125          	0.01
MS.716         	4.117          	0.018
MS.717         	4.11           	0.014
DERIVED EXCITABILITY VARIABLES
Program = QTracP 3/4/2020
Threshold method = 6 (optimised for CAP, using data for present condition only)
SR method = 1 (using actual data values)
6.                 	0.000               	Peak response\(mV)
9.                 	32.5                	Temperature ( C)
17.                	48                  	Age (years)
18.                	2                   	Sex (M=1, F=2)

EXTRA VARIABLES

MScPeak(mV) = 4.06
MScS5(mA) = 7.42
MScS50(mA) = 9.16
MScS95(mA) = 12.15
MScNSteps = 3
MScSteps(%) = 7.3
MScStepMax(%) = 2.9
MScD50 = 48
MScSlope = 4.75
MSFPeakAmp(mV) = 4.04
MSFNUnits = 79
MSFMeanUnitAmp(uV) = 51.1
MSFHuntTime(m) = 2.22
MSFError(%) = 4.21
MSFNLarge = 26.71
MSFMedianAmp(%) = 1.1
MSFMedianAmp(mV) = 0.0445
MSFHalfAmpAmp(%) = 1.39
MSFHalfAmpAmp(mV) = 0.0561
MSFLargestAmp(%) = 3.7
MSFLargestAmp(mV) = 0.149
MSFMeanRS(%) = 2
MSFOpts = 10106121
MScDuration(min) = 6.7
MSFTraces = 445
MSFSizeLimit(uV) = 10.2
MSFLimitType = 3
MSFSmallestAmp(uV) = 23.5

EXTRA WAVEFORMS


!MScan Model
!79
	1	6.62	0.91	2
	2	6.78	1.42	2
	3	7.24	0.93	2
	4	7.38	1.27	2
	5	7.51	1.63	2
	6	7.62	1.78	2
	7	7.72	1.94	2
	8	7.9	2.38	2
	9	7.98	1.05	2
	10	8.04	1.14	2
	11	8.08	1.18	2
	12	8.12	1.57	2
	13	8.15	1.07	2
	14	8.18	0.87	2
	15	8.24	2.27	2
	16	8.3	1.76	2
	17	8.36	2.24	2
	18	8.4	0.89	2
	19	8.43	0.94	2
	20	8.47	1.01	2
	21	8.5	0.64	2
	22	8.53	0.66	2
	23	8.56	1.06	2
	24	8.6	1.1	2
	25	8.63	0.97	2
	26	8.68	1.05	2
	27	8.72	1.02	2
	28	8.75	0.89	2
	29	8.79	1.1	2
	30	8.83	1.2	2
	31	8.87	1.14	2
	32	8.9	1.22	2
	33	8.94	1.21	2
	34	8.98	1.36	2
	35	9.01	1.29	2
	36	9.05	1.32	2
	37	9.08	1.53	2
	38	9.12	1.24	2
	39	9.16	1.63	2
	40	9.2	1.79	2
	41	9.25	1.72	2
	42	9.31	1.88	2
	43	9.38	2.32	2
	44	9.48	2.58	2
	45	9.57	2	2
	46	9.64	1.63	2
	47	9.69	1.07	2
	48	9.75	1.71	2
	49	9.82	1.57	2
	50	9.9	1.66	2
	51	9.98	1.55	2
	52	10.06	1.48	2
	53	10.15	1.39	2
	54	10.23	1.05	2
	55	10.29	0.72	2
	56	10.35	0.85	2
	57	10.43	0.97	2
	58	10.48	0.62	2
	59	10.53	0.79	2
	60	10.57	0.7	2
	61	10.62	0.8	2
	62	10.67	0.91	2
	63	10.72	0.87	2
	64	10.76	0.9	2
	65	10.79	0.65	2
	66	10.82	0.83	2
	67	10.85	0.7	2
	68	10.88	0.75	2
	69	10.91	0.69	2
	70	10.94	0.78	2
	71	10.98	0.84	2
	72	11.02	0.92	2
	73	11.06	0.96	2
	74	11.1	1.29	2
	75	11.15	1.47	2
	76	11.25	3.7	2
	77	12.95	1.81	2.25
	78	13.05	0.58	2
	79	13.13	0.65	2

