File:              	C:\Qtrac\Data\Daniel M Sørensen\MScan multicentre study\Data from centres\Oxford\Processed data\ATC01208E.QZD
Name:              	UK.OXF.NC.6.1
Protocol:          	MSCAN-R2
Date:              	8/12/20
Start time:        	17:33:53
Age:               	36
Sex:               	F
Temperature:       	33.1
S/R sites:         	ADM
NC/disease:        	NC
Operator:          	AT
Comments:          	HC Ulnar N ADM 1st
M-SCAN DATA (Repeat 2/2, 11.7-5.3m)
Scanpts: 126, 133, 615, 640
Stim. (mA)     	Amp. (mV)
MS.1           	16             	7.408
MS.2           	16             	7.422
MS.3           	15.967         	7.402
MS.4           	15.935         	7.392
MS.5           	15.905         	7.418
MS.6           	15.872         	7.398
MS.7           	15.84          	7.416
MS.8           	15.81          	7.398
MS.9           	15.777         	7.43
MS.10          	15.745         	7.424
MS.11          	15.715         	7.454
MS.12          	15.682         	7.402
MS.13          	15.652         	7.396
MS.14          	15.62          	7.434
MS.15          	15.59          	7.454
MS.16          	15.557         	7.454
MS.17          	15.527         	7.4
MS.18          	15.495         	7.392
MS.19          	15.465         	7.432
MS.20          	15.435         	7.368
MS.21          	15.402         	7.402
MS.22          	15.372         	7.38
MS.23          	15.342         	7.424
MS.24          	15.312         	7.444
MS.25          	15.28          	7.422
MS.26          	15.25          	7.392
MS.27          	15.22          	7.39
MS.28          	15.19          	7.4
MS.29          	15.16          	7.378
MS.30          	15.127         	7.386
MS.31          	15.097         	7.396
MS.32          	15.068         	7.388
MS.33          	15.037         	7.412
MS.34          	15.007         	7.402
MS.35          	14.977         	7.41
MS.36          	14.947         	7.426
MS.37          	14.917         	7.426
MS.38          	14.887         	7.448
MS.39          	14.858         	7.464
MS.40          	14.83          	7.44
MS.41          	14.8           	7.462
MS.42          	14.77          	7.487
MS.43          	14.74          	7.503
MS.44          	14.71          	7.458
MS.45          	14.682         	7.477
MS.46          	14.652         	7.487
MS.47          	14.622         	7.527
MS.48          	14.592         	7.533
MS.49          	14.565         	7.505
MS.50          	14.535         	7.515
MS.51          	14.507         	7.511
MS.52          	14.477         	7.505
MS.53          	14.447         	7.499
MS.54          	14.42          	7.475
MS.55          	14.39          	7.513
MS.56          	14.362         	7.489
MS.57          	14.332         	7.479
MS.58          	14.305         	7.515
MS.59          	14.275         	7.533
MS.60          	14.247         	7.539
MS.61          	14.22          	7.553
MS.62          	14.19          	7.545
MS.63          	14.162         	7.547
MS.64          	14.135         	7.543
MS.65          	14.105         	7.523
MS.66          	14.077         	7.535
MS.67          	14.05          	7.561
MS.68          	14.023         	7.573
MS.69          	13.992         	7.569
MS.70          	13.965         	7.561
MS.71          	13.938         	7.517
MS.72          	13.91          	7.517
MS.73          	13.882         	7.527
MS.74          	13.855         	7.561
MS.75          	13.827         	7.529
MS.76          	13.8           	7.553
MS.77          	13.773         	7.601
MS.78          	13.745         	7.561
MS.79          	13.717         	7.549
MS.80          	13.69          	7.559
MS.81          	13.662         	7.535
MS.82          	13.635         	7.535
MS.83          	13.608         	7.555
MS.84          	13.58          	7.561
MS.85          	13.552         	7.555
MS.86          	13.525         	7.585
MS.87          	13.497         	7.575
MS.88          	13.472         	7.561
MS.89          	13.445         	7.535
MS.90          	13.417         	7.553
MS.91          	13.39          	7.539
MS.92          	13.365         	7.577
MS.93          	13.337         	7.628
MS.94          	13.31          	7.607
MS.95          	13.285         	7.593
MS.96          	13.257         	7.624
MS.97          	13.233         	7.573
MS.98          	13.205         	7.529
MS.99          	13.177         	7.545
MS.100         	13.153         	7.553
MS.101         	13.125         	7.589
MS.102         	13.1           	7.609
MS.103         	13.072         	7.591
MS.104         	13.047         	7.587
MS.105         	13.023         	7.575
MS.106         	12.995         	7.583
MS.107         	12.97          	7.591
MS.108         	12.943         	7.597
MS.109         	12.917         	7.595
MS.110         	12.892         	7.628
MS.111         	12.865         	7.605
MS.112         	12.84          	7.595
MS.113         	12.815         	7.595
MS.114         	12.79          	7.599
MS.115         	12.762         	7.585
MS.116         	12.738         	7.561
MS.117         	12.712         	7.599
MS.118         	12.688         	7.579
MS.119         	12.662         	7.589
MS.120         	12.637         	7.589
MS.121         	12.61          	7.583
MS.122         	12.585         	7.616
MS.123         	12.56          	7.636
MS.124         	12.535         	7.644
MS.125         	12.51          	7.646
MS.126         	12.485         	7.648
MS.127         	12.46          	7.69
MS.128         	12.435         	7.652
MS.129         	12.41          	7.668
MS.130         	12.387         	7.686
MS.131         	12.363         	7.688
MS.132         	12.337         	7.656
MS.133         	12.312         	7.662
MS.134         	12.287         	7.644
MS.135         	12.262         	7.674
MS.136         	12.238         	7.563
MS.137         	12.215         	7.612
MS.138         	12.19          	7.603
MS.139         	12.165         	7.599
MS.140         	12.14          	7.648
MS.141         	12.117         	7.664
MS.142         	12.092         	7.553
MS.143         	12.068         	7.531
MS.144         	12.045         	7.553
MS.145         	12.02          	7.499
MS.146         	11.995         	7.501
MS.147         	11.972         	7.509
MS.148         	11.947         	7.525
MS.149         	11.925         	7.541
MS.150         	11.9           	7.541
MS.151         	11.877         	7.527
MS.152         	11.852         	7.587
MS.153         	11.83          	7.553
MS.154         	11.805         	7.577
MS.155         	11.782         	7.523
MS.156         	11.757         	7.525
MS.157         	11.735         	7.555
MS.158         	11.712         	7.567
MS.159         	11.688         	7.565
MS.160         	11.665         	7.537
MS.161         	11.642         	7.519
MS.162         	11.617         	7.537
MS.163         	11.595         	7.547
MS.164         	11.572         	7.563
MS.165         	11.55          	7.563
MS.166         	11.525         	7.563
MS.167         	11.502         	7.569
MS.168         	11.48          	7.587
MS.169         	11.457         	7.595
MS.170         	11.435         	7.573
MS.171         	11.41          	7.563
MS.172         	11.387         	7.555
MS.173         	11.365         	7.575
MS.174         	11.342         	7.525
MS.175         	11.32          	7.515
MS.176         	11.297         	7.509
MS.177         	11.275         	7.529
MS.178         	11.252         	7.567
MS.179         	11.23          	7.549
MS.180         	11.207         	7.553
MS.181         	11.185         	7.599
MS.182         	11.162         	7.563
MS.183         	11.14          	7.551
MS.184         	11.117         	7.581
MS.185         	11.095         	7.579
MS.186         	11.075         	7.642
MS.187         	11.052         	7.593
MS.188         	11.03          	7.612
MS.189         	11.007         	7.599
MS.190         	10.985         	7.605
MS.191         	10.962         	7.63
MS.192         	10.943         	7.62
MS.193         	10.92          	7.616
MS.194         	10.898         	7.601
MS.195         	10.877         	7.601
MS.196         	10.855         	7.601
MS.197         	10.832         	7.605
MS.198         	10.812         	7.62
MS.199         	10.79          	7.646
MS.200         	10.767         	7.595
MS.201         	10.747         	7.605
MS.202         	10.725         	7.614
MS.203         	10.702         	7.616
MS.204         	10.682         	7.654
MS.205         	10.66          	7.614
MS.206         	10.64          	7.601
MS.207         	10.617         	7.605
MS.208         	10.597         	7.589
MS.209         	10.575         	7.575
MS.210         	10.555         	7.547
MS.211         	10.535         	7.547
MS.212         	10.512         	7.545
MS.213         	10.492         	7.521
MS.214         	10.47          	7.553
MS.215         	10.45          	7.583
MS.216         	10.43          	7.593
MS.217         	10.407         	7.616
MS.218         	10.387         	7.591
MS.219         	10.367         	7.587
MS.220         	10.345         	7.547
MS.221         	10.325         	7.501
MS.222         	10.305         	7.519
MS.223         	10.285         	7.535
MS.224         	10.262         	7.549
MS.225         	10.242         	7.565
MS.226         	10.222         	7.555
MS.227         	10.202         	7.523
MS.228         	10.182         	7.547
MS.229         	10.162         	7.513
MS.230         	10.14          	7.515
MS.231         	10.12          	7.384
MS.232         	10.1           	7.499
MS.233         	10.08          	7.499
MS.234         	10.06          	7.446
MS.235         	10.04          	7.46
MS.236         	10.02          	7.527
MS.237         	10             	7.43
MS.238         	9.98           	7.418
MS.239         	9.96           	7.386
MS.240         	9.94           	7.334
MS.241         	9.92           	7.323
MS.242         	9.9            	7.313
MS.243         	9.88           	7.372
MS.244         	9.86           	7.299
MS.245         	9.842          	7.354
MS.246         	9.823          	7.334
MS.247         	9.802          	7.326
MS.248         	9.782          	7.35
MS.249         	9.762          	7.334
MS.250         	9.742          	7.313
MS.251         	9.725          	7.277
MS.252         	9.705          	7.253
MS.253         	9.685          	7.275
MS.254         	9.665          	7.279
MS.255         	9.648          	7.221
MS.256         	9.627          	7.193
MS.257         	9.608          	7.207
MS.258         	9.587          	7.197
MS.259         	9.57           	7.09
MS.260         	9.55           	7.066
MS.261         	9.532          	7.269
MS.262         	9.512          	6.999
MS.263         	9.492          	7.182
MS.264         	9.475          	7.18
MS.265         	9.455          	7.05
MS.266         	9.438          	7.168
MS.267         	9.417          	7.005
MS.268         	9.4            	6.907
MS.269         	9.38           	6.993
MS.270         	9.363          	6.949
MS.271         	9.342          	6.858
MS.272         	9.325          	6.943
MS.273         	9.305          	6.896
MS.274         	9.287          	6.89
MS.275         	9.267          	6.846
MS.276         	9.25           	6.766
MS.277         	9.23           	6.822
MS.278         	9.212          	6.89
MS.279         	9.195          	6.878
MS.280         	9.175          	6.89
MS.281         	9.158          	6.87
MS.282         	9.14           	6.89
MS.283         	9.12           	6.816
MS.284         	9.102          	6.862
MS.285         	9.085          	6.88
MS.286         	9.068          	6.852
MS.287         	9.047          	6.818
MS.288         	9.03           	6.834
MS.289         	9.012          	6.876
MS.290         	8.995          	6.84
MS.291         	8.977          	6.764
MS.292         	8.957          	6.832
MS.293         	8.94           	6.788
MS.294         	8.922          	6.61
MS.295         	8.905          	6.721
MS.296         	8.887          	6.735
MS.297         	8.87           	6.633
MS.298         	8.852          	6.637
MS.299         	8.835          	6.695
MS.300         	8.815          	6.689
MS.301         	8.797          	6.705
MS.302         	8.78           	6.625
MS.303         	8.762          	6.725
MS.304         	8.745          	6.731
MS.305         	8.727          	6.755
MS.306         	8.71           	6.735
MS.307         	8.693          	6.629
MS.308         	8.675          	6.606
MS.309         	8.66           	6.574
MS.310         	8.642          	6.629
MS.311         	8.625          	6.498
MS.312         	8.608          	6.53
MS.313         	8.59           	6.522
MS.314         	8.573          	6.387
MS.315         	8.555          	6.524
MS.316         	8.537          	6.266
MS.317         	8.523          	6.226
MS.318         	8.505          	6.32
MS.319         	8.488          	6.252
MS.320         	8.47           	6.145
MS.321         	8.452          	6.21
MS.322         	8.438          	6.218
MS.323         	8.42           	6.04
MS.324         	8.403          	6.004
MS.325         	8.385          	5.928
MS.326         	8.37           	5.998
MS.327         	8.352          	6.183
MS.328         	8.335          	6.04
MS.329         	8.32           	5.756
MS.330         	8.302          	5.988
MS.331         	8.285          	5.364
MS.332         	8.27           	5.964
MS.333         	8.252          	5.688
MS.334         	8.238          	6.139
MS.335         	8.22           	5.585
MS.336         	8.202          	5.412
MS.337         	8.188          	5.416
MS.338         	8.17           	5.962
MS.339         	8.155          	5.982
MS.340         	8.137          	5.626
MS.341         	8.122          	5.922
MS.342         	8.105          	5.758
MS.343         	8.09           	5.485
MS.344         	8.073          	5.901
MS.345         	8.057          	5.718
MS.346         	8.042          	5.771
MS.347         	8.025          	5.795
MS.348         	8.01           	5.46
MS.349         	7.992          	5.807
MS.350         	7.977          	5.503
MS.351         	7.962          	5.704
MS.352         	7.945          	5.615
MS.353         	7.93           	5.541
MS.354         	7.912          	5.186
MS.355         	7.898          	4.989
MS.356         	7.882          	4.892
MS.357         	7.867          	5.265
MS.358         	7.85           	4.796
MS.359         	7.835          	5.078
MS.360         	7.82           	4.909
MS.361         	7.802          	4.921
MS.362         	7.787          	4.874
MS.363         	7.773          	4.987
MS.364         	7.757          	4.927
MS.365         	7.742          	4.326
MS.366         	7.725          	4.504
MS.367         	7.71           	4.443
MS.368         	7.695          	4.373
MS.369         	7.68           	4.469
MS.370         	7.665          	4.288
MS.371         	7.65           	4.544
MS.372         	7.635          	4.268
MS.373         	7.617          	4.479
MS.374         	7.602          	4.407
MS.375         	7.587          	4.417
MS.376         	7.572          	4.488
MS.377         	7.557          	4.548
MS.378         	7.543          	4.552
MS.379         	7.527          	4.185
MS.380         	7.512          	4.357
MS.381         	7.497          	4.137
MS.382         	7.482          	4.105
MS.383         	7.467          	4.171
MS.384         	7.452          	4.107
MS.385         	7.438          	4.187
MS.386         	7.422          	4.048
MS.387         	7.407          	4.236
MS.388         	7.392          	3.998
MS.389         	7.378          	4.04
MS.390         	7.365          	3.948
MS.391         	7.35           	3.998
MS.392         	7.335          	3.855
MS.393         	7.32           	4.077
MS.394         	7.305          	3.738
MS.395         	7.29           	3.924
MS.396         	7.275          	3.73
MS.397         	7.262          	3.785
MS.398         	7.247          	3.392
MS.399         	7.233          	3.491
MS.400         	7.217          	3.541
MS.401         	7.202          	3.454
MS.402         	7.19           	3.48
MS.403         	7.175          	3.462
MS.404         	7.16           	3.523
MS.405         	7.148          	3.335
MS.406         	7.132          	3.426
MS.407         	7.117          	3.283
MS.408         	7.102          	3.227
MS.409         	7.09           	2.995
MS.410         	7.075          	2.84
MS.411         	7.06           	3.015
MS.412         	7.047          	3.132
MS.413         	7.032          	3.098
MS.414         	7.02           	2.87
MS.415         	7.005          	3.053
MS.416         	6.99           	2.731
MS.417         	6.977          	2.975
MS.418         	6.962          	2.739
MS.419         	6.95           	2.711
MS.420         	6.935          	2.731
MS.421         	6.92           	2.544
MS.422         	6.907          	2.423
MS.423         	6.892          	2.699
MS.424         	6.88           	2.685
MS.425         	6.865          	2.457
MS.426         	6.852          	2.522
MS.427         	6.837          	2.351
MS.428         	6.825          	2.381
MS.429         	6.812          	2.065
MS.430         	6.797          	2.032
MS.431         	6.785          	2.244
MS.432         	6.77           	2.141
MS.433         	6.757          	1.996
MS.434         	6.742          	1.93
MS.435         	6.73           	1.895
MS.436         	6.717          	1.744
MS.437         	6.702          	1.857
MS.438         	6.69           	1.879
MS.439         	6.677          	1.948
MS.440         	6.662          	1.803
MS.441         	6.65           	1.928
MS.442         	6.637          	1.913
MS.443         	6.622          	1.915
MS.444         	6.61           	1.702
MS.445         	6.597          	1.676
MS.446         	6.582          	1.436
MS.447         	6.57           	1.702
MS.448         	6.557          	1.422
MS.449         	6.545          	1.635
MS.450         	6.53           	1.39
MS.451         	6.517          	1.466
MS.452         	6.505          	1.295
MS.453         	6.492          	1.404
MS.454         	6.48           	1.208
MS.455         	6.465          	1.295
MS.456         	6.452          	1.275
MS.457         	6.44           	1.142
MS.458         	6.427          	1.208
MS.459         	6.415          	1.142
MS.460         	6.402          	1.112
MS.461         	6.39           	1.084
MS.462         	6.378          	1.285
MS.463         	6.362          	1.041
MS.464         	6.35           	1.11
MS.465         	6.338          	1.049
MS.466         	6.325          	1.017
MS.467         	6.312          	1.049
MS.468         	6.3            	1.007
MS.469         	6.287          	0.973
MS.470         	6.275          	1.134
MS.471         	6.262          	1.005
MS.472         	6.25           	1.078
MS.473         	6.237          	1.015
MS.474         	6.225          	0.939
MS.475         	6.213          	0.961
MS.476         	6.2            	0.955
MS.477         	6.188          	0.886
MS.478         	6.175          	0.79
MS.479         	6.162          	0.9
MS.480         	6.15           	0.91
MS.481         	6.137          	0.844
MS.482         	6.128          	0.733
MS.483         	6.115          	0.773
MS.484         	6.102          	0.802
MS.485         	6.09           	0.731
MS.486         	6.077          	0.8
MS.487         	6.065          	0.788
MS.488         	6.052          	0.707
MS.489         	6.04           	0.735
MS.490         	6.03           	0.834
MS.491         	6.017          	0.711
MS.492         	6.005          	0.645
MS.493         	5.992          	0.616
MS.494         	5.98           	0.717
MS.495         	5.97           	0.681
MS.496         	5.957          	0.61
MS.497         	5.945          	0.624
MS.498         	5.932          	0.58
MS.499         	5.922          	0.558
MS.500         	5.91           	0.433
MS.501         	5.898          	0.53
MS.502         	5.885          	0.502
MS.503         	5.875          	0.419
MS.504         	5.862          	0.534
MS.505         	5.85           	0.504
MS.506         	5.84           	0.441
MS.507         	5.827          	0.447
MS.508         	5.815          	0.463
MS.509         	5.805          	0.62
MS.510         	5.793          	0.367
MS.511         	5.78           	0.473
MS.512         	5.77           	0.336
MS.513         	5.757          	0.375
MS.514         	5.747          	0.304
MS.515         	5.735          	0.431
MS.516         	5.722          	0.254
MS.517         	5.713          	0.32
MS.518         	5.7            	0.294
MS.519         	5.69           	0.193
MS.520         	5.677          	0.26
MS.521         	5.668          	0.27
MS.522         	5.655          	0.246
MS.523         	5.645          	0.284
MS.524         	5.632          	0.242
MS.525         	5.622          	0.288
MS.526         	5.61           	0.262
MS.527         	5.6            	0.181
MS.528         	5.588          	0.246
MS.529         	5.577          	0.236
MS.530         	5.565          	0.222
MS.531         	5.555          	0.159
MS.532         	5.543          	0.191
MS.533         	5.532          	0.163
MS.534         	5.52           	0.135
MS.535         	5.51           	0.143
MS.536         	5.5            	0.105
MS.537         	5.487          	0.151
MS.538         	5.477          	0.145
MS.539         	5.465          	0.107
MS.540         	5.455          	0.167
MS.541         	5.445          	0.085
MS.542         	5.432          	0.107
MS.543         	5.422          	0.091
MS.544         	5.412          	0.105
MS.545         	5.4            	0.079
MS.546         	5.39           	0.058
MS.547         	5.38           	0.073
MS.548         	5.367          	0.054
MS.549         	5.358          	0.056
MS.550         	5.347          	0.042
MS.551         	5.338          	0.073
MS.552         	5.325          	0.04
MS.553         	5.315          	0.022
MS.554         	5.305          	0.046
MS.555         	5.295          	0.06
MS.556         	5.282          	0.038
MS.557         	5.273          	0.026
MS.558         	5.262          	0.038
MS.559         	5.253          	0.01
MS.560         	5.242          	0.028
MS.561         	5.23           	0.028
MS.562         	5.22           	0.024
MS.563         	5.21           	0.048
MS.564         	5.2            	0.028
MS.565         	5.19           	0.018
MS.566         	5.18           	0.014
MS.567         	5.168          	0.012
MS.568         	5.157          	0.024
MS.569         	5.148          	0.02
MS.570         	5.137          	0.028
MS.571         	5.128          	0.032
MS.572         	5.117          	0.012
MS.573         	5.108          	0.014
MS.574         	5.097          	0.028
MS.575         	5.088          	0.01
MS.576         	5.077          	0.016
MS.577         	5.065          	0.022
MS.578         	5.055          	0.016
MS.579         	5.045          	0.016
MS.580         	5.035          	0.02
MS.581         	5.025          	0.016
MS.582         	5.015          	0.018
MS.583         	5.005          	0.012
MS.584         	4.995          	0.028
MS.585         	4.985          	0.018
MS.586         	4.975          	0.018
MS.587         	4.965          	0.014
MS.588         	4.955          	0.016
MS.589         	4.945          	0.022
MS.590         	4.935          	0.01
MS.591         	4.927          	0.014
MS.592         	4.918          	0.02
MS.593         	4.907          	0.016
MS.594         	4.887          	0.014
MS.595         	4.878          	0.018
MS.596         	4.867          	0.018
MS.597         	4.858          	0.016
MS.598         	4.847          	0.002
MS.599         	4.838          	0.004
MS.600         	4.83           	0.022
MS.601         	4.82           	0.018
MS.602         	4.81           	0.016
MS.603         	4.8            	0.02
MS.604         	4.79           	0.016
MS.605         	4.78           	0.016
MS.606         	4.77           	0.022
MS.607         	4.762          	0.006
MS.608         	4.753          	0.004
MS.609         	4.742          	0.012
MS.610         	4.733          	0.006
MS.611         	4.722          	0.022
MS.612         	4.715          	-0.002
MS.613         	4.705          	0.000
MS.614         	4.695          	0.014
MS.615         	4.685          	-0.004
MS.616         	4.677          	0.016
MS.617         	4.668          	0.014
MS.618         	4.657          	0.002
MS.619         	4.648          	0.004
MS.620         	4.64           	0.006
MS.621         	4.63           	0.002
MS.622         	4.62           	0.002
MS.623         	4.612          	0.008
MS.624         	4.602          	0.008
MS.625         	4.592          	0.004
MS.626         	4.585          	0.006
MS.627         	4.575          	0.004
MS.628         	4.565          	0.018
MS.629         	4.557          	0.002
MS.630         	4.548          	0.006
MS.631         	4.537          	0.006
MS.632         	4.53           	0.008
MS.633         	4.52           	0.006
MS.634         	4.512          	0.01
MS.635         	4.503          	0.006
MS.636         	4.492          	0.006
MS.637         	4.485          	0.01
MS.638         	4.475          	0.004
MS.639         	4.467          	0.006
MS.640         	4.457          	0.012
DERIVED EXCITABILITY VARIABLES
Program = QTracP 3/4/2020
Threshold method = 6 (optimised for CAP, using data for present condition only)
SR method = 1 (using actual data values)
6.                 	0.000               	Peak response\(mV)
9.                 	33.1                	Temperature ( C)
17.                	36                  	Age (years)
18.                	2                   	Sex (M=1, F=2)

EXTRA VARIABLES

MScPeak(mV) = 7.41
MScS5(mA) = 5.76
MScS50(mA) = 7.26
MScS95(mA) = 9.48
MScNSteps = 3
MScSteps(%) = 8.1
MScStepMax(%) = 3.3
MScD50 = 50
MScSlope = 5.11
MSFPeakAmp(mV) = 7.66
MSFNUnits = 137
MSFMeanUnitAmp(uV) = 55.9
MSFHuntTime(m) = 2.56
MSFError(%) = 4.35
MSFNLarge = 37.16
MSFMedianAmp(%) = 0.587
MSFMedianAmp(mV) = 0.045
MSFHalfAmpAmp(%) = 0.892
MSFHalfAmpAmp(mV) = 0.0684
MSFLargestAmp(%) = 3
MSFLargestAmp(mV) = 0.23
MSFMeanRS(%) = 1.99
MSFOpts = 10106121
MSFTraces = 515
MSFSizeLimit(uV) = 19.2
MSFLimitType = 1
MSFSmallestAmp(uV) = 19.5

EXTRA WAVEFORMS


!MScan Model
!137
	1	5.23	0.31	2
	2	5.34	0.33	2
	3	5.42	0.55	2
	4	5.47	0.35	2
	5	5.5	0.33	2
	6	5.56	0.52	2
	7	5.65	0.81	2
	8	5.73	0.9	2
	9	5.77	1.05	2
	10	5.86	1.11	2
	11	5.89	0.37	2
	12	5.9	0.3	2
	13	5.92	0.26	2
	14	5.94	0.45	2
	15	5.96	0.33	2
	16	5.97	0.35	2
	17	6	0.7	2
	18	6.07	1.01	2
	19	6.13	0.57	2
	20	6.14	0.33	2
	21	6.16	0.3	2
	22	6.18	0.42	2
	23	6.19	0.42	2
	24	6.21	0.39	2
	25	6.29	0.99	2
	26	6.35	0.78	2
	27	6.38	0.37	2
	28	6.4	0.55	2
	29	6.42	0.34	2
	30	6.44	0.3	2
	31	6.45	0.29	2
	32	6.46	0.29	2
	33	6.48	0.5	2
	34	6.5	0.87	2
	35	6.52	0.78	2
	36	6.54	0.61	2
	37	6.55	0.79	2
	38	6.57	0.93	2
	39	6.59	0.79	2
	40	6.63	1.41	2
	41	6.68	1.13	2
	42	6.72	1.27	2
	43	6.75	0.75	2
	44	6.76	0.4	2
	45	6.77	0.35	2
	46	6.78	0.53	2
	47	6.79	0.81	2
	48	6.81	1.04	2
	49	6.83	0.87	2
	50	6.85	0.89	2
	51	6.86	0.86	2
	52	6.89	1.51	2
	53	6.92	1.36	2
	54	6.95	1.3	2
	55	6.99	1.07	2
	56	7.02	1.04	2
	57	7.04	1.06	2
	58	7.06	0.87	2
	59	7.08	0.49	2
	60	7.09	0.49	2
	61	7.1	0.4	2
	62	7.11	0.31	2
	63	7.12	0.43	2
	64	7.13	0.62	2
	65	7.15	0.62	2
	66	7.17	1.29	2
	67	7.2	1.24	2
	68	7.22	0.55	2
	69	7.23	0.52	2
	70	7.25	0.46	2
	71	7.26	0.43	2
	72	7.28	0.74	2
	73	7.3	0.85	2
	74	7.32	1.25	2
	75	7.35	1.02	2
	76	7.38	0.96	2
	77	7.41	0.64	2
	78	7.44	0.62	2
	79	7.46	0.51	2
	80	7.48	0.59	2
	81	7.65	2.68	2
	82	7.7	0.81	2
	83	7.72	1.16	2
	84	7.74	1.1	2
	85	7.8	2.54	2
	86	7.82	0.76	2.4
	87	7.84	1.03	2
	88	7.86	1.3	2
	89	7.89	1.26	2
	90	7.91	1.29	2
	91	7.93	0.7	2
	92	7.95	2.79	1.6
	93	8.26	3	2
	94	8.32	1.75	2
	95	8.37	1	2
	96	8.39	0.71	2
	97	8.4	0.38	2
	98	8.42	0.25	2
	99	8.44	0.49	2
	100	8.45	0.36	2
	101	8.46	0.32	2
	102	8.47	0.31	2
	103	8.48	0.31	2
	104	8.49	0.31	2
	105	8.5	0.29	2
	106	8.51	0.29	2
	107	8.52	0.28	2
	108	8.53	0.29	2
	109	8.54	0.3	2
	110	8.55	0.3	2
	111	8.56	0.32	2
	112	8.57	0.42	2
	113	8.59	0.38	2
	114	8.6	0.36	2
	115	8.61	0.35	2
	116	8.63	0.44	2
	117	8.68	1.01	2
	118	8.73	0.52	2
	119	8.91	0.88	2
	120	8.94	0.37	2
	121	8.98	0.44	2
	122	9.06	0.68	2
	123	9.32	0.74	2
	124	9.35	0.45	2
	125	9.4	0.73	2
	126	9.44	0.74	2
	127	9.61	1.8	2
	128	9.64	0.37	2
	129	9.66	0.26	2
	130	9.69	0.36	2
	131	9.73	0.4	2
	132	9.87	0.66	2
	133	9.91	0.34	2
	134	9.96	0.34	2
	135	10.06	0.85	2
	136	10.24	0.9	2
	137	12.21	1.31	2

