File:              	C:\Qtrac\Data\Daniel M Sørensen\MScan multicentre study\Data from centres\Aarhus\Processed data\DMSB91212A.QZD
Name:              	DK.AAR.NC.5.2
Protocol:          	MSCAN-R2
Date:              	12/12/19
Start time:        	09:06:11
Age:               	57
Sex:               	f
Temperature:       	35
S/R sites:         	APB
NC/disease:        	Control
Operator:          	DS
Comments:
M-SCAN DATA (10.9-3.9m)
Scanpts: 389, 403, 722, 743
Stim. (mA)     	Amp. (mV)
MS.1           	21             	8.053
MS.2           	21             	8.061
MS.3           	21             	8.063
MS.4           	21             	8.043
MS.5           	21             	8.032
MS.6           	21             	8.02
MS.7           	21             	8.043
MS.8           	21             	8.039
MS.9           	21             	8.024
MS.10          	21             	8.063
MS.11          	21             	8.085
MS.12          	21             	8.061
MS.13          	21             	8.079
MS.14          	21             	8.095
MS.15          	21             	8.105
MS.16          	21             	8.119
MS.17          	21             	8.117
MS.18          	21             	8.127
MS.19          	21             	8.137
MS.20          	21             	8.149
MS.21          	21             	8.135
MS.22          	21             	8.163
MS.23          	21             	8.177
MS.24          	20.915         	8.163
MS.25          	20.875         	8.186
MS.26          	20.833         	8.169
MS.27          	20.79          	8.151
MS.28          	20.75          	8.133
MS.29          	20.708         	8.032
MS.30          	20.667         	8.109
MS.31          	20.625         	8.147
MS.32          	20.585         	8.159
MS.33          	20.542         	8.163
MS.34          	20.502         	8.198
MS.35          	20.46          	8.192
MS.36          	20.42          	8.214
MS.37          	20.38          	8.208
MS.38          	20.337         	8.204
MS.39          	20.297         	8.198
MS.40          	20.257         	8.204
MS.41          	20.217         	8.196
MS.42          	20.177         	8.198
MS.43          	20.135         	8.19
MS.44          	20.095         	8.204
MS.45          	20.055         	8.202
MS.46          	20.015         	8.204
MS.47          	19.975         	8.234
MS.48          	19.935         	8.228
MS.49          	19.895         	8.238
MS.50          	19.855         	8.234
MS.51          	19.817         	8.244
MS.52          	19.778         	8.266
MS.53          	19.737         	8.25
MS.54          	19.698         	8.26
MS.55          	19.657         	8.254
MS.56          	19.62          	8.262
MS.57          	19.58          	8.248
MS.58          	19.54          	8.24
MS.59          	19.502         	8.25
MS.60          	19.462         	8.252
MS.61          	19.425         	8.256
MS.62          	19.385         	8.244
MS.63          	19.347         	8.26
MS.64          	19.307         	8.246
MS.65          	19.27          	8.242
MS.66          	19.23          	8.248
MS.67          	19.192         	8.25
MS.68          	19.155         	8.254
MS.69          	19.115         	8.242
MS.70          	19.077         	8.252
MS.71          	19.04          	8.256
MS.72          	19.002         	8.242
MS.73          	18.962         	8.254
MS.74          	18.925         	8.236
MS.75          	18.887         	8.242
MS.76          	18.85          	8.25
MS.77          	18.812         	8.25
MS.78          	18.775         	8.256
MS.79          	18.737         	8.262
MS.80          	18.7           	8.272
MS.81          	18.663         	8.278
MS.82          	18.625         	8.29
MS.83          	18.587         	8.266
MS.84          	18.55          	8.286
MS.85          	18.515         	8.278
MS.86          	18.477         	8.3
MS.87          	18.44          	8.29
MS.88          	18.403         	8.292
MS.89          	18.368         	8.3
MS.90          	18.33          	8.29
MS.91          	18.292         	8.282
MS.92          	18.257         	8.278
MS.93          	18.22          	8.298
MS.94          	18.182         	8.294
MS.95          	18.147         	8.286
MS.96          	18.11          	8.288
MS.97          	18.075         	8.284
MS.98          	18.038         	8.282
MS.99          	18.003         	8.29
MS.100         	17.967         	8.302
MS.101         	17.93          	8.298
MS.102         	17.895         	8.282
MS.103         	17.86          	8.29
MS.104         	17.823         	8.292
MS.105         	17.788         	8.282
MS.106         	17.753         	8.288
MS.107         	17.717         	8.31
MS.108         	17.682         	8.29
MS.109         	17.645         	8.298
MS.110         	17.61          	8.292
MS.111         	17.575         	8.294
MS.112         	17.54          	8.284
MS.113         	17.505         	8.286
MS.114         	17.47          	8.292
MS.115         	17.435         	8.274
MS.116         	17.4           	8.286
MS.117         	17.365         	8.284
MS.118         	17.333         	8.278
MS.119         	17.297         	8.286
MS.120         	17.262         	8.278
MS.121         	17.227         	8.282
MS.122         	17.192         	8.294
MS.123         	17.16          	8.29
MS.124         	17.125         	8.296
MS.125         	17.09          	8.298
MS.126         	17.057         	8.292
MS.127         	17.022         	8.288
MS.128         	16.987         	8.306
MS.129         	16.955         	8.3
MS.130         	16.92          	8.302
MS.131         	16.887         	8.312
MS.132         	16.852         	8.296
MS.133         	16.82          	8.306
MS.134         	16.785         	8.3
MS.135         	16.753         	8.3
MS.136         	16.717         	8.31
MS.137         	16.685         	8.306
MS.138         	16.653         	8.294
MS.139         	16.618         	8.298
MS.140         	16.585         	8.292
MS.141         	16.552         	8.294
MS.142         	16.52          	8.282
MS.143         	16.485         	8.282
MS.144         	16.452         	8.288
MS.145         	16.42          	8.28
MS.146         	16.387         	8.278
MS.147         	16.355         	8.278
MS.148         	16.323         	8.272
MS.149         	16.29          	8.276
MS.150         	16.257         	8.26
MS.151         	16.225         	8.266
MS.152         	16.192         	8.276
MS.153         	16.16          	8.266
MS.154         	16.128         	8.264
MS.155         	16.095         	8.256
MS.156         	16.062         	8.262
MS.157         	16.03          	8.258
MS.158         	16             	8.25
MS.159         	15.967         	8.242
MS.160         	15.935         	8.244
MS.161         	15.902         	8.25
MS.162         	15.872         	8.244
MS.163         	15.84          	8.236
MS.164         	15.807         	8.246
MS.165         	15.777         	8.25
MS.166         	15.745         	8.232
MS.167         	15.712         	8.246
MS.168         	15.682         	8.242
MS.169         	15.65          	8.234
MS.170         	15.62          	8.242
MS.171         	15.587         	8.234
MS.172         	15.557         	8.23
MS.173         	15.525         	8.224
MS.174         	15.495         	8.224
MS.175         	15.465         	8.218
MS.176         	15.432         	8.216
MS.177         	15.402         	8.208
MS.178         	15.372         	8.214
MS.179         	15.34          	8.204
MS.180         	15.31          	8.216
MS.181         	15.28          	8.204
MS.182         	15.25          	8.206
MS.183         	15.217         	8.206
MS.184         	15.188         	8.196
MS.185         	15.157         	8.208
MS.186         	15.127         	8.196
MS.187         	15.097         	8.2
MS.188         	15.068         	8.194
MS.189         	15.037         	8.192
MS.190         	15.007         	8.202
MS.191         	14.977         	8.19
MS.192         	14.947         	8.19
MS.193         	14.917         	8.184
MS.194         	14.887         	8.194
MS.195         	14.858         	8.173
MS.196         	14.827         	8.188
MS.197         	14.797         	8.18
MS.198         	14.77          	8.19
MS.199         	14.74          	8.202
MS.200         	14.71          	8.192
MS.201         	14.68          	8.182
MS.202         	14.65          	8.18
MS.203         	14.622         	8.167
MS.204         	14.592         	8.171
MS.205         	14.562         	8.175
MS.206         	14.535         	8.175
MS.207         	14.505         	8.169
MS.208         	14.477         	8.155
MS.209         	14.447         	8.169
MS.210         	14.417         	8.159
MS.211         	14.39          	8.159
MS.212         	14.36          	8.163
MS.213         	14.332         	8.155
MS.214         	14.302         	8.153
MS.215         	14.275         	8.161
MS.216         	14.247         	8.147
MS.217         	14.217         	8.145
MS.218         	14.19          	8.145
MS.219         	14.162         	8.139
MS.220         	14.132         	8.131
MS.221         	14.105         	8.139
MS.222         	14.077         	8.143
MS.223         	14.047         	8.133
MS.224         	14.02          	8.141
MS.225         	13.992         	8.135
MS.226         	13.965         	8.125
MS.227         	13.938         	8.133
MS.228         	13.91          	8.135
MS.229         	13.88          	8.135
MS.230         	13.852         	8.131
MS.231         	13.825         	8.143
MS.232         	13.797         	8.131
MS.233         	13.77          	8.123
MS.234         	13.742         	8.129
MS.235         	13.715         	8.131
MS.236         	13.688         	8.125
MS.237         	13.66          	8.119
MS.238         	13.632         	8.131
MS.239         	13.605         	8.119
MS.240         	13.58          	8.115
MS.241         	13.552         	8.125
MS.242         	13.525         	8.113
MS.243         	13.497         	8.119
MS.244         	13.47          	8.121
MS.245         	13.445         	8.115
MS.246         	13.417         	8.109
MS.247         	13.39          	8.109
MS.248         	13.362         	8.119
MS.249         	13.337         	8.103
MS.250         	13.31          	8.107
MS.251         	13.282         	8.113
MS.252         	13.257         	8.117
MS.253         	13.23          	8.109
MS.254         	13.205         	8.115
MS.255         	13.177         	8.107
MS.256         	13.153         	8.107
MS.257         	13.125         	8.107
MS.258         	13.1           	8.099
MS.259         	13.072         	8.101
MS.260         	13.047         	8.109
MS.261         	13.02          	8.099
MS.262         	12.995         	8.113
MS.263         	12.967         	8.103
MS.264         	12.943         	8.109
MS.265         	12.917         	8.123
MS.266         	12.89          	8.105
MS.267         	12.865         	8.105
MS.268         	12.84          	8.109
MS.269         	12.812         	8.111
MS.270         	12.787         	8.113
MS.271         	12.762         	8.101
MS.272         	12.738         	8.093
MS.273         	12.712         	8.103
MS.274         	12.685         	8.101
MS.275         	12.66          	8.091
MS.276         	12.635         	8.097
MS.277         	12.61          	8.101
MS.278         	12.585         	8.093
MS.279         	12.56          	8.093
MS.280         	12.535         	8.083
MS.281         	12.51          	8.095
MS.282         	12.485         	8.041
MS.283         	12.46          	8.034
MS.284         	12.435         	8.047
MS.285         	12.41          	8.073
MS.286         	12.385         	8.045
MS.287         	12.36          	8.067
MS.288         	12.335         	8.077
MS.289         	12.312         	8.039
MS.290         	12.287         	8.061
MS.291         	12.262         	8.051
MS.292         	12.238         	8.061
MS.293         	12.212         	8.059
MS.294         	12.19          	8.069
MS.295         	12.165         	8.063
MS.296         	12.14          	8.065
MS.297         	12.115         	8.061
MS.298         	12.092         	8.077
MS.299         	12.068         	8.081
MS.300         	12.042         	8.079
MS.301         	12.02          	8.083
MS.302         	11.995         	8.087
MS.303         	11.972         	8.085
MS.304         	11.947         	8.085
MS.305         	11.922         	8.085
MS.306         	11.9           	8.081
MS.307         	11.875         	8.083
MS.308         	11.852         	8.095
MS.309         	11.827         	8.087
MS.310         	11.805         	8.089
MS.311         	11.782         	8.083
MS.312         	11.757         	8.095
MS.313         	11.735         	8.089
MS.314         	11.71          	8.107
MS.315         	11.688         	8.113
MS.316         	11.665         	8.123
MS.317         	11.64          	8.113
MS.318         	11.617         	8.123
MS.319         	11.595         	8.091
MS.320         	11.57          	8.089
MS.321         	11.547         	8.137
MS.322         	11.525         	8.125
MS.323         	11.502         	8.123
MS.324         	11.48          	8.123
MS.325         	11.455         	8.113
MS.326         	11.432         	8.103
MS.327         	11.41          	8.129
MS.328         	11.387         	8.139
MS.329         	11.365         	8.135
MS.330         	11.342         	8.141
MS.331         	11.32          	8.115
MS.332         	11.297         	8.139
MS.333         	11.275         	8.155
MS.334         	11.252         	8.135
MS.335         	11.23          	8.129
MS.336         	11.207         	8.135
MS.337         	11.185         	8.135
MS.338         	11.162         	8.133
MS.339         	11.14          	8.159
MS.340         	11.117         	8.139
MS.341         	11.095         	8.137
MS.342         	11.073         	8.151
MS.343         	11.05          	8.139
MS.344         	11.03          	8.143
MS.345         	11.007         	8.155
MS.346         	10.985         	8.141
MS.347         	10.962         	8.143
MS.348         	10.94          	8.153
MS.349         	10.92          	8.143
MS.350         	10.898         	8.149
MS.351         	10.875         	8.143
MS.352         	10.855         	8.149
MS.353         	10.832         	8.149
MS.354         	10.81          	8.151
MS.355         	10.79          	8.157
MS.356         	10.767         	8.167
MS.357         	10.745         	8.165
MS.358         	10.725         	8.165
MS.359         	10.702         	8.161
MS.360         	10.682         	8.163
MS.361         	10.66          	8.177
MS.362         	10.64          	8.177
MS.363         	10.617         	8.198
MS.364         	10.597         	8.186
MS.365         	10.575         	8.184
MS.366         	10.555         	8.184
MS.367         	10.532         	8.204
MS.368         	10.512         	8.177
MS.369         	10.49          	8.194
MS.370         	10.47          	8.204
MS.371         	10.45          	8.196
MS.372         	10.427         	8.204
MS.373         	10.407         	8.182
MS.374         	10.387         	8.19
MS.375         	10.365         	8.198
MS.376         	10.345         	8.192
MS.377         	10.325         	8.198
MS.378         	10.305         	8.19
MS.379         	10.282         	8.186
MS.380         	10.262         	8.208
MS.381         	10.242         	8.222
MS.382         	10.222         	8.216
MS.383         	10.202         	8.218
MS.384         	10.18          	8.204
MS.385         	10.16          	8.218
MS.386         	10.14          	8.226
MS.387         	10.12          	8.23
MS.388         	10.1           	8.24
MS.389         	10.08          	8.218
MS.390         	10.06          	8.218
MS.391         	10.04          	8.224
MS.392         	10.02          	8.214
MS.393         	10             	8.248
MS.394         	9.98           	8.224
MS.395         	9.96           	8.206
MS.396         	9.94           	8.198
MS.397         	9.92           	8.23
MS.398         	9.9            	8.208
MS.399         	9.88           	8.222
MS.400         	9.86           	8.21
MS.401         	9.84           	8.196
MS.402         	9.82           	8.242
MS.403         	9.802          	8.214
MS.404         	9.782          	8.218
MS.405         	9.762          	8.222
MS.406         	9.742          	8.226
MS.407         	9.722          	8.22
MS.408         	9.705          	8.216
MS.409         	9.685          	8.206
MS.410         	9.665          	8.095
MS.411         	9.645          	8.208
MS.412         	9.627          	8.206
MS.413         	9.608          	8.216
MS.414         	9.587          	8.198
MS.415         	9.57           	8.206
MS.416         	9.55           	8.212
MS.417         	9.53           	8.204
MS.418         	9.512          	8.099
MS.419         	9.492          	8.039
MS.420         	9.472          	8.107
MS.421         	9.455          	8.041
MS.422         	9.435          	8.212
MS.423         	9.417          	8.107
MS.424         	9.398          	8.111
MS.425         	9.38           	8.117
MS.426         	9.36           	8.119
MS.427         	9.342          	7.964
MS.428         	9.323          	8.212
MS.429         	9.305          	8.123
MS.430         	9.285          	7.972
MS.431         	9.267          	8.113
MS.432         	9.25           	7.976
MS.433         	9.23           	8.234
MS.434         	9.212          	7.962
MS.435         	9.193          	8.141
MS.436         	9.175          	7.966
MS.437         	9.158          	7.974
MS.438         	9.137          	7.98
MS.439         	9.12           	7.97
MS.440         	9.102          	7.99
MS.441         	9.085          	7.986
MS.442         	9.065          	7.956
MS.443         	9.047          	7.986
MS.444         	9.03           	7.988
MS.445         	9.012          	7.948
MS.446         	8.992          	7.976
MS.447         	8.975          	7.988
MS.448         	8.957          	7.869
MS.449         	8.94           	7.99
MS.450         	8.922          	7.982
MS.451         	8.905          	7.887
MS.452         	8.887          	7.984
MS.453         	8.867          	7.454
MS.454         	8.85           	7.471
MS.455         	8.832          	7.97
MS.456         	8.815          	7.893
MS.457         	8.797          	7.942
MS.458         	8.78           	7.863
MS.459         	8.762          	7.857
MS.460         	8.745          	7.887
MS.461         	8.727          	7.323
MS.462         	8.71           	7.803
MS.463         	8.693          	7.863
MS.464         	8.675          	7.044
MS.465         	8.658          	7.561
MS.466         	8.64           	7.305
MS.467         	8.622          	7.815
MS.468         	8.608          	6.943
MS.469         	8.59           	7.841
MS.470         	8.573          	6.876
MS.471         	8.555          	7.271
MS.472         	8.537          	7.799
MS.473         	8.52           	7.434
MS.474         	8.505          	6.534
MS.475         	8.488          	7.75
MS.476         	8.47           	6.602
MS.477         	8.452          	7.017
MS.478         	8.435          	6.617
MS.479         	8.42           	6.54
MS.480         	8.403          	6.915
MS.481         	8.385          	6.58
MS.482         	8.37           	6.598
MS.483         	8.352          	6.478
MS.484         	8.335          	6.574
MS.485         	8.32           	6.568
MS.486         	8.302          	6.544
MS.487         	8.285          	6.57
MS.488         	8.27           	6.538
MS.489         	8.252          	6.578
MS.490         	8.235          	6.546
MS.491         	8.22           	6.498
MS.492         	8.202          	6.51
MS.493         	8.188          	6.51
MS.494         	8.17           	6.48
MS.495         	8.155          	6.409
MS.496         	8.137          	6.51
MS.497         	8.122          	6.453
MS.498         	8.105          	6.469
MS.499         	8.09           	5.984
MS.500         	8.073          	5.93
MS.501         	8.057          	6.047
MS.502         	8.04           	6.036
MS.503         	8.025          	6.407
MS.504         	8.007          	6.059
MS.505         	7.992          	5.875
MS.506         	7.977          	6.061
MS.507         	7.96           	6.385
MS.508         	7.945          	5.96
MS.509         	7.93           	5.702
MS.510         	7.912          	5.918
MS.511         	7.898          	5.877
MS.512         	7.882          	5.918
MS.513         	7.865          	5.789
MS.514         	7.85           	5.668
MS.515         	7.835          	5.62
MS.516         	7.817          	5.626
MS.517         	7.802          	5.714
MS.518         	7.787          	5.44
MS.519         	7.773          	5.724
MS.520         	7.757          	5.597
MS.521         	7.74           	5.489
MS.522         	7.725          	5.412
MS.523         	7.71           	5.726
MS.524         	7.695          	5.255
MS.525         	7.68           	5.456
MS.526         	7.665          	5.082
MS.527         	7.648          	4.929
MS.528         	7.632          	5.035
MS.529         	7.617          	4.868
MS.530         	7.602          	4.528
MS.531         	7.587          	4.989
MS.532         	7.572          	4.645
MS.533         	7.557          	4.53
MS.534         	7.543          	4.669
MS.535         	7.527          	4.193
MS.536         	7.512          	4.429
MS.537         	7.497          	3.911
MS.538         	7.482          	4.28
MS.539         	7.467          	4.304
MS.540         	7.452          	4.347
MS.541         	7.438          	3.926
MS.542         	7.422          	4.075
MS.543         	7.407          	3.531
MS.544         	7.392          	3.489
MS.545         	7.378          	3.404
MS.546         	7.362          	3.557
MS.547         	7.347          	3.493
MS.548         	7.335          	3.495
MS.549         	7.32           	3.466
MS.550         	7.305          	2.769
MS.551         	7.29           	3.074
MS.552         	7.275          	3.255
MS.553         	7.26           	3.122
MS.554         	7.247          	2.923
MS.555         	7.233          	3.211
MS.556         	7.217          	2.761
MS.557         	7.202          	2.675
MS.558         	7.19           	2.586
MS.559         	7.175          	2.687
MS.560         	7.16           	2.667
MS.561         	7.145          	2.78
MS.562         	7.132          	2.834
MS.563         	7.117          	2.576
MS.564         	7.102          	2.524
MS.565         	7.09           	2.443
MS.566         	7.075          	2.197
MS.567         	7.06           	2.417
MS.568         	7.047          	2.296
MS.569         	7.032          	2.008
MS.570         	7.017          	2.109
MS.571         	7.005          	1.926
MS.572         	6.99           	1.801
MS.573         	6.977          	1.841
MS.574         	6.962          	2.067
MS.575         	6.947          	1.998
MS.576         	6.935          	1.579
MS.577         	6.92           	1.519
MS.578         	6.907          	1.676
MS.579         	6.892          	1.694
MS.580         	6.88           	1.559
MS.581         	6.865          	1.732
MS.582         	6.852          	1.571
MS.583         	6.837          	1.551
MS.584         	6.825          	1.354
MS.585         	6.81           	1.281
MS.586         	6.797          	1.484
MS.587         	6.782          	1.462
MS.588         	6.77           	1.164
MS.589         	6.757          	1.337
MS.590         	6.742          	1.333
MS.591         	6.73           	1.13
MS.592         	6.715          	1.078
MS.593         	6.702          	0.886
MS.594         	6.69           	1.053
MS.595         	6.675          	1.112
MS.596         	6.662          	0.804
MS.597         	6.65           	1.027
MS.598         	6.635          	0.83
MS.599         	6.622          	0.709
MS.600         	6.61           	0.709
MS.601         	6.597          	0.584
MS.602         	6.582          	0.719
MS.603         	6.57           	0.719
MS.604         	6.557          	0.643
MS.605         	6.545          	0.643
MS.606         	6.53           	0.59
MS.607         	6.517          	0.506
MS.608         	6.505          	0.612
MS.609         	6.492          	0.485
MS.610         	6.477          	0.489
MS.611         	6.465          	0.423
MS.612         	6.452          	0.451
MS.613         	6.44           	0.532
MS.614         	6.427          	0.528
MS.615         	6.415          	0.481
MS.616         	6.402          	0.437
MS.617         	6.387          	0.224
MS.618         	6.375          	0.31
MS.619         	6.362          	0.451
MS.620         	6.35           	0.264
MS.621         	6.338          	0.195
MS.622         	6.325          	0.274
MS.623         	6.312          	0.357
MS.624         	6.3            	0.218
MS.625         	6.287          	0.326
MS.626         	6.275          	0.205
MS.627         	6.262          	0.28
MS.628         	6.25           	0.228
MS.629         	6.237          	0.171
MS.630         	6.225          	0.185
MS.631         	6.213          	0.081
MS.632         	6.2            	0.068
MS.633         	6.188          	0.07
MS.634         	6.175          	0.034
MS.635         	6.162          	0.181
MS.636         	6.15           	0.073
MS.637         	6.137          	0.068
MS.638         	6.125          	0.101
MS.639         	6.112          	0.081
MS.640         	6.102          	0.077
MS.641         	6.09           	0.062
MS.642         	6.077          	0.075
MS.643         	6.065          	0.062
MS.644         	6.052          	0.062
MS.645         	6.04           	0.052
MS.646         	6.027          	0.077
MS.647         	6.017          	0.058
MS.648         	6.005          	0.038
MS.649         	5.992          	0.073
MS.650         	5.98           	0.066
MS.651         	5.967          	0.04
MS.652         	5.957          	0.048
MS.653         	5.945          	0.127
MS.654         	5.932          	0.042
MS.655         	5.92           	0.064
MS.656         	5.91           	0.036
MS.657         	5.898          	0.022
MS.658         	5.885          	0.058
MS.659         	5.875          	0.042
MS.660         	5.862          	0.044
MS.661         	5.85           	0.038
MS.662         	5.84           	0.04
MS.663         	5.827          	0.042
MS.664         	5.815          	0.012
MS.665         	5.805          	0.046
MS.666         	5.793          	0.012
MS.667         	5.78           	0.034
MS.668         	5.77           	0.004
MS.669         	5.757          	0.038
MS.670         	5.745          	0.044
MS.671         	5.735          	0.006
MS.672         	5.722          	0.002
MS.673         	5.713          	0.046
MS.674         	5.7            	0.006
MS.675         	5.69           	0.006
MS.676         	5.677          	0.008
MS.677         	5.665          	0.000
MS.678         	5.655          	0.002
MS.679         	5.642          	0.006
MS.680         	5.632          	0.002
MS.681         	5.62           	0.002
MS.682         	5.61           	0.006
MS.683         	5.597          	0.008
MS.684         	5.588          	0.006
MS.685         	5.577          	0.002
MS.686         	5.565          	0.002
MS.687         	5.555          	0.008
MS.688         	5.543          	0.008
MS.689         	5.532          	0.004
MS.690         	5.52           	0.008
MS.691         	5.51           	0.006
MS.692         	5.497          	0.006
MS.693         	5.487          	0.004
MS.694         	5.477          	0.01
MS.695         	5.465          	0.008
MS.696         	5.455          	0.01
MS.697         	5.445          	0.008
MS.698         	5.432          	0.01
MS.699         	5.422          	0.004
MS.700         	5.412          	0.002
MS.701         	5.4            	0.008
MS.702         	5.39           	0.01
MS.703         	5.38           	0.004
MS.704         	5.367          	0.004
MS.705         	5.358          	0.004
MS.706         	5.347          	0.004
MS.707         	5.335          	0.008
MS.708         	5.325          	0.008
MS.709         	5.315          	0.004
MS.710         	5.305          	0.006
MS.711         	5.293          	0.002
MS.712         	5.282          	0.01
MS.713         	5.273          	0.006
MS.714         	5.262          	0.004
MS.715         	5.253          	0.006
MS.716         	5.24           	0.006
MS.717         	5.23           	0.012
MS.718         	5.22           	0.008
MS.719         	5.21           	0.01
MS.720         	5.2            	0.004
MS.721         	5.19           	0.004
MS.722         	5.177          	0.008
MS.723         	5.168          	0.008
MS.724         	5.157          	0.006
MS.725         	5.148          	0.006
MS.726         	5.137          	0.004
MS.727         	5.128          	0.008
MS.728         	5.117          	0.006
MS.729         	5.108          	0.01
MS.730         	5.097          	0.006
MS.731         	5.085          	0.006
MS.732         	5.075          	0.006
MS.733         	5.065          	0.006
MS.734         	5.055          	0.008
MS.735         	5.045          	0.002
MS.736         	5.035          	0.004
MS.737         	5.025          	0.006
MS.738         	5.015          	0.004
MS.739         	5.005          	0.002
MS.740         	4.995          	0.008
MS.741         	4.985          	0.01
MS.742         	4.975          	0.004
MS.743         	4.965          	0.01
DERIVED EXCITABILITY VARIABLES
Program = QTracP 9/10/2021
Threshold method = 6 (optimised for CAP, using data for present condition only)
SR method = 1 (using actual data values)
6.                 	0.000               	Peak response\(mV)
9.                 	35                  	Temperature ( C)
17.                	57                  	Age (years)
18.                	2                   	Sex (M=1, F=2)

EXTRA VARIABLES

MScPeak(mV) = 8.08
MScS5(mA) = 6.38
MScS50(mA) = 7.46
MScS95(mA) = 8.64
MScNSteps = 6
MScSteps(%) = 19.3
MScStepMax(%) = 4.4
MScD50 = 29
MScSlope = 7.35
MScDuration(min) = 7
MSFTraces = 355
MSFPeakAmp(mV) = 8.21
MSFNUnits = 81
MSFMeanUnitAmp(uV) = 101.4
MSFHuntTime(m) = 2.2
MSFError(%) = 6.44
MSFNLarge = 20.83
MSFMedianAmp(%) = 1.03
MSFMedianAmp(mV) = 0.0846
MSFHalfAmpAmp(%) = 1.36
MSFHalfAmpAmp(mV) = 0.111
MSFLargestAmp(%) = 8.86
MSFLargestAmp(mV) = 0.728
MSFMeanRS(%) = 1.99
MSFSizeLimit(uV) = 20.5
MSFLimitType = 1
MSFSmallestAmp(uV) = 27.2
MSFOpts = 10106121

EXTRA WAVEFORMS


!MScan Model
!81
	1	5.86	0.43	2
	2	6.1	0.46	2
	3	6.17	0.59	2
	4	6.22	0.52	2
	5	6.27	0.63	2
	6	6.31	0.66	2
	7	6.35	0.71	2
	8	6.39	0.74	2
	9	6.43	0.56	2
	10	6.47	0.62	2
	11	6.49	0.6	2
	12	6.52	0.77	2
	13	6.54	0.48	2
	14	6.56	0.33	2
	15	6.57	0.43	2
	16	6.59	0.51	2
	17	6.61	0.51	2
	18	6.62	0.45	2
	19	6.64	0.51	2
	20	6.65	0.58	2
	21	6.67	0.58	2
	22	6.68	0.53	2
	23	6.7	0.48	2
	24	6.71	0.51	2
	25	6.72	0.59	2
	26	6.75	0.9	2
	27	6.77	1.02	2
	28	6.8	0.9	2
	29	6.83	1.11	2
	30	6.86	1.14	2
	31	6.88	0.9	2
	32	6.91	1.03	2
	33	6.93	1.06	2
	34	6.95	0.75	2
	35	6.97	0.76	2
	36	6.98	0.93	2
	37	7	0.92	2
	38	7.02	0.97	2
	39	7.04	0.74	2
	40	7.06	0.78	2
	41	7.09	1.33	2
	42	7.12	1.44	2
	43	7.15	1.37	2
	44	7.18	1.73	2
	45	7.21	1.72	2
	46	7.24	1.28	2
	47	7.27	1.54	2
	48	7.29	1.47	2
	49	7.32	1.15	2
	50	7.34	1.19	2
	51	7.36	1.36	2
	52	7.38	1.24	2
	53	7.4	1.19	2
	54	7.42	1.29	2
	55	7.44	1.48	2
	56	7.46	0.83	2
	57	7.47	1.03	2
	58	7.49	1.04	2
	59	7.5	1.04	2
	60	7.52	1.17	2
	61	7.54	1.5	2
	62	7.56	1.5	2
	63	7.58	1.31	2
	64	7.6	1.17	2
	65	7.62	0.82	2
	66	7.64	0.74	2
	67	7.65	0.86	2
	68	7.67	1.23	2
	69	7.7	1.47	2
	70	7.72	2.56	2
	71	7.72	1.12	2
	72	7.76	1.51	2
	73	7.81	2.15	1.6
	74	7.89	2.09	2
	75	8	5.63	2
	76	8.42	4.13	2
	77	8.56	8.86	2
	78	8.61	2.98	2
	79	8.61	1.98	2
	80	9.35	1.75	2
	81	9.63	1.03	2

