File:              	C:\Qtrac\Data\Daniel M Sørensen\MScan multicentre study\Data from centres\Aarhus\Processed data\DMSB91206A.QZD
Name:              	DK.AAR.NC.9.1
Protocol:          	MSCAN-R2
Date:              	6/12/19
Start time:        	10:06:57
Age:               	74
Sex:               	m
Temperature:       	32,6
S/R sites:         	APB
NC/disease:        	Control
Operator:          	DS
Comments:
M-SCAN DATA (8.3-2.4m)
Scanpts: 173, 189, 577, 600
Stim. (mA)     	Amp. (mV)
MS.1           	29.5           	12.691
MS.2           	29.5           	12.705
MS.3           	29.5           	12.667
MS.4           	29.5           	12.645
MS.5           	29.5           	12.641
MS.6           	29.5           	12.663
MS.7           	29.5           	12.663
MS.8           	29.5           	12.655
MS.9           	29.5           	12.679
MS.10          	29.5           	12.717
MS.11          	29.5           	12.713
MS.12          	29.5           	12.734
MS.13          	29.5           	12.748
MS.14          	29.5           	12.734
MS.15          	29.5           	12.748
MS.16          	29.5           	12.76
MS.17          	29.5           	12.734
MS.18          	29.5           	12.76
MS.19          	29.5           	12.74
MS.20          	29.5           	12.758
MS.21          	29.5           	12.748
MS.22          	29.5           	12.734
MS.23          	29.5           	12.788
MS.24          	29.382         	12.748
MS.25          	29.323         	12.752
MS.26          	29.265         	12.752
MS.27          	29.207         	12.768
MS.28          	29.147         	12.76
MS.29          	29.09          	12.782
MS.30          	29.032         	12.77
MS.31          	28.972         	12.764
MS.32          	28.915         	12.774
MS.33          	28.858         	12.764
MS.34          	28.8           	12.742
MS.35          	28.743         	12.736
MS.36          	28.685         	12.762
MS.37          	28.627         	12.77
MS.38          	28.57          	12.75
MS.39          	28.512         	12.766
MS.40          	28.457         	12.764
MS.41          	28.4           	12.762
MS.42          	28.342         	12.764
MS.43          	28.287         	12.782
MS.44          	28.23          	12.774
MS.45          	28.172         	12.782
MS.46          	28.118         	12.736
MS.47          	28.06          	12.774
MS.48          	28.005         	12.786
MS.49          	27.95          	12.818
MS.50          	27.892         	12.804
MS.51          	27.837         	12.826
MS.52          	27.782         	12.798
MS.53          	27.727         	12.778
MS.54          	27.67          	12.804
MS.55          	27.615         	12.786
MS.56          	27.56          	12.812
MS.57          	27.505         	12.794
MS.58          	27.45          	12.796
MS.59          	27.395         	12.784
MS.60          	27.34          	12.76
MS.61          	27.287         	12.808
MS.62          	27.233         	12.778
MS.63          	27.177         	12.804
MS.64          	27.122         	12.798
MS.65          	27.07          	12.772
MS.66          	27.015         	12.814
MS.67          	26.96          	12.862
MS.68          	26.907         	12.854
MS.69          	26.852         	12.881
MS.70          	26.8           	12.85
MS.71          	26.745         	12.832
MS.72          	26.692         	12.814
MS.73          	26.64          	12.826
MS.74          	26.585         	12.852
MS.75          	26.532         	12.824
MS.76          	26.48          	12.826
MS.77          	26.427         	12.852
MS.78          	26.375         	12.804
MS.79          	26.323         	12.788
MS.80          	26.27          	12.808
MS.81          	26.217         	12.83
MS.82          	26.165         	12.834
MS.83          	26.112         	12.81
MS.84          	26.06          	12.818
MS.85          	26.007         	12.814
MS.86          	25.955         	12.802
MS.87          	25.903         	12.808
MS.88          	25.852         	12.818
MS.89          	25.8           	12.838
MS.90          	25.75          	12.822
MS.91          	25.698         	12.778
MS.92          	25.645         	12.881
MS.93          	25.595         	12.822
MS.94          	25.542         	12.818
MS.95          	25.493         	12.85
MS.96          	25.442         	12.834
MS.97          	25.39          	12.828
MS.98          	25.34          	12.764
MS.99          	25.29          	12.836
MS.100         	25.24          	12.84
MS.101         	25.188         	12.734
MS.102         	25.137         	12.784
MS.103         	25.087         	12.792
MS.104         	25.038         	12.794
MS.105         	24.987         	12.846
MS.106         	24.938         	12.82
MS.107         	24.887         	12.844
MS.108         	24.837         	12.84
MS.109         	24.788         	12.812
MS.110         	24.74          	12.764
MS.111         	24.69          	12.834
MS.112         	24.64          	12.81
MS.113         	24.59          	12.818
MS.114         	24.542         	12.776
MS.115         	24.493         	12.768
MS.116         	24.445         	12.772
MS.117         	24.395         	12.774
MS.118         	24.347         	12.768
MS.119         	24.297         	12.778
MS.120         	24.25          	12.76
MS.121         	24.2           	12.744
MS.122         	24.153         	12.744
MS.123         	24.105         	12.742
MS.124         	24.055         	12.709
MS.125         	24.007         	12.75
MS.126         	23.96          	12.76
MS.127         	23.913         	12.746
MS.128         	23.865         	12.748
MS.129         	23.817         	12.742
MS.130         	23.77          	12.76
MS.131         	23.722         	12.74
MS.132         	23.675         	12.744
MS.133         	23.627         	12.719
MS.134         	23.58          	12.758
MS.135         	23.532         	12.76
MS.136         	23.485         	12.744
MS.137         	23.438         	12.715
MS.138         	23.392         	12.738
MS.139         	23.345         	12.689
MS.140         	23.297         	12.748
MS.141         	23.252         	12.687
MS.142         	23.205         	12.721
MS.143         	23.16          	12.687
MS.144         	23.112         	12.732
MS.145         	23.067         	12.738
MS.146         	23.02          	12.709
MS.147         	22.975         	12.732
MS.148         	22.927         	12.744
MS.149         	22.882         	12.756
MS.150         	22.837         	12.699
MS.151         	22.792         	12.736
MS.152         	22.745         	12.697
MS.153         	22.7           	12.703
MS.154         	22.655         	12.685
MS.155         	22.61          	12.661
MS.156         	22.565         	12.709
MS.157         	22.52          	12.697
MS.158         	22.475         	12.713
MS.159         	22.43          	12.645
MS.160         	22.385         	12.659
MS.161         	22.34          	12.691
MS.162         	22.295         	12.633
MS.163         	22.25          	12.683
MS.164         	22.207         	12.673
MS.165         	22.163         	12.659
MS.166         	22.118         	12.671
MS.167         	22.073         	12.675
MS.168         	22.03          	12.671
MS.169         	21.985         	12.625
MS.170         	21.942         	12.657
MS.171         	21.897         	12.615
MS.172         	21.855         	12.633
MS.173         	21.81          	12.653
MS.174         	21.767         	12.647
MS.175         	21.722         	12.659
MS.176         	21.68          	12.687
MS.177         	21.637         	12.677
MS.178         	21.592         	12.677
MS.179         	21.55          	12.639
MS.180         	21.507         	12.665
MS.181         	21.465         	12.627
MS.182         	21.422         	12.657
MS.183         	21.377         	12.653
MS.184         	21.335         	12.633
MS.185         	21.292         	12.665
MS.186         	21.25          	12.657
MS.187         	21.208         	12.661
MS.188         	21.165         	12.663
MS.189         	21.122         	12.681
MS.190         	21.083         	12.669
MS.191         	21.04          	12.675
MS.192         	20.997         	12.671
MS.193         	20.955         	12.673
MS.194         	20.913         	12.611
MS.195         	20.872         	12.661
MS.196         	20.83          	12.663
MS.197         	20.788         	12.683
MS.198         	20.747         	12.675
MS.199         	20.705         	12.667
MS.200         	20.665         	12.677
MS.201         	20.622         	12.635
MS.202         	20.583         	12.667
MS.203         	20.54          	12.679
MS.204         	20.5           	12.681
MS.205         	20.458         	12.621
MS.206         	20.417         	12.619
MS.207         	20.377         	12.57
MS.208         	20.335         	12.623
MS.209         	20.295         	12.699
MS.210         	20.255         	12.683
MS.211         	20.215         	12.534
MS.212         	20.175         	12.659
MS.213         	20.132         	12.28
MS.214         	20.092         	12.323
MS.215         	20.052         	12.313
MS.216         	20.012         	12.292
MS.217         	19.972         	12.375
MS.218         	19.932         	12.52
MS.219         	19.892         	12.131
MS.220         	19.852         	12.174
MS.221         	19.815         	12.178
MS.222         	19.775         	12.52
MS.223         	19.735         	12.099
MS.224         	19.695         	12.184
MS.225         	19.655         	12.659
MS.226         	19.618         	12.621
MS.227         	19.577         	11.986
MS.228         	19.538         	11.994
MS.229         	19.5           	12.149
MS.230         	19.46          	12.075
MS.231         	19.422         	12.196
MS.232         	19.382         	12.093
MS.233         	19.345         	11.906
MS.234         	19.305         	11.827
MS.235         	19.267         	11.857
MS.236         	19.227         	11.922
MS.237         	19.19          	11.863
MS.238         	19.153         	11.912
MS.239         	19.112         	11.845
MS.240         	19.075         	11.791
MS.241         	19.038         	11.827
MS.242         	19             	11.865
MS.243         	18.96          	11.662
MS.244         	18.922         	11.884
MS.245         	18.885         	11.857
MS.246         	18.847         	11.751
MS.247         	18.81          	11.807
MS.248         	18.772         	11.72
MS.249         	18.735         	11.743
MS.250         	18.698         	11.612
MS.251         	18.66          	11.416
MS.252         	18.622         	11.497
MS.253         	18.585         	11.448
MS.254         	18.547         	11.787
MS.255         	18.512         	11.646
MS.256         	18.475         	11.545
MS.257         	18.438         	11.585
MS.258         	18.4           	11.561
MS.259         	18.365         	11.376
MS.260         	18.327         	11.436
MS.261         	18.29          	11.241
MS.262         	18.255         	11.307
MS.263         	18.217         	11.318
MS.264         	18.18          	11.352
MS.265         	18.145         	11.513
MS.266         	18.108         	11.173
MS.267         	18.073         	11.072
MS.268         	18.038         	11.195
MS.269         	18             	11.062
MS.270         	17.965         	11.191
MS.271         	17.927         	10.935
MS.272         	17.892         	11.001
MS.273         	17.858         	11.052
MS.274         	17.82          	10.911
MS.275         	17.785         	11.056
MS.276         	17.75          	10.969
MS.277         	17.715         	11.026
MS.278         	17.68          	10.832
MS.279         	17.645         	10.876
MS.280         	17.608         	10.756
MS.281         	17.573         	10.917
MS.282         	17.538         	10.899
MS.283         	17.503         	10.826
MS.284         	17.467         	10.709
MS.285         	17.432         	10.834
MS.286         	17.397         	10.546
MS.287         	17.365         	10.449
MS.288         	17.33          	10.649
MS.289         	17.295         	10.75
MS.290         	17.26          	10.439
MS.291         	17.225         	10.558
MS.292         	17.19          	10.024
MS.293         	17.157         	10.737
MS.294         	17.122         	9.414
MS.295         	17.087         	10.633
MS.296         	17.055         	10.131
MS.297         	17.02          	10.091
MS.298         	16.985         	10.049
MS.299         	16.952         	9.833
MS.300         	16.917         	9.257
MS.301         	16.885         	9.398
MS.302         	16.85          	9.237
MS.303         	16.817         	9.747
MS.304         	16.782         	9.593
MS.305         	16.75          	9.783
MS.306         	16.717         	9.45
MS.307         	16.682         	9.235
MS.308         	16.65          	8.927
MS.309         	16.618         	8.725
MS.310         	16.583         	9.734
MS.311         	16.55          	8.188
MS.312         	16.517         	8.774
MS.313         	16.485         	8.735
MS.314         	16.45          	8.647
MS.315         	16.417         	8.772
MS.316         	16.385         	8.331
MS.317         	16.352         	8.022
MS.318         	16.32          	8.47
MS.319         	16.288         	7.902
MS.320         	16.255         	7.962
MS.321         	16.222         	7.507
MS.322         	16.19          	7.95
MS.323         	16.157         	7.396
MS.324         	16.125         	7.666
MS.325         	16.092         	7.332
MS.326         	16.06          	7.67
MS.327         	16.03          	6.894
MS.328         	15.997         	7.191
MS.329         	15.965         	7.281
MS.330         	15.932         	7.227
MS.331         	15.9           	7.178
MS.332         	15.87          	7.162
MS.333         	15.837         	6.969
MS.334         	15.805         	7.122
MS.335         	15.775         	6.776
MS.336         	15.742         	6.546
MS.337         	15.712         	6.758
MS.338         	15.68          	6.649
MS.339         	15.648         	6.453
MS.340         	15.617         	6.393
MS.341         	15.585         	6.262
MS.342         	15.555         	6.147
MS.343         	15.525         	6.185
MS.344         	15.492         	6.451
MS.345         	15.462         	6.036
MS.346         	15.43          	6.31
MS.347         	15.4           	6.179
MS.348         	15.37          	5.436
MS.349         	15.34          	5.887
MS.350         	15.307         	6.022
MS.351         	15.277         	5.964
MS.352         	15.247         	5.843
MS.353         	15.217         	5.269
MS.354         	15.185         	5.948
MS.355         	15.155         	4.913
MS.356         	15.125         	5.041
MS.357         	15.095         	4.957
MS.358         	15.065         	4.681
MS.359         	15.035         	4.667
MS.360         	15.005         	4.679
MS.361         	14.975         	4.417
MS.362         	14.945         	4.669
MS.363         	14.915         	4.679
MS.364         	14.885         	4.067
MS.365         	14.855         	4.163
MS.366         	14.825         	4.258
MS.367         	14.797         	4.071
MS.368         	14.767         	4.915
MS.369         	14.737         	4.477
MS.370         	14.707         	3.998
MS.371         	14.677         	4.151
MS.372         	14.65          	3.958
MS.373         	14.62          	4.326
MS.374         	14.59          	4.121
MS.375         	14.562         	4.113
MS.376         	14.532         	3.946
MS.377         	14.502         	3.972
MS.378         	14.475         	3.742
MS.379         	14.445         	3.869
MS.380         	14.417         	3.956
MS.381         	14.387         	3.789
MS.382         	14.36          	3.533
MS.383         	14.33          	3.452
MS.384         	14.302         	3.374
MS.385         	14.273         	3.35
MS.386         	14.245         	3.545
MS.387         	14.217         	3.239
MS.388         	14.188         	3.416
MS.389         	14.16          	3.309
MS.390         	14.13          	3.207
MS.391         	14.102         	3.037
MS.392         	14.075         	3.023
MS.393         	14.047         	2.689
MS.394         	14.017         	2.564
MS.395         	13.99          	2.624
MS.396         	13.962         	2.622
MS.397         	13.935         	2.713
MS.398         	13.907         	2.633
MS.399         	13.88          	2.63
MS.400         	13.852         	2.498
MS.401         	13.822         	2.83
MS.402         	13.795         	2.618
MS.403         	13.767         	2.224
MS.404         	13.74          	2.33
MS.405         	13.712         	2.417
MS.406         	13.685         	2.069
MS.407         	13.66          	2.06
MS.408         	13.632         	2.123
MS.409         	13.605         	1.865
MS.410         	13.577         	2.107
MS.411         	13.55          	2.067
MS.412         	13.523         	1.936
MS.413         	13.495         	1.996
MS.414         	13.47          	1.813
MS.415         	13.443         	1.944
MS.416         	13.415         	1.831
MS.417         	13.387         	1.613
MS.418         	13.362         	1.795
MS.419         	13.335         	1.772
MS.420         	13.307         	1.744
MS.421         	13.282         	1.448
MS.422         	13.255         	1.418
MS.423         	13.227         	1.66
MS.424         	13.202         	1.694
MS.425         	13.175         	1.343
MS.426         	13.15          	1.708
MS.427         	13.122         	1.424
MS.428         	13.097         	1.184
MS.429         	13.07          	1.273
MS.430         	13.045         	1.352
MS.431         	13.017         	1.263
MS.432         	12.992         	1.16
MS.433         	12.967         	1.063
MS.434         	12.94          	1.392
MS.435         	12.915         	1.263
MS.436         	12.89          	1.166
MS.437         	12.862         	1.136
MS.438         	12.837         	1.122
MS.439         	12.812         	0.739
MS.440         	12.787         	0.81
MS.441         	12.76          	1.144
MS.442         	12.735         	1.12
MS.443         	12.71          	0.939
MS.444         	12.685         	0.715
MS.445         	12.66          	0.63
MS.446         	12.635         	0.671
MS.447         	12.608         	0.739
MS.448         	12.582         	0.566
MS.449         	12.557         	0.794
MS.450         	12.532         	0.677
MS.451         	12.507         	0.536
MS.452         	12.483         	0.665
MS.453         	12.457         	0.614
MS.454         	12.432         	0.421
MS.455         	12.407         	0.538
MS.456         	12.385         	0.524
MS.457         	12.36          	0.371
MS.458         	12.335         	0.62
MS.459         	12.31          	0.423
MS.460         	12.285         	0.377
MS.461         	12.26          	0.359
MS.462         	12.235         	0.342
MS.463         	12.212         	0.222
MS.464         	12.188         	0.352
MS.465         	12.162         	0.354
MS.466         	12.137         	0.316
MS.467         	12.115         	0.34
MS.468         	12.09          	0.34
MS.469         	12.065         	0.24
MS.470         	12.042         	0.276
MS.471         	12.017         	0.318
MS.472         	11.995         	0.3
MS.473         	11.97          	0.31
MS.474         	11.945         	0.119
MS.475         	11.922         	0.211
MS.476         	11.898         	0.274
MS.477         	11.875         	0.181
MS.478         	11.85          	0.286
MS.479         	11.827         	0.159
MS.480         	11.802         	0.246
MS.481         	11.78          	0.121
MS.482         	11.757         	0.141
MS.483         	11.733         	0.079
MS.484         	11.71          	0.115
MS.485         	11.685         	0.139
MS.486         	11.662         	0.099
MS.487         	11.64          	0.097
MS.488         	11.615         	0.109
MS.489         	11.592         	0.093
MS.490         	11.57          	0.093
MS.491         	11.547         	0.107
MS.492         	11.523         	0.093
MS.493         	11.5           	0.117
MS.494         	11.477         	0.091
MS.495         	11.455         	0.103
MS.496         	11.432         	0.089
MS.497         	11.41          	0.062
MS.498         	11.385         	0.089
MS.499         	11.363         	0.079
MS.500         	11.34          	0.064
MS.501         	11.318         	0.068
MS.502         	11.295         	0.083
MS.503         	11.273         	0.064
MS.504         	11.25          	0.064
MS.505         	11.227         	0.087
MS.506         	11.205         	0.085
MS.507         	11.182         	0.028
MS.508         	11.16          	0.026
MS.509         	11.137         	0.087
MS.510         	11.115         	0.016
MS.511         	11.095         	0.077
MS.512         	11.073         	0.058
MS.513         	11.05          	0.093
MS.514         	11.028         	0.068
MS.515         	11.005         	0.022
MS.516         	10.983         	0.081
MS.517         	10.962         	0.068
MS.518         	10.94          	0.02
MS.519         	10.917         	0.028
MS.520         	10.895         	0.073
MS.521         	10.875         	0.062
MS.522         	10.852         	0.026
MS.523         	10.83          	0.024
MS.524         	10.81          	0.02
MS.525         	10.787         	0.022
MS.526         	10.765         	0.014
MS.527         	10.745         	0.026
MS.528         	10.722         	0.024
MS.529         	10.702         	0.022
MS.530         	10.68          	0.028
MS.531         	10.66          	0.028
MS.532         	10.637         	0.028
MS.533         	10.617         	0.024
MS.534         	10.595         	0.03
MS.535         	10.575         	0.028
MS.536         	10.552         	0.036
MS.537         	10.532         	0.024
MS.538         	10.51          	0.028
MS.539         	10.49          	0.026
MS.540         	10.467         	0.022
MS.541         	10.448         	0.024
MS.542         	10.427         	0.03
MS.543         	10.405         	0.064
MS.544         	10.385         	0.024
MS.545         	10.365         	0.028
MS.546         	10.345         	0.018
MS.547         	10.323         	0.034
MS.548         	10.302         	0.028
MS.549         	10.282         	0.014
MS.550         	10.262         	0.024
MS.551         	10.24          	0.028
MS.552         	10.22          	0.034
MS.553         	10.2           	0.04
MS.554         	10.18          	0.024
MS.555         	10.16          	0.02
MS.556         	10.14          	0.022
MS.557         	10.117         	0.028
MS.558         	10.097         	0.022
MS.559         	10.077         	0.026
MS.560         	10.057         	0.044
MS.561         	10.037         	0.02
MS.562         	10.017         	0.018
MS.563         	9.997          	0.024
MS.564         	9.977          	0.024
MS.565         	9.957          	0.026
MS.566         	9.938          	0.032
MS.567         	9.917          	0.026
MS.568         	9.898          	0.028
MS.569         	9.88           	0.026
MS.570         	9.86           	0.03
MS.571         	9.84           	0.024
MS.572         	9.82           	0.02
MS.573         	9.8            	0.02
MS.574         	9.78           	0.036
MS.575         	9.76           	0.024
MS.576         	9.742          	0.034
MS.577         	9.722          	0.028
MS.578         	9.702          	0.03
MS.579         	9.682          	0.02
MS.580         	9.665          	0.02
MS.581         	9.645          	0.024
MS.582         	9.625          	0.03
MS.583         	9.605          	0.026
MS.584         	9.587          	0.02
MS.585         	9.568          	0.016
MS.586         	9.547          	0.038
MS.587         	9.53           	0.024
MS.588         	9.51           	0.018
MS.589         	9.492          	0.024
MS.590         	9.472          	0.022
MS.591         	9.452          	0.028
MS.592         	9.435          	0.024
MS.593         	9.415          	0.024
MS.594         	9.398          	0.022
MS.595         	9.377          	0.028
MS.596         	9.36           	0.028
MS.597         	9.34           	0.022
MS.598         	9.323          	0.024
MS.599         	9.302          	0.018
MS.600         	9.285          	0.028
MS.601         	9.267          	0.03
MS.602         	9.247          	0.03
MS.603         	9.23           	0.022
MS.604         	9.21           	0.018
MS.605         	9.193          	0.02
MS.606         	9.175          	0.024
MS.607         	9.155          	0.022
MS.608         	9.137          	0.02
MS.609         	9.12           	0.028
MS.610         	9.1            	0.012
MS.611         	9.082          	0.018
MS.612         	9.065          	0.022
MS.613         	9.047          	0.022
MS.614         	9.028          	0.024
MS.615         	9.01           	0.024
MS.616         	8.992          	0.026
MS.617         	8.975          	0.02
MS.618         	8.957          	0.022
MS.619         	8.938          	0.026
MS.620         	8.92           	0.022
MS.621         	8.903          	0.018
MS.622         	8.885          	0.022
MS.623         	8.867          	0.016
MS.624         	8.85           	0.024
MS.625         	8.832          	0.022
MS.626         	8.815          	0.024
MS.627         	8.797          	0.018
MS.628         	8.78           	0.022
MS.629         	8.762          	0.024
MS.630         	8.745          	0.022
MS.631         	8.727          	0.02
MS.632         	8.71           	0.016
MS.633         	8.693          	0.016
MS.634         	8.675          	0.018
MS.635         	8.658          	0.014
DERIVED EXCITABILITY VARIABLES
Program = QTracP 9/10/2021
Threshold method = 6 (optimised for CAP, using data for present condition only)
SR method = 1 (using actual data values)
6.                 	0.000               	Peak response\(mV)
9.                 	32                  	Temperature ( C)
17.                	74                  	Age (years)
18.                	1                   	Sex (M=1, F=2)

EXTRA VARIABLES

MScPeak(mV) = 12.69
MScS5(mA) = 12.57
MScS50(mA) = 15.53
MScS95(mA) = 19.49
MScNSteps = 2
MScSteps(%) = 4.9
MScStepMax(%) = 2.4
MScD50 = 41
MScSlope = 5.71
MScDuration(min) = 5.9
MSFTraces = 428
MSFPeakAmp(mV) = 12.6
MSFNUnits = 110
MSFMeanUnitAmp(uV) = 114.9
MSFHuntTime(m) = 1.92
MSFError(%) = 5
MSFNLarge = 29.91
MSFMedianAmp(%) = 0.767
MSFMedianAmp(mV) = 0.0969
MSFHalfAmpAmp(%) = 0.984
MSFHalfAmpAmp(mV) = 0.124
MSFLargestAmp(%) = 4.11
MSFLargestAmp(mV) = 0.519
MSFMeanRS(%) = 2
MSFSizeLimit(uV) = 31.6
MSFLimitType = 1
MSFSmallestAmp(uV) = 37
MSFOpts = 10106121

EXTRA WAVEFORMS


!MScan Model
!110
	1	10.98	0.33	2
	2	11.58	0.29	2
	3	11.81	0.61	2
	4	11.99	0.69	2
	5	12.12	0.42	2
	6	12.2	0.32	2
	7	12.28	0.42	2
	8	12.34	0.39	2
	9	12.43	0.63	2
	10	12.52	0.65	2
	11	12.61	0.93	2
	12	12.69	0.81	2
	13	12.77	0.97	2
	14	12.88	0.97	2
	15	12.94	0.67	2
	16	13.01	0.85	2
	17	13.1	0.95	2
	18	13.17	0.77	2
	19	13.23	0.54	2
	20	13.29	0.72	2
	21	13.35	0.55	2
	22	13.4	0.56	2
	23	13.45	0.5	2
	24	13.5	0.74	2
	25	13.55	0.45	2
	26	13.59	0.5	2
	27	13.63	0.76	2
	28	13.69	0.85	2
	29	13.77	0.6	2
	30	13.84	1.1	2
	31	13.9	1.25	2
	32	13.94	0.81	2
	33	13.97	0.49	2
	34	14.03	0.53	2
	35	14.05	0.33	2
	36	14.08	0.6	2
	37	14.11	0.49	2
	38	14.13	0.44	2
	39	14.16	0.39	2
	40	14.18	0.43	2
	41	14.21	0.49	2
	42	14.23	0.53	2
	43	14.26	0.45	2
	44	14.29	0.61	2
	45	14.31	0.74	2
	46	14.34	0.54	2
	47	14.37	0.4	2
	48	14.4	0.56	2
	49	14.45	0.63	2
	50	14.51	0.91	2
	51	14.8	3.27	2
	52	14.9	1.42	2
	53	14.98	1.57	2
	54	15.03	0.68	2
	55	15.07	0.92	2
	56	15.11	1.18	2
	57	15.15	0.98	2
	58	15.19	1.3	2
	59	15.23	0.99	2
	60	15.37	2.44	2
	61	15.44	1.1	2
	62	15.49	0.94	2
	63	15.54	0.98	2
	64	15.59	0.78	2
	65	15.61	0.34	2
	66	15.63	0.33	2
	67	15.65	0.32	2
	68	15.67	0.35	2
	69	15.69	0.36	2
	70	15.71	0.38	2
	71	15.76	0.91	2
	72	15.81	0.89	2
	73	15.86	0.77	2
	74	15.89	1.17	2
	75	15.92	0.92	2
	76	15.98	1.31	2
	77	16.04	1.11	2
	78	16.07	0.67	2
	79	16.11	0.63	2
	80	16.14	0.53	2
	81	16.18	0.81	2
	82	16.21	0.83	2
	83	16.26	1.28	2
	84	16.33	1.26	2
	85	16.39	1.52	2
	86	16.46	1.83	2
	87	16.52	1.68	2
	88	16.63	2.43	2
	89	16.82	4.11	2
	90	16.99	2.47	2
	91	17.14	2.18	2
	92	17.34	2.84	2
	93	17.44	0.99	2
	94	17.53	1	2
	95	17.64	0.86	2
	96	17.74	0.46	2
	97	17.81	0.33	2
	98	17.87	0.39	2
	99	17.94	0.47	2
	100	18.02	0.42	2
	101	18.1	0.53	2
	102	18.2	0.77	2
	103	18.31	0.77	2
	104	18.57	1.41	2
	105	18.8	0.97	2
	106	19.09	1.02	2
	107	19.26	0.85	2
	108	19.51	1.44	2
	109	20.02	2.45	2
	110	20.29	0.95	2

