File:              	C:\Qtrac\Data\Daniel M Sørensen\MScan multicentre study\Data from centres\Roskilde\Folders with NC-examinations\ROS_N4a\MBC00331D.QZD
Name:              	DK.ROS.NC.4.1
Protocol:          	MSCAN-R2
Date:              	31/3/20
Start time:        	13:12:10
Age:               	40
Sex:               	f
Temperature:       	39.4
S/R sites:         	Peron Wr-TA
NC/disease:        	NC
Operator:          	MB
Comments:
M-SCAN DATA (11.4-1.5m)
Scanpts: 198, 207, 872, 895
Stim. (mA)     	Amp. (mV)
MS.1           	29             	5.114
MS.2           	29             	5.118
MS.3           	29             	5.122
MS.4           	29             	5.12
MS.5           	29             	5.084
MS.6           	29             	5.11
MS.7           	29             	5.082
MS.8           	29             	5.104
MS.9           	29             	5.066
MS.10          	29             	5.106
MS.11          	29             	5.088
MS.12          	29             	5.07
MS.13          	29             	5.08
MS.14          	29             	5.064
MS.15          	29             	5.078
MS.16          	29             	5.098
MS.17          	29             	5.092
MS.18          	29             	5.041
MS.19          	29             	5.086
MS.20          	29             	5.094
MS.21          	29             	5.078
MS.22          	29             	5.068
MS.23          	29             	5.052
MS.24          	28.885         	5.062
MS.25          	28.827         	5.052
MS.26          	28.77          	5.078
MS.27          	28.712         	5.049
MS.28          	28.655         	5.029
MS.29          	28.597         	5.064
MS.30          	28.54          	5.031
MS.31          	28.483         	5.037
MS.32          	28.425         	5.06
MS.33          	28.37          	5.043
MS.34          	28.312         	5.045
MS.35          	28.255         	5.033
MS.36          	28.2           	5.025
MS.37          	28.142         	5.033
MS.38          	28.087         	5.031
MS.39          	28.03          	5.058
MS.40          	27.975         	5.045
MS.41          	27.917         	5.025
MS.42          	27.862         	5.027
MS.43          	27.807         	5.019
MS.44          	27.752         	5.019
MS.45          	27.695         	5.011
MS.46          	27.64          	5.007
MS.47          	27.585         	5.027
MS.48          	27.53          	5.033
MS.49          	27.475         	5.011
MS.50          	27.42          	5.013
MS.51          	27.365         	5.031
MS.52          	27.31          	5.019
MS.53          	27.257         	5.021
MS.54          	27.202         	4.949
MS.55          	27.147         	4.977
MS.56          	27.092         	4.983
MS.57          	27.04          	4.993
MS.58          	26.985         	4.997
MS.59          	26.932         	5.003
MS.60          	26.877         	5.015
MS.61          	26.825         	4.989
MS.62          	26.77          	4.963
MS.63          	26.717         	4.977
MS.64          	26.662         	4.991
MS.65          	26.61          	4.961
MS.66          	26.557         	4.925
MS.67          	26.505         	4.961
MS.68          	26.45          	4.955
MS.69          	26.397         	4.969
MS.70          	26.345         	4.941
MS.71          	26.292         	4.949
MS.72          	26.24          	4.935
MS.73          	26.188         	4.941
MS.74          	26.135         	4.941
MS.75          	26.082         	4.943
MS.76          	26.03          	4.943
MS.77          	25.98          	4.947
MS.78          	25.927         	4.941
MS.79          	25.875         	4.943
MS.80          	25.823         	4.937
MS.81          	25.772         	4.939
MS.82          	25.72          	4.957
MS.83          	25.67          	4.931
MS.84          	25.618         	4.933
MS.85          	25.567         	4.919
MS.86          	25.515         	4.933
MS.87          	25.465         	4.929
MS.88          	25.415         	4.909
MS.89          	25.362         	4.959
MS.90          	25.312         	4.917
MS.91          	25.262         	4.902
MS.92          	25.212         	4.909
MS.93          	25.16          	4.915
MS.94          	25.11          	4.935
MS.95          	25.06          	4.927
MS.96          	25.01          	4.923
MS.97          	24.96          	4.949
MS.98          	24.91          	4.943
MS.99          	24.86          	4.953
MS.100         	24.81          	4.921
MS.101         	24.762         	4.935
MS.102         	24.712         	4.915
MS.103         	24.663         	4.941
MS.104         	24.612         	4.943
MS.105         	24.565         	4.943
MS.106         	24.515         	4.949
MS.107         	24.465         	4.951
MS.108         	24.417         	4.927
MS.109         	24.368         	4.937
MS.110         	24.32          	4.929
MS.111         	24.27          	4.945
MS.112         	24.222         	4.951
MS.113         	24.175         	4.929
MS.114         	24.125         	4.939
MS.115         	24.077         	4.929
MS.116         	24.03          	4.949
MS.117         	23.983         	4.955
MS.118         	23.935         	4.941
MS.119         	23.885         	4.941
MS.120         	23.837         	4.967
MS.121         	23.79          	4.937
MS.122         	23.743         	4.953
MS.123         	23.695         	4.949
MS.124         	23.647         	4.955
MS.125         	23.6           	4.929
MS.126         	23.555         	4.961
MS.127         	23.507         	4.969
MS.128         	23.46          	4.961
MS.129         	23.413         	4.941
MS.130         	23.365         	4.963
MS.131         	23.32          	4.989
MS.132         	23.272         	4.965
MS.133         	23.227         	4.981
MS.134         	23.18          	4.995
MS.135         	23.132         	4.959
MS.136         	23.087         	4.979
MS.137         	23.042         	4.995
MS.138         	22.995         	4.991
MS.139         	22.95          	4.989
MS.140         	22.903         	4.985
MS.141         	22.858         	4.993
MS.142         	22.812         	4.997
MS.143         	22.767         	4.999
MS.144         	22.72          	4.999
MS.145         	22.675         	4.997
MS.146         	22.63          	5.009
MS.147         	22.585         	5.009
MS.148         	22.54          	4.999
MS.149         	22.495         	4.993
MS.150         	22.45          	5.009
MS.151         	22.405         	5.007
MS.152         	22.36          	5.001
MS.153         	22.315         	5.005
MS.154         	22.27          	4.995
MS.155         	22.227         	4.913
MS.156         	22.182         	4.999
MS.157         	22.137         	5.003
MS.158         	22.092         	5.003
MS.159         	22.05          	5.039
MS.160         	22.005         	5.007
MS.161         	21.962         	5.005
MS.162         	21.917         	5.023
MS.163         	21.875         	5.043
MS.164         	21.83          	5.031
MS.165         	21.788         	5.033
MS.166         	21.743         	5.017
MS.167         	21.7           	5.039
MS.168         	21.655         	5.052
MS.169         	21.612         	5.066
MS.170         	21.57          	5.047
MS.171         	21.528         	5.047
MS.172         	21.483         	5.064
MS.173         	21.44          	5.068
MS.174         	21.397         	5.06
MS.175         	21.355         	5.068
MS.176         	21.312         	5.072
MS.177         	21.27          	5.062
MS.178         	21.227         	5.066
MS.179         	21.185         	5.078
MS.180         	21.142         	5.078
MS.181         	21.1           	5.08
MS.182         	21.057         	5.07
MS.183         	21.015         	5.064
MS.184         	20.975         	5.066
MS.185         	20.932         	5.08
MS.186         	20.89          	5.082
MS.187         	20.847         	5.08
MS.188         	20.807         	5.082
MS.189         	20.765         	5.102
MS.190         	20.725         	5.076
MS.191         	20.682         	5.092
MS.192         	20.642         	5.108
MS.193         	20.6           	5.09
MS.194         	20.56          	5.106
MS.195         	20.517         	5.09
MS.196         	20.477         	5.09
MS.197         	20.435         	5.082
MS.198         	20.395         	5.086
MS.199         	20.355         	5.104
MS.200         	20.312         	5.1
MS.201         	20.272         	5.096
MS.202         	20.233         	5.1
MS.203         	20.192         	5.102
MS.204         	20.153         	5.092
MS.205         	20.112         	5.104
MS.206         	20.073         	5.09
MS.207         	20.03          	5.116
MS.208         	19.99          	5.11
MS.209         	19.952         	5.108
MS.210         	19.913         	5.108
MS.211         	19.872         	5.082
MS.212         	19.833         	5.12
MS.213         	19.792         	5.104
MS.214         	19.752         	5.094
MS.215         	19.712         	5.128
MS.216         	19.675         	5.114
MS.217         	19.635         	5.108
MS.218         	19.595         	5.132
MS.219         	19.555         	5.068
MS.220         	19.517         	5.074
MS.221         	19.477         	5.108
MS.222         	19.44          	5.106
MS.223         	19.4           	5.124
MS.224         	19.362         	5.094
MS.225         	19.323         	5.116
MS.226         	19.285         	5.094
MS.227         	19.245         	5.068
MS.228         	19.208         	5.122
MS.229         	19.17          	5.128
MS.230         	19.13          	5.126
MS.231         	19.092         	5.136
MS.232         	19.055         	5.15
MS.233         	19.015         	5.122
MS.234         	18.977         	5.094
MS.235         	18.94          	5.096
MS.236         	18.903         	5.09
MS.237         	18.865         	5.116
MS.238         	18.827         	5.09
MS.239         	18.79          	5.164
MS.240         	18.753         	5.08
MS.241         	18.715         	5.088
MS.242         	18.677         	5.088
MS.243         	18.64          	5.112
MS.244         	18.602         	5.122
MS.245         	18.565         	5.1
MS.246         	18.528         	5.102
MS.247         	18.49          	5.096
MS.248         	18.455         	5.1
MS.249         	18.417         	5.082
MS.250         	18.38          	5.118
MS.251         	18.345         	5.134
MS.252         	18.307         	5.106
MS.253         	18.27          	5.072
MS.254         	18.235         	5.106
MS.255         	18.198         	5.098
MS.256         	18.163         	5.098
MS.257         	18.125         	5.066
MS.258         	18.09          	5.08
MS.259         	18.052         	5.08
MS.260         	18.017         	5.108
MS.261         	17.98          	5.09
MS.262         	17.945         	5.088
MS.263         	17.91          	5.1
MS.264         	17.872         	5.084
MS.265         	17.837         	5.094
MS.266         	17.802         	5.112
MS.267         	17.765         	5.094
MS.268         	17.73          	5.068
MS.269         	17.695         	5.112
MS.270         	17.66          	5.098
MS.271         	17.625         	5.104
MS.272         	17.59          	5.09
MS.273         	17.555         	5.06
MS.274         	17.52          	5.062
MS.275         	17.485         	5.064
MS.276         	17.45          	5.003
MS.277         	17.415         	5.068
MS.278         	17.38          	5.07
MS.279         	17.345         	5.086
MS.280         	17.31          	5.078
MS.281         	17.275         	5.074
MS.282         	17.24          	5.041
MS.283         	17.208         	5.058
MS.284         	17.172         	5.049
MS.285         	17.137         	5.06
MS.286         	17.102         	5.088
MS.287         	17.07          	5.07
MS.288         	17.035         	5.054
MS.289         	17.003         	5.08
MS.290         	16.967         	5.108
MS.291         	16.932         	5.072
MS.292         	16.9           	5.088
MS.293         	16.865         	5.031
MS.294         	16.833         	5.074
MS.295         	16.797         	5.052
MS.296         	16.765         	5.043
MS.297         	16.733         	5.037
MS.298         	16.698         	5.06
MS.299         	16.665         	5.068
MS.300         	16.632         	5.033
MS.301         	16.597         	5.064
MS.302         	16.565         	5.084
MS.303         	16.532         	5.094
MS.304         	16.5           	5.094
MS.305         	16.465         	5.043
MS.306         	16.432         	5.132
MS.307         	16.4           	5.066
MS.308         	16.368         	5.021
MS.309         	16.335         	5.07
MS.310         	16.302         	5.062
MS.311         	16.27          	5.082
MS.312         	16.237         	5.082
MS.313         	16.205         	5.07
MS.314         	16.172         	5.003
MS.315         	16.14          	5.049
MS.316         	16.108         	5.039
MS.317         	16.075         	4.959
MS.318         	16.042         	5.056
MS.319         	16.012         	4.965
MS.320         	15.98          	5.056
MS.321         	15.947         	5.017
MS.322         	15.915         	4.995
MS.323         	15.882         	5.003
MS.324         	15.852         	4.997
MS.325         	15.82          	4.896
MS.326         	15.787         	4.925
MS.327         	15.757         	4.892
MS.328         	15.725         	5.003
MS.329         	15.695         	4.943
MS.330         	15.662         	5.039
MS.331         	15.632         	5.017
MS.332         	15.6           	4.971
MS.333         	15.57          	4.911
MS.334         	15.537         	4.939
MS.335         	15.507         	4.995
MS.336         	15.475         	4.935
MS.337         	15.445         	4.933
MS.338         	15.415         	4.945
MS.339         	15.382         	4.913
MS.340         	15.352         	4.937
MS.341         	15.322         	4.927
MS.342         	15.292         	4.941
MS.343         	15.26          	4.886
MS.344         	15.23          	4.896
MS.345         	15.2           	4.957
MS.346         	15.17          	4.884
MS.347         	15.14          	4.947
MS.348         	15.11          	4.929
MS.349         	15.08          	4.866
MS.350         	15.047         	4.886
MS.351         	15.017         	4.868
MS.352         	14.987         	4.906
MS.353         	14.957         	4.911
MS.354         	14.93          	4.864
MS.355         	14.9           	4.89
MS.356         	14.87          	4.927
MS.357         	14.84          	4.909
MS.358         	14.81          	4.808
MS.359         	14.78          	4.904
MS.360         	14.75          	4.937
MS.361         	14.722         	4.896
MS.362         	14.693         	4.824
MS.363         	14.662         	4.904
MS.364         	14.632         	4.824
MS.365         	14.605         	4.941
MS.366         	14.575         	4.848
MS.367         	14.545         	4.856
MS.368         	14.517         	4.862
MS.369         	14.487         	4.842
MS.370         	14.457         	4.884
MS.371         	14.43          	4.85
MS.372         	14.4           	4.86
MS.373         	14.372         	4.743
MS.374         	14.342         	4.834
MS.375         	14.315         	4.822
MS.376         	14.285         	4.776
MS.377         	14.257         	4.685
MS.378         	14.23          	4.802
MS.379         	14.2           	4.761
MS.380         	14.172         	4.774
MS.381         	14.145         	4.729
MS.382         	14.115         	4.713
MS.383         	14.087         	4.761
MS.384         	14.06          	4.747
MS.385         	14.032         	4.671
MS.386         	14.002         	4.675
MS.387         	13.975         	4.693
MS.388         	13.947         	4.687
MS.389         	13.92          	4.703
MS.390         	13.892         	4.669
MS.391         	13.865         	4.633
MS.392         	13.837         	4.602
MS.393         	13.807         	4.616
MS.394         	13.78          	4.594
MS.395         	13.752         	4.653
MS.396         	13.725         	4.59
MS.397         	13.697         	4.677
MS.398         	13.67          	4.544
MS.399         	13.645         	4.695
MS.400         	13.617         	4.614
MS.401         	13.59          	4.564
MS.402         	13.562         	4.5
MS.403         	13.535         	4.457
MS.404         	13.507         	4.633
MS.405         	13.48          	4.49
MS.406         	13.455         	4.588
MS.407         	13.427         	4.538
MS.408         	13.4           	4.516
MS.409         	13.372         	4.552
MS.410         	13.347         	4.57
MS.411         	13.32          	4.52
MS.412         	13.292         	4.429
MS.413         	13.267         	4.504
MS.414         	13.24          	4.486
MS.415         	13.215         	4.425
MS.416         	13.188         	4.465
MS.417         	13.162         	4.381
MS.418         	13.135         	4.395
MS.419         	13.11          	4.411
MS.420         	13.082         	4.403
MS.421         	13.057         	4.439
MS.422         	13.03          	4.359
MS.423         	13.005         	4.294
MS.424         	12.977         	4.306
MS.425         	12.952         	4.399
MS.426         	12.927         	4.326
MS.427         	12.9           	4.304
MS.428         	12.875         	4.286
MS.429         	12.85          	4.27
MS.430         	12.822         	4.284
MS.431         	12.797         	4.29
MS.432         	12.773         	4.244
MS.433         	12.747         	4.308
MS.434         	12.722         	4.222
MS.435         	12.695         	4.258
MS.436         	12.67          	4.252
MS.437         	12.645         	4.195
MS.438         	12.62          	4.167
MS.439         	12.595         	4.195
MS.440         	12.57          	4.204
MS.441         	12.545         	4.147
MS.442         	12.52          	4.224
MS.443         	12.495         	4.067
MS.444         	12.47          	4.139
MS.445         	12.445         	4.099
MS.446         	12.42          	4.127
MS.447         	12.395         	4.141
MS.448         	12.37          	4.022
MS.449         	12.345         	4
MS.450         	12.32          	3.789
MS.451         	12.295         	4.022
MS.452         	12.273         	4.016
MS.453         	12.247         	3.966
MS.454         	12.222         	3.996
MS.455         	12.197         	4.133
MS.456         	12.175         	3.841
MS.457         	12.15          	3.911
MS.458         	12.125         	3.944
MS.459         	12.1           	3.726
MS.460         	12.077         	3.738
MS.461         	12.052         	3.777
MS.462         	12.028         	3.682
MS.463         	12.005         	3.734
MS.464         	11.98          	3.74
MS.465         	11.957         	3.599
MS.466         	11.932         	3.69
MS.467         	11.91          	3.686
MS.468         	11.885         	3.628
MS.469         	11.863         	3.636
MS.470         	11.837         	3.581
MS.471         	11.815         	3.569
MS.472         	11.79          	3.444
MS.473         	11.767         	3.603
MS.474         	11.742         	3.466
MS.475         	11.72          	3.46
MS.476         	11.697         	3.408
MS.477         	11.672         	3.442
MS.478         	11.65          	3.396
MS.479         	11.627         	3.489
MS.480         	11.602         	3.356
MS.481         	11.58          	3.354
MS.482         	11.557         	3.249
MS.483         	11.535         	3.259
MS.484         	11.51          	3.265
MS.485         	11.488         	3.263
MS.486         	11.465         	3.335
MS.487         	11.443         	3.247
MS.488         	11.42          	3.243
MS.489         	11.398         	3.263
MS.490         	11.372         	3.196
MS.491         	11.35          	3.168
MS.492         	11.327         	3.124
MS.493         	11.305         	3.136
MS.494         	11.282         	3.051
MS.495         	11.26          	3.023
MS.496         	11.238         	3.023
MS.497         	11.215         	3.033
MS.498         	11.193         	3.068
MS.499         	11.17          	2.977
MS.500         	11.148         	2.981
MS.501         	11.125         	2.953
MS.502         	11.105         	2.894
MS.503         	11.082         	2.862
MS.504         	11.06          	2.896
MS.505         	11.037         	2.902
MS.506         	11.015         	2.856
MS.507         	10.992         	2.868
MS.508         	10.972         	2.834
MS.509         	10.95          	2.852
MS.510         	10.927         	2.84
MS.511         	10.905         	2.751
MS.512         	10.885         	2.759
MS.513         	10.863         	2.788
MS.514         	10.84          	2.747
MS.515         	10.82          	2.739
MS.516         	10.797         	2.707
MS.517         	10.775         	2.729
MS.518         	10.755         	2.796
MS.519         	10.733         	2.711
MS.520         	10.71          	2.691
MS.521         	10.69          	2.647
MS.522         	10.667         	2.574
MS.523         	10.648         	2.494
MS.524         	10.625         	2.576
MS.525         	10.605         	2.504
MS.526         	10.582         	2.59
MS.527         	10.562         	2.467
MS.528         	10.54          	2.479
MS.529         	10.52          	2.548
MS.530         	10.5           	2.455
MS.531         	10.477         	2.554
MS.532         	10.457         	2.405
MS.533         	10.438         	2.467
MS.534         	10.415         	2.296
MS.535         	10.395         	2.355
MS.536         	10.375         	2.262
MS.537         	10.352         	2.286
MS.538         	10.332         	2.238
MS.539         	10.312         	2.328
MS.540         	10.29          	2.353
MS.541         	10.27          	2.25
MS.542         	10.25          	2.127
MS.543         	10.23          	2.264
MS.544         	10.21          	2.157
MS.545         	10.19          	2.133
MS.546         	10.167         	2.185
MS.547         	10.148         	2.24
MS.548         	10.127         	2.105
MS.549         	10.108         	1.97
MS.550         	10.087         	2.153
MS.551         	10.068         	2.048
MS.552         	10.047         	2.103
MS.553         	10.028         	1.988
MS.554         	10.007         	2.026
MS.555         	9.988          	1.94
MS.556         	9.967          	1.986
MS.557         	9.948          	1.992
MS.558         	9.927          	1.982
MS.559         	9.907          	1.948
MS.560         	9.887          	1.909
MS.561         	9.867          	1.907
MS.562         	9.847          	1.847
MS.563         	9.827          	1.865
MS.564         	9.81           	1.833
MS.565         	9.79           	1.736
MS.566         	9.77           	1.744
MS.567         	9.75           	1.795
MS.568         	9.73           	1.728
MS.569         	9.712          	1.698
MS.570         	9.693          	1.736
MS.571         	9.672          	1.71
MS.572         	9.653          	1.64
MS.573         	9.635          	1.627
MS.574         	9.615          	1.644
MS.575         	9.595          	1.666
MS.576         	9.577          	1.621
MS.577         	9.557          	1.593
MS.578         	9.537          	1.577
MS.579         	9.52           	1.559
MS.580         	9.5            	1.664
MS.581         	9.48           	1.587
MS.582         	9.462          	1.579
MS.583         	9.443          	1.587
MS.584         	9.425          	1.573
MS.585         	9.405          	1.561
MS.586         	9.387          	1.523
MS.587         	9.367          	1.47
MS.588         	9.35           	1.513
MS.589         	9.33           	1.521
MS.590         	9.312          	1.537
MS.591         	9.292          	1.488
MS.592         	9.275          	1.464
MS.593         	9.255          	1.452
MS.594         	9.238          	1.418
MS.595         	9.22           	1.374
MS.596         	9.2            	1.396
MS.597         	9.182          	1.418
MS.598         	9.165          	1.442
MS.599         	9.145          	1.42
MS.600         	9.127          	1.408
MS.601         	9.11           	1.39
MS.602         	9.09           	1.339
MS.603         	9.073          	1.317
MS.604         	9.055          	1.356
MS.605         	9.037          	1.323
MS.606         	9.017          	1.325
MS.607         	9              	1.315
MS.608         	8.983          	1.251
MS.609         	8.965          	1.303
MS.610         	8.948          	1.273
MS.611         	8.93           	1.281
MS.612         	8.91           	1.317
MS.613         	8.892          	1.221
MS.614         	8.875          	1.231
MS.615         	8.858          	1.211
MS.616         	8.84           	1.142
MS.617         	8.823          	1.229
MS.618         	8.805          	1.16
MS.619         	8.787          	1.182
MS.620         	8.77           	1.213
MS.621         	8.752          	1.184
MS.622         	8.735          	1.162
MS.623         	8.717          	1.086
MS.624         	8.7            	1.104
MS.625         	8.682          	1.1
MS.626         	8.665          	1.092
MS.627         	8.648          	1.023
MS.628         	8.63           	0.999
MS.629         	8.613          	1.132
MS.630         	8.595          	1.033
MS.631         	8.58           	1.088
MS.632         	8.562          	1.015
MS.633         	8.545          	1.035
MS.634         	8.528          	0.985
MS.635         	8.51           	0.967
MS.636         	8.492          	1.025
MS.637         	8.477          	0.955
MS.638         	8.46           	1.031
MS.639         	8.443          	0.953
MS.640         	8.425          	0.947
MS.641         	8.41           	0.918
MS.642         	8.392          	0.89
MS.643         	8.375          	0.929
MS.644         	8.358          	0.87
MS.645         	8.342          	0.858
MS.646         	8.325          	0.884
MS.647         	8.307          	0.858
MS.648         	8.292          	0.858
MS.649         	8.275          	0.876
MS.650         	8.26           	0.771
MS.651         	8.242          	0.727
MS.652         	8.225          	0.834
MS.653         	8.21           	0.802
MS.654         	8.193          	0.802
MS.655         	8.177          	0.822
MS.656         	8.16           	0.79
MS.657         	8.145          	0.773
MS.658         	8.127          	0.8
MS.659         	8.113          	0.685
MS.660         	8.095          	0.769
MS.661         	8.08           	0.723
MS.662         	8.062          	0.759
MS.663         	8.047          	0.691
MS.664         	8.03           	0.701
MS.665         	8.015          	0.622
MS.666         	8              	0.693
MS.667         	7.982          	0.606
MS.668         	7.967          	0.657
MS.669         	7.95           	0.695
MS.670         	7.935          	0.63
MS.671         	7.92           	0.653
MS.672         	7.902          	0.564
MS.673         	7.887          	0.604
MS.674         	7.872          	0.566
MS.675         	7.855          	0.616
MS.676         	7.84           	0.504
MS.677         	7.825          	0.554
MS.678         	7.81           	0.584
MS.679         	7.793          	0.564
MS.680         	7.777          	0.502
MS.681         	7.762          	0.516
MS.682         	7.747          	0.508
MS.683         	7.732          	0.459
MS.684         	7.715          	0.493
MS.685         	7.7            	0.477
MS.686         	7.685          	0.477
MS.687         	7.67           	0.447
MS.688         	7.655          	0.473
MS.689         	7.64           	0.455
MS.690         	7.625          	0.371
MS.691         	7.607          	0.465
MS.692         	7.592          	0.405
MS.693         	7.577          	0.429
MS.694         	7.562          	0.429
MS.695         	7.547          	0.403
MS.696         	7.532          	0.429
MS.697         	7.517          	0.393
MS.698         	7.503          	0.387
MS.699         	7.487          	0.375
MS.700         	7.472          	0.397
MS.701         	7.457          	0.403
MS.702         	7.442          	0.354
MS.703         	7.427          	0.348
MS.704         	7.412          	0.326
MS.705         	7.398          	0.369
MS.706         	7.385          	0.318
MS.707         	7.37           	0.316
MS.708         	7.355          	0.316
MS.709         	7.34           	0.3
MS.710         	7.325          	0.296
MS.711         	7.31           	0.304
MS.712         	7.295          	0.26
MS.713         	7.28           	0.292
MS.714         	7.267          	0.26
MS.715         	7.253          	0.3
MS.716         	7.237          	0.294
MS.717         	7.222          	0.278
MS.718         	7.207          	0.274
MS.719         	7.195          	0.284
MS.720         	7.18           	0.276
MS.721         	7.165          	0.272
MS.722         	7.152          	0.26
MS.723         	7.137          	0.234
MS.724         	7.122          	0.262
MS.725         	7.108          	0.207
MS.726         	7.095          	0.246
MS.727         	7.08           	0.268
MS.728         	7.065          	0.191
MS.729         	7.052          	0.238
MS.730         	7.037          	0.228
MS.731         	7.023          	0.197
MS.732         	7.01           	0.244
MS.733         	6.995          	0.22
MS.734         	6.983          	0.211
MS.735         	6.967          	0.203
MS.736         	6.955          	0.179
MS.737         	6.94           	0.161
MS.738         	6.925          	0.189
MS.739         	6.912          	0.205
MS.740         	6.898          	0.197
MS.741         	6.885          	0.207
MS.742         	6.87           	0.193
MS.743         	6.858          	0.207
MS.744         	6.842          	0.157
MS.745         	6.83           	0.169
MS.746         	6.815          	0.107
MS.747         	6.802          	0.159
MS.748         	6.79           	0.115
MS.749         	6.775          	0.165
MS.750         	6.762          	0.123
MS.751         	6.747          	0.123
MS.752         	6.735          	0.157
MS.753         	6.722          	0.113
MS.754         	6.707          	0.153
MS.755         	6.695          	0.143
MS.756         	6.68           	0.119
MS.757         	6.668          	0.143
MS.758         	6.655          	0.123
MS.759         	6.64           	0.163
MS.760         	6.628          	0.135
MS.761         	6.615          	0.123
MS.762         	6.602          	0.153
MS.763         	6.587          	0.125
MS.764         	6.575          	0.111
MS.765         	6.562          	0.081
MS.766         	6.55           	0.091
MS.767         	6.535          	0.109
MS.768         	6.523          	0.097
MS.769         	6.51           	0.075
MS.770         	6.497          	0.095
MS.771         	6.483          	0.068
MS.772         	6.47           	0.099
MS.773         	6.457          	0.091
MS.774         	6.445          	0.131
MS.775         	6.432          	0.085
MS.776         	6.42           	0.073
MS.777         	6.407          	0.099
MS.778         	6.392          	0.095
MS.779         	6.38           	0.103
MS.780         	6.367          	0.066
MS.781         	6.355          	0.066
MS.782         	6.342          	0.058
MS.783         	6.33           	0.068
MS.784         	6.317          	0.056
MS.785         	6.305          	0.07
MS.786         	6.293          	0.062
MS.787         	6.28           	0.05
MS.788         	6.267          	0.044
MS.789         	6.255          	0.068
MS.790         	6.242          	0.073
MS.791         	6.23           	0.05
MS.792         	6.217          	0.058
MS.793         	6.205          	0.048
MS.794         	6.192          	0.07
MS.795         	6.18           	0.064
MS.796         	6.168          	0.04
MS.797         	6.155          	0.05
MS.798         	6.142          	0.036
MS.799         	6.13           	0.04
MS.800         	6.117          	0.044
MS.801         	6.105          	0.03
MS.802         	6.095          	0.028
MS.803         	6.082          	0.026
MS.804         	6.07           	0.048
MS.805         	6.057          	0.022
MS.806         	6.045          	0.034
MS.807         	6.032          	0.02
MS.808         	6.02           	0.038
MS.809         	6.01           	0.02
MS.810         	5.997          	0.016
MS.811         	5.985          	0.026
MS.812         	5.972          	0.024
MS.813         	5.963          	0.008
MS.814         	5.95           	0.004
MS.815         	5.938          	-0.004
MS.816         	5.925          	0.018
MS.817         	5.915          	0.014
MS.818         	5.902          	0.038
MS.819         	5.89           	0.002
MS.820         	5.878          	0.008
MS.821         	5.867          	0.000
MS.822         	5.855          	-0.018
MS.823         	5.842          	-0.006
MS.824         	5.832          	0.000
MS.825         	5.82           	0.02
MS.826         	5.807          	0.022
MS.827         	5.797          	-0.022
MS.828         	5.785          	-0.032
MS.829         	5.773          	-0.004
MS.830         	5.762          	0.01
MS.831         	5.75           	-0.03
MS.832         	5.74           	-0.016
MS.833         	5.727          	-0.024
MS.834         	5.715          	0.012
MS.835         	5.705          	-0.012
MS.836         	5.692          	-0.012
MS.837         	5.682          	-0.014
MS.838         	5.67           	-0.022
MS.839         	5.66           	-0.028
MS.840         	5.648          	-0.034
MS.841         	5.637          	0.006
MS.842         	5.625          	-0.02
MS.843         	5.615          	-0.026
MS.844         	5.602          	-0.018
MS.845         	5.592          	-0.02
MS.846         	5.58           	-0.03
MS.847         	5.57           	-0.038
MS.848         	5.557          	-0.02
MS.849         	5.547          	-0.008
MS.850         	5.535          	-0.032
MS.851         	5.525          	-0.04
MS.852         	5.515          	-0.054
MS.853         	5.503          	-0.03
MS.854         	5.492          	-0.014
MS.855         	5.48           	-0.022
MS.856         	5.47           	-0.042
MS.857         	5.46           	-0.02
MS.858         	5.447          	-0.038
MS.859         	5.438          	-0.036
MS.860         	5.427          	-0.05
MS.861         	5.415          	-0.038
MS.862         	5.405          	-0.052
MS.863         	5.395          	-0.05
MS.864         	5.382          	-0.044
MS.865         	5.372          	-0.046
MS.866         	5.362          	-0.04
MS.867         	5.35           	-0.044
MS.868         	5.34           	-0.05
MS.869         	5.33           	-0.048
MS.870         	5.32           	-0.044
MS.871         	5.307          	-0.05
MS.872         	5.297          	-0.052
MS.873         	5.287          	-0.048
MS.874         	5.277          	-0.05
MS.875         	5.265          	-0.052
MS.876         	5.255          	-0.048
MS.877         	5.245          	-0.052
MS.878         	5.235          	-0.05
MS.879         	5.225          	-0.048
MS.880         	5.213          	-0.042
MS.881         	5.202          	-0.038
MS.882         	5.193          	-0.046
MS.883         	5.182          	-0.046
MS.884         	5.172          	-0.044
MS.885         	5.162          	-0.048
MS.886         	5.152          	-0.052
MS.887         	5.14           	-0.048
MS.888         	5.13           	-0.05
MS.889         	5.12           	-0.04
MS.890         	5.11           	-0.046
MS.891         	5.1            	-0.048
MS.892         	5.09           	-0.048
MS.893         	5.08           	-0.048
MS.894         	5.07           	-0.046
MS.895         	5.06           	-0.048
MS.896         	5.05           	-0.052
MS.897         	5.04           	-0.046
MS.898         	5.03           	-0.042
MS.899         	5.02           	-0.054
MS.900         	5.01           	-0.044
MS.901         	5              	-0.042
MS.902         	4.99           	-0.048
MS.903         	4.98           	-0.044
MS.904         	4.97           	-0.048
MS.905         	4.96           	-0.048
MS.906         	4.95           	-0.044
MS.907         	4.94           	-0.044
MS.908         	4.93           	-0.052
MS.909         	4.92           	-0.046
MS.910         	4.91           	-0.048
MS.911         	4.9            	-0.042
MS.912         	4.89           	-0.046
MS.913         	4.88           	-0.05
MS.914         	4.87           	-0.048
MS.915         	4.86           	-0.042
MS.916         	4.852          	-0.044
MS.917         	4.842          	-0.04
MS.918         	4.832          	-0.044
MS.919         	4.822          	-0.048
MS.920         	4.812          	-0.038
MS.921         	4.802          	-0.04
MS.922         	4.793          	-0.044
MS.923         	4.785          	-0.042
MS.924         	4.775          	-0.05
MS.925         	4.765          	-0.05
MS.926         	4.755          	-0.048
MS.927         	4.745          	-0.048
MS.928         	4.737          	-0.044
MS.929         	4.727          	-0.038
MS.930         	4.717          	-0.042
MS.931         	4.707          	-0.046
MS.932         	4.697          	-0.05
MS.933         	4.69           	-0.046
MS.934         	4.68           	-0.044
MS.935         	4.67           	-0.044
MS.936         	4.662          	-0.044
MS.937         	4.652          	-0.04
MS.938         	4.642          	-0.038
MS.939         	4.632          	-0.044
MS.940         	4.625          	-0.042
MS.941         	4.615          	-0.05
MS.942         	4.605          	-0.048
MS.943         	4.597          	-0.048
MS.944         	4.588          	-0.048
MS.945         	4.577          	-0.042
MS.946         	4.57           	-0.048
MS.947         	4.56           	-0.046
MS.948         	4.55           	-0.04
MS.949         	4.543          	-0.046
MS.950         	4.532          	-0.042
MS.951         	4.523          	-0.04
MS.952         	4.515          	-0.042
MS.953         	4.505          	-0.044
MS.954         	4.497          	-0.042
MS.955         	4.487          	-0.042
MS.956         	4.477          	-0.042
MS.957         	4.47           	-0.046
MS.958         	4.46           	-0.04
MS.959         	4.452          	-0.042
MS.960         	4.443          	-0.046
MS.961         	4.435          	-0.044
MS.962         	4.425          	-0.044
MS.963         	4.418          	-0.048
MS.964         	4.407          	-0.046
MS.965         	4.398          	-0.04
MS.966         	4.39           	-0.04
MS.967         	4.38           	-0.046
MS.968         	4.372          	-0.048
MS.969         	4.362          	-0.04
MS.970         	4.355          	-0.046
MS.971         	4.345          	-0.042
MS.972         	4.338          	-0.048
MS.973         	4.33           	-0.048
MS.974         	4.32           	-0.044
MS.975         	4.312          	-0.042
MS.976         	4.302          	-0.042
MS.977         	4.295          	-0.048
MS.978         	4.285          	-0.044
MS.979         	4.277          	-0.042
MS.980         	4.267          	-0.044
MS.981         	4.26           	-0.042
MS.982         	4.253          	-0.042
MS.983         	4.242          	-0.04
MS.984         	4.235          	-0.038
MS.985         	4.225          	-0.042
MS.986         	4.217          	-0.046
MS.987         	4.21           	-0.046
MS.988         	4.2            	-0.04
MS.989         	4.193          	-0.044
MS.990         	4.185          	-0.042
MS.991         	4.175          	-0.046
MS.992         	4.168          	-0.044
MS.993         	4.16           	-0.044
MS.994         	4.15           	-0.042
MS.995         	4.142          	-0.046
MS.996         	4.135          	-0.04
MS.997         	4.125          	-0.04
MS.998         	4.117          	-0.042
MS.999         	4.11           	-0.042
MS.1000        	4.102          	-0.042
MS.1001        	4.092          	-0.044
MS.1002        	4.085          	-0.04
MS.1003        	4.077          	-0.04
MS.1004        	4.068          	-0.042
MS.1005        	4.06           	-0.042
MS.1006        	4.052          	-0.038
MS.1007        	4.045          	-0.044
MS.1008        	4.035          	-0.036
MS.1009        	4.027          	-0.042
MS.1010        	4.02           	-0.038
MS.1011        	4.012          	-0.042
MS.1012        	4.005          	-0.04
MS.1013        	3.995          	-0.04
MS.1014        	3.987          	-0.044
MS.1015        	3.98           	-0.036
MS.1016        	3.972          	-0.042
MS.1017        	3.965          	-0.04
MS.1018        	3.955          	-0.042
MS.1019        	3.947          	-0.038
MS.1020        	3.94           	-0.038
MS.1021        	3.932          	-0.036
MS.1022        	3.925          	-0.04
MS.1023        	3.918          	-0.038
MS.1024        	3.91           	-0.04
MS.1025        	3.9            	-0.04
MS.1026        	3.892          	-0.038
MS.1027        	3.885          	-0.038
MS.1028        	3.877          	-0.042
MS.1029        	3.87           	-0.04
MS.1030        	3.862          	-0.042
MS.1031        	3.855          	-0.04
MS.1032        	3.847          	-0.044
MS.1033        	3.84           	-0.042
MS.1034        	3.832          	-0.044
MS.1035        	3.825          	-0.04
MS.1036        	3.817          	-0.044
MS.1037        	3.807          	-0.042
DERIVED EXCITABILITY VARIABLES
Program = QTracP 3/4/2020
Threshold method = 6 (optimised for CAP, using data for present condition only)
SR method = 1 (using actual data values)
6.                 	0.000               	Peak response\(mV)
9.                 	39.4                	Temperature ( C)
17.                	40                  	Age (years)
18.                	2                   	Sex (M=1, F=2)

EXTRA VARIABLES

MScPeak(mV) = 5.13
MScS5(mA) = 7.11
MScS50(mA) = 10.62
MScS95(mA) = 14.79
MScNSteps = 0
MScSteps(%) = 0.0
MScStepMax(%) = 0.0
MScD50 = 79
MScSlope = 3.25
MSFPeakAmp(mV) = 5.15
MSFNUnits = 176
MSFMeanUnitAmp(uV) = 29.2
MSFHuntTime(m) = 4.77
MSFError(%) = 1.51
MSFNLarge = 56.67
MSFMedianAmp(%) = 0.482
MSFMedianAmp(mV) = 0.0248
MSFHalfAmpAmp(%) = 0.567
MSFHalfAmpAmp(mV) = 0.0292
MSFLargestAmp(%) = 2.04
MSFLargestAmp(mV) = 0.105
MSFMeanRS(%) = 2
MSFOpts = 10106121
MScDuration(min) = 9.9
MSFTraces = 698
MSFSizeLimit(uV) = 12.9
MSFLimitType = 1
MSFSmallestAmp(uV) = 13.3

EXTRA WAVEFORMS


!MScan Model
!176
	1	5.59	0.58	2
	2	5.91	0.64	2
	3	6.07	0.43	2
	4	6.26	0.56	2
	5	6.46	0.57	2
	6	6.68	0.82	2
	7	6.83	0.6	2
	8	6.94	0.63	2
	9	7.03	0.49	2
	10	7.09	0.4	2
	11	7.17	0.39	2
	12	7.23	0.32	2
	13	7.31	0.54	2
	14	7.38	0.53	2
	15	7.42	0.39	2
	16	7.46	0.3	2
	17	7.5	0.33	2
	18	7.55	0.51	2
	19	7.59	0.31	2
	20	7.62	0.37	2
	21	7.66	0.33	2
	22	7.69	0.29	2
	23	7.72	0.35	2
	24	7.75	0.27	2
	25	7.78	0.33	2
	26	7.81	0.42	2
	27	7.84	0.39	2
	28	7.88	0.42	2
	29	7.92	0.56	2
	30	7.96	0.54	2
	31	7.99	0.47	2
	32	8.03	0.47	2
	33	8.09	0.68	2
	34	8.14	0.63	2
	35	8.2	0.61	2
	36	8.24	0.58	2
	37	8.28	0.55	2
	38	8.32	0.38	2
	39	8.35	0.41	2
	40	8.39	0.45	2
	41	8.42	0.44	2
	42	8.46	0.51	2
	43	8.5	0.48	2
	44	8.55	0.52	2
	45	8.59	0.76	2
	46	8.64	0.49	2
	47	8.68	0.4	2
	48	8.72	0.5	2
	49	8.76	0.51	2
	50	8.79	0.5	2
	51	8.82	0.41	2
	52	8.85	0.39	2
	53	8.88	0.35	2
	54	8.91	0.35	2
	55	8.94	0.37	2
	56	8.96	0.35	2
	57	9	0.38	2
	58	9.03	0.31	2
	59	9.06	0.31	2
	60	9.1	0.48	2
	61	9.12	0.28	2
	62	9.14	0.26	2
	63	9.17	0.29	2
	64	9.19	0.28	2
	65	9.22	0.28	2
	66	9.25	0.32	2
	67	9.28	0.46	2
	68	9.32	0.42	2
	69	9.36	0.42	2
	70	9.4	0.35	2
	71	9.45	0.5	2
	72	9.5	0.63	2
	73	9.54	0.4	2
	74	9.57	0.45	2
	75	9.61	0.49	2
	76	9.63	0.36	2.4
	77	9.67	0.38	2
	78	9.69	0.33	2
	79	9.7	0.33	2
	80	9.72	0.41	2
	81	9.76	0.56	2
	82	9.79	0.48	2
	83	9.81	0.28	2
	84	9.83	0.46	2
	85	9.86	0.48	2
	86	9.89	0.46	2
	87	9.91	0.5	2
	88	9.95	0.62	2
	89	9.98	0.67	2
	90	10.01	0.64	2
	91	10.06	0.89	2
	92	10.11	0.83	2
	93	10.16	0.81	2
	94	10.22	0.85	2
	95	10.27	0.95	2
	96	10.31	0.99	2
	97	10.36	0.74	2
	98	10.4	0.68	2
	99	10.45	0.8	2
	100	10.49	0.92	2
	101	10.53	0.79	2
	102	10.57	0.7	2
	103	10.61	0.65	2
	104	10.64	0.62	2
	105	10.67	0.49	2
	106	10.7	0.43	2
	107	10.73	0.49	2
	108	10.76	0.49	2
	109	10.77	0.52	2
	110	10.8	0.46	2
	111	10.83	0.44	2
	112	10.9	0.68	2
	113	10.93	0.55	2
	114	10.97	0.48	2
	115	11	0.33	2
	116	11.03	0.39	2
	117	11.06	0.42	2
	118	11.09	0.35	2
	119	11.11	0.4	2
	120	11.14	0.57	2
	121	11.17	0.52	2
	122	11.19	0.26	2
	123	11.22	0.44	2
	124	11.25	0.57	2
	125	11.28	0.4	2
	126	11.3	0.36	2
	127	11.32	0.4	2
	128	11.34	0.39	2
	129	11.36	0.38	2
	130	11.39	0.38	2
	131	11.41	0.41	2
	132	11.44	0.43	2
	133	11.46	0.43	2
	134	11.49	0.43	2
	135	11.51	0.45	2
	136	11.54	0.55	2
	137	11.58	0.57	2
	138	11.61	0.54	2
	139	11.64	0.47	2
	140	11.66	0.36	2
	141	11.68	0.32	2
	142	11.71	0.36	2
	143	11.73	0.41	2
	144	11.76	0.58	2
	145	11.8	0.73	2
	146	11.84	0.66	2
	147	11.88	0.7	2
	148	11.93	0.9	2
	149	11.97	1	2
	150	12.05	1.38	2
	151	12.14	1.34	2
	152	12.23	1.59	2
	153	12.35	1.82	2
	154	12.49	2.04	2
	155	12.58	0.55	2.4
	156	12.65	0.95	2
	157	12.73	0.65	2
	158	12.78	0.52	2
	159	12.84	0.52	2
	160	12.9	0.43	2
	161	12.95	0.46	2
	162	13	0.43	2
	163	13.05	0.36	2
	164	13.1	0.43	2
	165	13.21	0.86	2
	166	13.36	1.13	2
	167	13.65	1.84	2
	168	13.81	0.84	2
	169	13.94	0.87	2
	170	14.04	0.38	2
	171	14.13	0.65	2
	172	14.23	0.7	2
	173	14.39	1.56	2
	174	15.23	1.25	2
	175	15.9	1.79	2
	176	16.98	1.08	2

