File:              	C:\Qtrac\Data\Daniel M Sørensen\MScan multicentre study\Data from centres\Roskilde\Folders with NC-examinations\ROS_N7a\MBC00423A.QZD
Name:              	DK.ROS.NC.7.1
Protocol:          	MSCAN-R2
Date:              	23/4/20
Start time:        	13:21:52
Age:               	66
Sex:               	m
Temperature:       	38.2
S/R sites:         	Median Wr-APB
NC/disease:        	NC
Operator:          	MB
Comments:
M-SCAN DATA (7.3-1.3m)
Scanpts: 13, 19, 618, 637
Stim. (mA)     	Amp. (mV)
MS.1           	21             	5.883
MS.2           	21             	5.873
MS.3           	21             	5.833
MS.4           	21             	5.867
MS.5           	21             	5.821
MS.6           	21             	5.821
MS.7           	21             	5.813
MS.8           	21             	5.833
MS.9           	21             	5.885
MS.10          	21             	5.916
MS.11          	21             	5.869
MS.12          	21             	5.899
MS.13          	21             	5.887
MS.14          	21             	5.875
MS.15          	21             	5.885
MS.16          	21             	5.877
MS.17          	21             	5.897
MS.18          	21             	5.861
MS.19          	21             	5.873
MS.20          	21             	5.912
MS.21          	21             	5.871
MS.22          	21             	5.914
MS.23          	21             	5.897
MS.24          	20.915         	5.901
MS.25          	20.875         	5.887
MS.26          	20.833         	5.881
MS.27          	20.79          	5.841
MS.28          	20.75          	5.841
MS.29          	20.708         	5.887
MS.30          	20.667         	5.833
MS.31          	20.625         	5.839
MS.32          	20.585         	5.837
MS.33          	20.542         	5.885
MS.34          	20.502         	5.849
MS.35          	20.46          	5.843
MS.36          	20.42          	5.837
MS.37          	20.38          	5.833
MS.38          	20.337         	5.821
MS.39          	20.297         	5.823
MS.40          	20.257         	5.835
MS.41          	20.217         	5.811
MS.42          	20.177         	5.807
MS.43          	20.135         	5.839
MS.44          	20.095         	5.811
MS.45          	20.055         	5.813
MS.46          	20.015         	5.837
MS.47          	19.975         	5.821
MS.48          	19.935         	5.811
MS.49          	19.895         	5.831
MS.50          	19.855         	5.835
MS.51          	19.817         	5.829
MS.52          	19.778         	5.835
MS.53          	19.737         	5.811
MS.54          	19.698         	5.815
MS.55          	19.657         	5.813
MS.56          	19.62          	5.801
MS.57          	19.58          	5.797
MS.58          	19.54          	5.803
MS.59          	19.502         	5.809
MS.60          	19.462         	5.797
MS.61          	19.425         	5.799
MS.62          	19.385         	5.795
MS.63          	19.347         	5.803
MS.64          	19.307         	5.807
MS.65          	19.27          	5.797
MS.66          	19.23          	5.797
MS.67          	19.192         	5.801
MS.68          	19.155         	5.805
MS.69          	19.115         	5.809
MS.70          	19.077         	5.787
MS.71          	19.04          	5.805
MS.72          	19.002         	5.801
MS.73          	18.962         	5.787
MS.74          	18.925         	5.803
MS.75          	18.887         	5.797
MS.76          	18.85          	5.787
MS.77          	18.812         	5.793
MS.78          	18.775         	5.803
MS.79          	18.737         	5.795
MS.80          	18.7           	5.779
MS.81          	18.663         	5.773
MS.82          	18.625         	5.783
MS.83          	18.587         	5.773
MS.84          	18.55          	5.781
MS.85          	18.515         	5.771
MS.86          	18.477         	5.799
MS.87          	18.44          	5.767
MS.88          	18.403         	5.775
MS.89          	18.368         	5.678
MS.90          	18.33          	5.793
MS.91          	18.292         	5.668
MS.92          	18.257         	5.68
MS.93          	18.22          	5.682
MS.94          	18.182         	5.692
MS.95          	18.147         	5.7
MS.96          	18.11          	5.69
MS.97          	18.075         	5.678
MS.98          	18.038         	5.692
MS.99          	18.003         	5.676
MS.100         	17.967         	5.676
MS.101         	17.93          	5.702
MS.102         	17.895         	5.688
MS.103         	17.86          	5.678
MS.104         	17.823         	5.678
MS.105         	17.788         	5.684
MS.106         	17.753         	5.678
MS.107         	17.717         	5.68
MS.108         	17.682         	5.678
MS.109         	17.645         	5.694
MS.110         	17.61          	5.678
MS.111         	17.575         	5.525
MS.112         	17.54          	5.676
MS.113         	17.505         	5.674
MS.114         	17.47          	5.511
MS.115         	17.435         	5.676
MS.116         	17.4           	5.684
MS.117         	17.365         	5.521
MS.118         	17.333         	5.527
MS.119         	17.297         	5.682
MS.120         	17.262         	5.515
MS.121         	17.227         	5.525
MS.122         	17.192         	5.531
MS.123         	17.16          	5.692
MS.124         	17.125         	5.527
MS.125         	17.09          	5.517
MS.126         	17.057         	5.521
MS.127         	17.022         	5.539
MS.128         	16.987         	5.537
MS.129         	16.955         	5.519
MS.130         	16.92          	5.281
MS.131         	16.887         	5.315
MS.132         	16.852         	5.517
MS.133         	16.82          	5.219
MS.134         	16.785         	5.195
MS.135         	16.753         	5.217
MS.136         	16.717         	5.207
MS.137         	16.685         	4.862
MS.138         	16.653         	5.003
MS.139         	16.618         	5.154
MS.140         	16.585         	4.943
MS.141         	16.552         	5.062
MS.142         	16.52          	4.904
MS.143         	16.485         	5.136
MS.144         	16.452         	4.913
MS.145         	16.42          	4.846
MS.146         	16.387         	5.045
MS.147         	16.355         	4.898
MS.148         	16.323         	4.836
MS.149         	16.29          	4.909
MS.150         	16.257         	4.852
MS.151         	16.225         	4.852
MS.152         	16.192         	4.898
MS.153         	16.16          	4.838
MS.154         	16.128         	4.838
MS.155         	16.095         	4.78
MS.156         	16.062         	4.848
MS.157         	16.03          	4.856
MS.158         	16             	4.713
MS.159         	15.967         	4.784
MS.160         	15.935         	4.86
MS.161         	15.902         	4.856
MS.162         	15.872         	4.685
MS.163         	15.84          	4.792
MS.164         	15.807         	4.808
MS.165         	15.777         	4.77
MS.166         	15.745         	4.79
MS.167         	15.712         	4.79
MS.168         	15.682         	4.741
MS.169         	15.65          	4.606
MS.170         	15.62          	4.709
MS.171         	15.587         	4.61
MS.172         	15.557         	4.695
MS.173         	15.525         	4.584
MS.174         	15.495         	4.592
MS.175         	15.465         	4.544
MS.176         	15.432         	4.602
MS.177         	15.402         	4.669
MS.178         	15.372         	4.606
MS.179         	15.34          	4.568
MS.180         	15.31          	4.562
MS.181         	15.28          	4.548
MS.182         	15.25          	4.554
MS.183         	15.217         	4.576
MS.184         	15.188         	4.524
MS.185         	15.157         	4.49
MS.186         	15.127         	4.496
MS.187         	15.097         	4.514
MS.188         	15.068         	4.477
MS.189         	15.037         	4.477
MS.190         	15.007         	4.467
MS.191         	14.977         	4.528
MS.192         	14.947         	4.512
MS.193         	14.917         	4.52
MS.194         	14.887         	4.439
MS.195         	14.858         	4.276
MS.196         	14.827         	4.467
MS.197         	14.797         	4.3
MS.198         	14.77          	4.383
MS.199         	14.74          	4.28
MS.200         	14.71          	4.266
MS.201         	14.68          	4.234
MS.202         	14.65          	4.173
MS.203         	14.622         	4.248
MS.204         	14.592         	4.161
MS.205         	14.562         	4.262
MS.206         	14.535         	4.177
MS.207         	14.505         	4.173
MS.208         	14.477         	4.373
MS.209         	14.447         	4.038
MS.210         	14.417         	4.258
MS.211         	14.39          	4.153
MS.212         	14.36          	4.157
MS.213         	14.332         	3.964
MS.214         	14.302         	3.901
MS.215         	14.275         	4.119
MS.216         	14.247         	3.73
MS.217         	14.217         	3.694
MS.218         	14.19          	3.694
MS.219         	14.162         	3.581
MS.220         	14.132         	3.789
MS.221         	14.105         	3.857
MS.222         	14.077         	3.783
MS.223         	14.047         	3.704
MS.224         	14.02          	3.519
MS.225         	13.992         	3.619
MS.226         	13.965         	3.771
MS.227         	13.938         	3.491
MS.228         	13.91          	3.456
MS.229         	13.88          	3.273
MS.230         	13.852         	3.368
MS.231         	13.825         	3.273
MS.232         	13.797         	3.257
MS.233         	13.77          	3.064
MS.234         	13.742         	3.303
MS.235         	13.715         	3.213
MS.236         	13.688         	2.997
MS.237         	13.66          	3.18
MS.238         	13.632         	3.051
MS.239         	13.605         	3.134
MS.240         	13.58          	2.967
MS.241         	13.552         	2.9
MS.242         	13.525         	2.904
MS.243         	13.497         	2.836
MS.244         	13.47          	2.939
MS.245         	13.445         	3.053
MS.246         	13.417         	2.81
MS.247         	13.39          	2.826
MS.248         	13.362         	2.814
MS.249         	13.337         	2.816
MS.250         	13.31          	2.782
MS.251         	13.282         	3.027
MS.252         	13.257         	2.788
MS.253         	13.23          	2.81
MS.254         	13.205         	2.761
MS.255         	13.177         	2.902
MS.256         	13.153         	2.782
MS.257         	13.125         	2.741
MS.258         	13.1           	2.78
MS.259         	13.072         	2.731
MS.260         	13.047         	2.723
MS.261         	13.02          	2.755
MS.262         	12.995         	2.743
MS.263         	12.967         	2.689
MS.264         	12.943         	2.763
MS.265         	12.917         	2.697
MS.266         	12.89          	2.578
MS.267         	12.865         	2.669
MS.268         	12.84          	2.574
MS.269         	12.812         	2.51
MS.270         	12.787         	2.385
MS.271         	12.762         	2.55
MS.272         	12.738         	2.5
MS.273         	12.712         	2.556
MS.274         	12.685         	2.399
MS.275         	12.66          	2.363
MS.276         	12.635         	2.33
MS.277         	12.61          	2.099
MS.278         	12.585         	2.052
MS.279         	12.56          	2.103
MS.280         	12.535         	2.075
MS.281         	12.51          	1.978
MS.282         	12.485         	2.111
MS.283         	12.46          	2.038
MS.284         	12.435         	2.203
MS.285         	12.41          	2.02
MS.286         	12.385         	1.909
MS.287         	12.36          	1.95
MS.288         	12.335         	1.944
MS.289         	12.312         	1.889
MS.290         	12.287         	1.787
MS.291         	12.262         	1.893
MS.292         	12.238         	1.889
MS.293         	12.212         	1.656
MS.294         	12.19          	1.682
MS.295         	12.165         	1.772
MS.296         	12.14          	1.813
MS.297         	12.115         	1.664
MS.298         	12.092         	1.476
MS.299         	12.068         	1.698
MS.300         	12.042         	1.613
MS.301         	12.02          	1.732
MS.302         	11.995         	1.718
MS.303         	11.972         	1.686
MS.304         	11.947         	1.482
MS.305         	11.922         	1.597
MS.306         	11.9           	1.414
MS.307         	11.875         	1.416
MS.308         	11.852         	1.452
MS.309         	11.827         	1.394
MS.310         	11.805         	1.404
MS.311         	11.782         	1.372
MS.312         	11.757         	1.305
MS.313         	11.735         	1.249
MS.314         	11.71          	1.241
MS.315         	11.688         	1.084
MS.316         	11.665         	1.237
MS.317         	11.64          	1.128
MS.318         	11.617         	1.237
MS.319         	11.595         	1.023
MS.320         	11.57          	1.086
MS.321         	11.547         	1.136
MS.322         	11.525         	1.005
MS.323         	11.502         	1.031
MS.324         	11.48          	1.142
MS.325         	11.455         	1.045
MS.326         	11.432         	1.1
MS.327         	11.41          	1.007
MS.328         	11.387         	1.045
MS.329         	11.365         	1.031
MS.330         	11.342         	0.89
MS.331         	11.32          	0.957
MS.332         	11.297         	0.888
MS.333         	11.275         	0.894
MS.334         	11.252         	0.916
MS.335         	11.23          	0.88
MS.336         	11.207         	0.862
MS.337         	11.185         	0.894
MS.338         	11.162         	0.892
MS.339         	11.14          	0.802
MS.340         	11.117         	0.888
MS.341         	11.095         	0.838
MS.342         	11.073         	0.779
MS.343         	11.05          	0.884
MS.344         	11.03          	0.874
MS.345         	11.007         	0.628
MS.346         	10.985         	0.634
MS.347         	10.962         	0.636
MS.348         	10.94          	0.641
MS.349         	10.92          	0.647
MS.350         	10.898         	0.502
MS.351         	10.875         	0.578
MS.352         	10.855         	0.54
MS.353         	10.832         	0.671
MS.354         	10.81          	0.578
MS.355         	10.79          	0.612
MS.356         	10.767         	0.522
MS.357         	10.745         	0.536
MS.358         	10.725         	0.528
MS.359         	10.702         	0.407
MS.360         	10.682         	0.584
MS.361         	10.66          	0.481
MS.362         	10.64          	0.457
MS.363         	10.617         	0.453
MS.364         	10.597         	0.463
MS.365         	10.575         	0.463
MS.366         	10.555         	0.415
MS.367         	10.532         	0.471
MS.368         	10.512         	0.401
MS.369         	10.49          	0.495
MS.370         	10.47          	0.314
MS.371         	10.45          	0.409
MS.372         	10.427         	0.304
MS.373         	10.407         	0.397
MS.374         	10.387         	0.308
MS.375         	10.365         	0.276
MS.376         	10.345         	0.244
MS.377         	10.325         	0.308
MS.378         	10.305         	0.29
MS.379         	10.282         	0.314
MS.380         	10.262         	0.288
MS.381         	10.242         	0.308
MS.382         	10.222         	0.195
MS.383         	10.202         	0.234
MS.384         	10.18          	0.135
MS.385         	10.16          	0.316
MS.386         	10.14          	0.27
MS.387         	10.12          	0.187
MS.388         	10.1           	0.133
MS.389         	10.08          	0.139
MS.390         	10.06          	0.189
MS.391         	10.04          	0.139
MS.392         	10.02          	0.129
MS.393         	10             	0.129
MS.394         	9.98           	0.129
MS.395         	9.96           	0.131
MS.396         	9.94           	0.135
MS.397         	9.92           	0.137
MS.398         	9.9            	0.143
MS.399         	9.88           	0.137
MS.400         	9.86           	0.139
MS.401         	9.84           	0.195
MS.402         	9.82           	0.135
MS.403         	9.802          	0.137
MS.404         	9.782          	0.137
MS.405         	9.762          	0.143
MS.406         	9.742          	0.125
MS.407         	9.722          	0.129
MS.408         	9.705          	0.127
MS.409         	9.685          	0.119
MS.410         	9.665          	0.133
MS.411         	9.645          	0.137
MS.412         	9.627          	0.125
MS.413         	9.608          	0.133
MS.414         	9.587          	0.127
MS.415         	9.57           	0.125
MS.416         	9.55           	0.123
MS.417         	9.53           	0.129
MS.418         	9.512          	0.129
MS.419         	9.492          	0.123
MS.420         	9.472          	0.123
MS.421         	9.455          	0.129
MS.422         	9.435          	0.127
MS.423         	9.417          	0.129
MS.424         	9.398          	0.127
MS.425         	9.38           	0.121
MS.426         	9.36           	0.127
MS.427         	9.342          	0.129
MS.428         	9.323          	0.127
MS.429         	9.305          	0.123
MS.430         	9.285          	0.127
MS.431         	9.267          	0.123
MS.432         	9.25           	0.125
MS.433         	9.23           	0.123
MS.434         	9.212          	0.127
MS.435         	9.193          	0.123
MS.436         	9.175          	0.125
MS.437         	9.158          	0.123
MS.438         	9.137          	0.131
MS.439         	9.12           	0.129
MS.440         	9.102          	0.125
MS.441         	9.085          	0.121
MS.442         	9.065          	0.147
MS.443         	9.047          	0.123
MS.444         	9.03           	0.129
MS.445         	9.012          	0.129
MS.446         	8.992          	0.127
MS.447         	8.975          	0.129
MS.448         	8.957          	0.127
MS.449         	8.94           	0.125
MS.450         	8.922          	0.123
MS.451         	8.905          	0.125
MS.452         	8.887          	0.127
MS.453         	8.867          	0.129
MS.454         	8.85           	0.131
MS.455         	8.832          	0.127
MS.456         	8.815          	0.127
MS.457         	8.797          	0.127
MS.458         	8.78           	0.123
MS.459         	8.762          	0.129
MS.460         	8.745          	0.083
MS.461         	8.727          	0.123
MS.462         	8.71           	0.085
MS.463         	8.693          	0.083
MS.464         	8.675          	0.085
MS.465         	8.658          	0.083
MS.466         	8.64           	0.125
MS.467         	8.622          	0.081
MS.468         	8.608          	0.083
MS.469         	8.59           	0.129
MS.470         	8.573          	0.083
MS.471         	8.555          	0.081
MS.472         	8.537          	0.087
MS.473         	8.52           	0.085
MS.474         	8.505          	0.125
MS.475         	8.488          	0.123
MS.476         	8.47           	0.087
MS.477         	8.452          	0.085
MS.478         	8.435          	0.081
MS.479         	8.42           	0.087
MS.480         	8.403          	0.085
MS.481         	8.385          	0.085
MS.482         	8.37           	0.081
MS.483         	8.352          	0.085
MS.484         	8.335          	0.083
MS.485         	8.32           	0.081
MS.486         	8.302          	0.081
MS.487         	8.285          	0.085
MS.488         	8.27           	0.083
MS.489         	8.252          	0.085
MS.490         	8.235          	0.081
MS.491         	8.22           	0.085
MS.492         	8.202          	0.087
MS.493         	8.188          	0.093
MS.494         	8.17           	0.089
MS.495         	8.155          	0.087
MS.496         	8.122          	0.083
MS.497         	8.105          	0.089
MS.498         	8.09           	0.085
MS.499         	8.073          	0.081
MS.500         	8.057          	0.079
MS.501         	8.04           	0.087
MS.502         	8.025          	0.083
MS.503         	8.007          	0.083
MS.504         	7.992          	0.081
MS.505         	7.977          	0.079
MS.506         	7.96           	0.087
MS.507         	7.945          	0.089
MS.508         	7.93           	0.081
MS.509         	7.912          	0.083
MS.510         	7.898          	0.085
MS.511         	7.882          	0.064
MS.512         	7.865          	0.083
MS.513         	7.85           	0.064
MS.514         	7.835          	0.064
MS.515         	7.817          	0.064
MS.516         	7.802          	0.064
MS.517         	7.787          	0.07
MS.518         	7.773          	0.062
MS.519         	7.757          	0.066
MS.520         	7.74           	0.062
MS.521         	7.725          	0.062
MS.522         	7.71           	0.064
MS.523         	7.695          	0.064
MS.524         	7.68           	0.075
MS.525         	7.665          	0.064
MS.526         	7.648          	0.066
MS.527         	7.632          	0.058
MS.528         	7.617          	0.064
MS.529         	7.602          	0.066
MS.530         	7.587          	0.066
MS.531         	7.572          	0.064
MS.532         	7.557          	0.066
MS.533         	7.543          	0.064
MS.534         	7.527          	0.068
MS.535         	7.512          	0.064
MS.536         	7.497          	0.066
MS.537         	7.482          	0.066
MS.538         	7.467          	0.064
MS.539         	7.452          	0.066
MS.540         	7.438          	0.068
MS.541         	7.422          	0.064
MS.542         	7.407          	0.064
MS.543         	7.392          	0.064
MS.544         	7.378          	0.066
MS.545         	7.362          	0.066
MS.546         	7.347          	0.062
MS.547         	7.335          	0.066
MS.548         	7.32           	0.062
MS.549         	7.305          	0.064
MS.550         	7.29           	0.068
MS.551         	7.275          	0.066
MS.552         	7.26           	0.062
MS.553         	7.247          	0.062
MS.554         	7.233          	0.064
MS.555         	7.217          	0.06
MS.556         	7.202          	0.05
MS.557         	7.19           	0.064
MS.558         	7.175          	0.066
MS.559         	7.16           	0.062
MS.560         	7.145          	0.066
MS.561         	7.132          	0.068
MS.562         	7.117          	0.066
MS.563         	7.102          	0.068
MS.564         	7.09           	0.068
MS.565         	7.075          	0.064
MS.566         	7.06           	0.068
MS.567         	7.047          	0.068
MS.568         	7.032          	0.064
MS.569         	7.017          	0.062
MS.570         	7.005          	0.05
MS.571         	6.99           	0.05
MS.572         	6.977          	0.05
MS.573         	6.962          	0.068
MS.574         	6.947          	0.066
MS.575         	6.935          	0.05
MS.576         	6.92           	0.046
MS.577         	6.907          	0.05
MS.578         	6.892          	0.048
MS.579         	6.88           	0.064
MS.580         	6.865          	0.052
MS.581         	6.852          	0.05
MS.582         	6.837          	0.046
MS.583         	6.825          	0.046
MS.584         	6.81           	0.054
MS.585         	6.797          	0.052
MS.586         	6.782          	0.048
MS.587         	6.77           	0.052
MS.588         	6.757          	0.048
MS.589         	6.742          	0.048
MS.590         	6.73           	0.048
MS.591         	6.715          	0.05
MS.592         	6.702          	0.048
MS.593         	6.69           	0.048
MS.594         	6.675          	0.048
MS.595         	6.662          	0.054
MS.596         	6.65           	0.05
MS.597         	6.635          	0.052
MS.598         	6.622          	0.012
MS.599         	6.61           	0.052
MS.600         	6.597          	0.014
MS.601         	6.582          	0.014
MS.602         	6.57           	0.052
MS.603         	6.557          	0.014
MS.604         	6.545          	0.012
MS.605         	6.53           	0.05
MS.606         	6.517          	0.01
MS.607         	6.505          	0.014
MS.608         	6.492          	0.014
MS.609         	6.477          	0.05
MS.610         	6.465          	0.046
MS.611         	6.452          	0.016
MS.612         	6.44           	0.01
MS.613         	6.427          	0.01
MS.614         	6.415          	0.014
MS.615         	6.402          	0.008
MS.616         	6.387          	0.008
MS.617         	6.375          	0.006
MS.618         	6.362          	0.01
MS.619         	6.35           	0.014
MS.620         	6.338          	0.01
MS.621         	6.325          	0.008
MS.622         	6.312          	0.01
MS.623         	6.3            	0.008
MS.624         	6.287          	0.01
MS.625         	6.275          	0.014
MS.626         	6.262          	0.01
MS.627         	6.25           	0.01
MS.628         	6.237          	0.012
MS.629         	6.225          	0.008
MS.630         	6.213          	0.01
MS.631         	6.2            	0.01
MS.632         	6.188          	0.01
MS.633         	6.175          	0.014
MS.634         	6.162          	0.01
MS.635         	6.15           	0.01
MS.636         	6.137          	0.014
MS.637         	6.125          	0.01
DERIVED EXCITABILITY VARIABLES
Program = QTracP 3/4/2020
Threshold method = 6 (optimised for CAP, using data for present condition only)
SR method = 1 (using actual data values)
6.                 	0.000               	Peak response\(mV)
9.                 	38.2                	Temperature ( C)
17.                	66                  	Age (years)
18.                	1                   	Sex (M=1, F=2)

EXTRA VARIABLES

MScPeak(mV) = 5.86
MScS5(mA) = 10.27
MScS50(mA) = 13.41
MScS95(mA) = 17.38
MScNSteps = 3
MScSteps(%) = 7.7
MScStepMax(%) = 3.3
MScD50 = 41
MScSlope = 4.56
MSFPeakAmp(mV) = 5.87
MSFNUnits = 121
MSFMeanUnitAmp(uV) = 48.5
MSFHuntTime(m) = 3.13
MSFError(%) = 2.84
MSFNLarge = 34.39
MSFMedianAmp(%) = 0.703
MSFMedianAmp(mV) = 0.0413
MSFHalfAmpAmp(%) = 0.893
MSFHalfAmpAmp(mV) = 0.0524
MSFLargestAmp(%) = 3.55
MSFLargestAmp(mV) = 0.208
MSFMeanRS(%) = 2
MSFOpts = 10106121
MScDuration(min) = 6
MSFTraces = 625
MSFSizeLimit(uV) = 14.7
MSFLimitType = 1
MSFSmallestAmp(uV) = 16.8

EXTRA WAVEFORMS


!MScan Model
!121
	1	6.57	0.45	2
	2	7.82	0.65	2
	3	8.77	0.63	2
	4	10.01	0.59	2
	5	10.1	0.61	2
	6	10.16	0.57	2
	7	10.29	1.11	2
	8	10.36	0.64	2
	9	10.4	0.44	2
	10	10.44	0.34	2
	11	10.51	0.71	2
	12	10.6	0.83	2
	13	10.66	0.7	2
	14	10.77	0.86	2
	15	10.85	0.79	2
	16	10.91	0.86	2
	17	10.97	0.42	2
	18	10.99	0.61	2
	19	11.03	0.87	2
	20	11.09	0.76	2
	21	11.13	0.64	2
	22	11.18	0.55	2
	23	11.22	0.45	2
	24	11.25	0.33	2
	25	11.28	0.31	2
	26	11.31	0.35	2
	27	11.34	0.37	2
	28	11.41	0.74	2
	29	11.51	1.07	2
	30	11.58	0.93	2
	31	11.62	0.4	2
	32	11.64	0.3	2
	33	11.66	0.45	2
	34	11.69	0.45	2
	35	11.7	0.37	2
	36	11.72	0.36	2
	37	11.74	0.36	2
	38	11.75	0.33	2
	39	11.77	0.29	2
	40	11.79	0.34	2
	41	11.81	0.47	2
	42	11.87	1.48	2
	43	11.93	1.24	2
	44	12.07	2.2	2
	45	12.17	1.73	2
	46	12.21	0.49	2
	47	12.25	0.73	2
	48	12.28	0.77	2
	49	12.39	1.77	2
	50	12.44	0.7	2
	51	12.49	1	2
	52	12.53	1.13	2
	53	12.56	0.62	2
	54	12.58	0.36	2
	55	12.6	0.32	2
	56	12.63	0.61	2
	57	12.65	0.71	2
	58	12.67	0.69	2
	59	12.68	0.81	2
	60	12.71	0.85	2
	61	12.74	0.8	2
	62	12.77	0.83	2
	63	12.83	0.63	2
	64	12.86	0.58	2
	65	12.89	0.5	2
	66	12.94	0.73	2
	67	13.03	1.19	2
	68	13.33	2.02	2
	69	13.47	1.25	2
	70	13.54	0.92	2
	71	13.6	0.88	2
	72	13.63	0.6	2
	73	13.67	0.64	2
	74	13.71	0.77	2
	75	13.74	0.68	2
	76	13.77	0.66	2
	77	13.8	0.97	2
	78	13.83	0.92	2
	79	13.87	1.04	2
	80	13.92	1.17	2
	81	13.97	1.14	2
	82	14.07	2.4	2
	83	14.17	1.93	2
	84	14.23	1.47	2
	85	14.29	1.59	2
	86	14.36	1.47	2
	87	14.56	3.01	2
	88	14.61	0.32	2
	89	14.66	0.38	2
	90	14.71	0.52	2
	91	14.75	0.48	2
	92	14.8	0.38	2
	93	14.84	0.58	2
	94	14.94	1.15	2
	95	15.05	0.87	2
	96	15.16	0.62	2
	97	15.3	0.54	2
	98	15.44	0.79	2
	99	15.51	0.39	2
	100	15.57	0.57	2
	101	15.68	0.89	2
	102	16.08	1.88	2
	103	16.26	1.4	2
	104	16.45	0.83	2
	105	16.53	3.55	2
	106	16.6	1.25	2
	107	16.64	0.42	2
	108	16.69	0.63	2
	109	16.73	0.99	2
	110	16.78	0.96	2
	111	16.82	0.93	2
	112	16.87	0.64	2
	113	16.91	0.77	2
	114	17.63	1.39	2
	115	18.18	0.85	2
	116	18.28	0.29	2
	117	18.42	0.46	2
	118	18.73	0.82	2
	119	19.73	0.42	2
	120	20.46	0.38	2
	121	20.67	0.36	2

