File:              	C:\Qtrac\Data\Daniel M Sørensen\MScan multicentre study\Data from centres\Roskilde\Folders with NC-examinations\ROS_N5b\MBC00430C.QZD
Name:              	DK.ROS.NC.5.2
Protocol:          	MSCAN-R2
Date:              	30/4/20
Start time:        	14:59:44
Age:               	34
Sex:               	m
Temperature:       	37.8
S/R sites:         	Peroneus-TA
NC/disease:        	NC
Operator:          	MB
Comments:
M-SCAN DATA (10-1.2m)
Scanpts: 22, 27, 877, 888
Stim. (mA)     	Amp. (mV)
MS.1           	24             	7.74
MS.2           	24             	7.74
MS.3           	24             	7.771
MS.4           	24             	7.7
MS.5           	24             	7.712
MS.6           	24             	7.736
MS.7           	24             	7.694
MS.8           	24             	7.706
MS.9           	24             	7.65
MS.10          	24             	7.684
MS.11          	24             	7.682
MS.12          	24             	7.682
MS.13          	24             	7.67
MS.14          	24             	7.644
MS.15          	24             	7.678
MS.16          	24             	7.658
MS.17          	24             	7.664
MS.18          	24             	7.722
MS.19          	24             	7.65
MS.20          	24             	7.714
MS.21          	24             	7.674
MS.22          	24             	7.69
MS.23          	24             	7.66
MS.24          	23.905         	7.664
MS.25          	23.858         	7.692
MS.26          	23.807         	7.682
MS.27          	23.76          	7.68
MS.28          	23.712         	7.696
MS.29          	23.665         	7.72
MS.30          	23.62          	7.674
MS.31          	23.573         	7.68
MS.32          	23.525         	7.654
MS.33          	23.477         	7.614
MS.34          	23.43          	7.628
MS.35          	23.385         	7.652
MS.36          	23.337         	7.64
MS.37          	23.29          	7.636
MS.38          	23.245         	7.642
MS.39          	23.198         	7.626
MS.40          	23.153         	7.612
MS.41          	23.105         	7.64
MS.42          	23.06          	7.614
MS.43          	23.012         	7.618
MS.44          	22.967         	7.65
MS.45          	22.92          	7.601
MS.46          	22.875         	7.62
MS.47          	22.83          	7.648
MS.48          	22.785         	7.607
MS.49          	22.737         	7.624
MS.50          	22.692         	7.599
MS.51          	22.647         	7.612
MS.52          	22.602         	7.614
MS.53          	22.557         	7.646
MS.54          	22.512         	7.609
MS.55          	22.467         	7.616
MS.56          	22.422         	7.654
MS.57          	22.377         	7.63
MS.58          	22.332         	7.591
MS.59          	22.288         	7.638
MS.60          	22.243         	7.628
MS.61          	22.2           	7.591
MS.62          	22.155         	7.599
MS.63          	22.11          	7.638
MS.64          	22.067         	7.622
MS.65          	22.022         	7.609
MS.66          	21.977         	7.603
MS.67          	21.935         	7.585
MS.68          	21.89          	7.601
MS.69          	21.847         	7.551
MS.70          	21.802         	7.563
MS.71          	21.76          	7.646
MS.72          	21.715         	7.543
MS.73          	21.672         	7.581
MS.74          	21.63          	7.525
MS.75          	21.585         	7.537
MS.76          	21.542         	7.571
MS.77          	21.5           	7.547
MS.78          	21.458         	7.549
MS.79          	21.415         	7.561
MS.80          	21.372         	7.557
MS.81          	21.327         	7.567
MS.82          	21.285         	7.543
MS.83          	21.243         	7.571
MS.84          	21.2           	7.571
MS.85          	21.157         	7.547
MS.86          	21.118         	7.521
MS.87          	21.075         	7.551
MS.88          	21.032         	7.537
MS.89          	20.99          	7.567
MS.90          	20.948         	7.591
MS.91          	20.907         	7.521
MS.92          	20.865         	7.541
MS.93          	20.823         	7.523
MS.94          	20.78          	7.521
MS.95          	20.74          	7.511
MS.96          	20.698         	7.507
MS.97          	20.657         	7.531
MS.98          	20.615         	7.517
MS.99          	20.575         	7.511
MS.100         	20.532         	7.539
MS.101         	20.493         	7.519
MS.102         	20.452         	7.499
MS.103         	20.41          	7.499
MS.104         	20.37          	7.533
MS.105         	20.33          	7.481
MS.106         	20.288         	7.505
MS.107         	20.247         	7.477
MS.108         	20.208         	7.444
MS.109         	20.167         	7.481
MS.110         	20.127         	7.503
MS.111         	20.087         	7.471
MS.112         	20.047         	7.444
MS.113         	20.007         	7.412
MS.114         	19.967         	7.471
MS.115         	19.927         	7.446
MS.116         	19.887         	7.458
MS.117         	19.847         	7.45
MS.118         	19.807         	7.495
MS.119         	19.767         	7.477
MS.120         	19.727         	7.452
MS.121         	19.69          	7.446
MS.122         	19.65          	7.422
MS.123         	19.61          	7.497
MS.124         	19.57          	7.408
MS.125         	19.532         	7.446
MS.126         	19.493         	7.452
MS.127         	19.455         	7.406
MS.128         	19.415         	7.448
MS.129         	19.377         	7.408
MS.130         	19.337         	7.414
MS.131         	19.3           	7.352
MS.132         	19.26          	7.392
MS.133         	19.222         	7.418
MS.134         	19.182         	7.384
MS.135         	19.145         	7.342
MS.136         	19.108         	7.384
MS.137         	19.067         	7.376
MS.138         	19.03          	7.36
MS.139         	18.993         	7.334
MS.140         	18.955         	7.317
MS.141         	18.917         	7.315
MS.142         	18.88          	7.307
MS.143         	18.842         	7.279
MS.144         	18.802         	7.199
MS.145         	18.765         	7.172
MS.146         	18.727         	7.261
MS.147         	18.69          	7.243
MS.148         	18.655         	7.289
MS.149         	18.618         	7.265
MS.150         	18.58          	7.291
MS.151         	18.542         	7.255
MS.152         	18.505         	7.223
MS.153         	18.467         	7.233
MS.154         	18.432         	7.257
MS.155         	18.395         	7.104
MS.156         	18.358         	7.158
MS.157         	18.32          	7.164
MS.158         	18.285         	7.11
MS.159         	18.247         	7.213
MS.160         	18.212         	7.146
MS.161         	18.175         	7.13
MS.162         	18.137         	7.154
MS.163         	18.102         	7.112
MS.164         	18.067         	7.094
MS.165         	18.03          	7.076
MS.166         	17.995         	7.114
MS.167         	17.958         	7.098
MS.168         	17.922         	7.12
MS.169         	17.887         	7.098
MS.170         	17.85          	7.094
MS.171         	17.815         	7.114
MS.172         	17.78          	7.126
MS.173         	17.745         	7.094
MS.174         	17.708         	7.08
MS.175         	17.672         	7.132
MS.176         	17.637         	7.08
MS.177         	17.602         	7.12
MS.178         	17.567         	7.104
MS.179         	17.532         	7.056
MS.180         	17.497         	7.106
MS.181         	17.462         	7.084
MS.182         	17.427         	7.058
MS.183         	17.392         	7.096
MS.184         	17.358         	7.082
MS.185         	17.323         	7.039
MS.186         	17.288         	7.108
MS.187         	17.255         	7.086
MS.188         	17.22          	7.068
MS.189         	17.185         	7.084
MS.190         	17.15          	7.08
MS.191         	17.118         	7.05
MS.192         	17.083         	7.084
MS.193         	17.047         	7.052
MS.194         	17.015         	7.027
MS.195         	16.98          	7.001
MS.196         	16.948         	7.054
MS.197         	16.913         	7.017
MS.198         	16.878         	6.999
MS.199         	16.845         	7.015
MS.200         	16.812         	6.973
MS.201         	16.778         	7.072
MS.202         	16.745         	6.953
MS.203         	16.71          	6.973
MS.204         	16.677         	6.939
MS.205         	16.645         	6.977
MS.206         	16.61          	7.003
MS.207         	16.577         	6.945
MS.208         	16.545         	6.977
MS.209         	16.512         	6.955
MS.210         	16.477         	6.933
MS.211         	16.445         	6.915
MS.212         	16.413         	6.915
MS.213         	16.38          	6.892
MS.214         	16.347         	6.907
MS.215         	16.315         	6.898
MS.216         	16.282         	6.888
MS.217         	16.25          	6.856
MS.218         	16.217         	6.85
MS.219         	16.185         	6.852
MS.220         	16.153         	6.886
MS.221         	16.12          	6.872
MS.222         	16.087         	6.848
MS.223         	16.055         	6.745
MS.224         	16.022         	6.858
MS.225         	15.992         	6.764
MS.226         	15.96          	6.81
MS.227         	15.927         	6.812
MS.228         	15.895         	6.804
MS.229         	15.865         	6.749
MS.230         	15.832         	6.818
MS.231         	15.8           	6.695
MS.232         	15.77          	6.788
MS.233         	15.737         	6.715
MS.234         	15.705         	6.727
MS.235         	15.675         	6.751
MS.236         	15.642         	6.695
MS.237         	15.612         	6.693
MS.238         	15.58          	6.653
MS.239         	15.55          	6.631
MS.240         	15.52          	6.725
MS.241         	15.487         	6.695
MS.242         	15.457         	6.651
MS.243         	15.425         	6.691
MS.244         	15.395         	6.586
MS.245         	15.365         	6.612
MS.246         	15.332         	6.588
MS.247         	15.302         	6.574
MS.248         	15.273         	6.55
MS.249         	15.242         	6.645
MS.250         	15.212         	6.58
MS.251         	15.18          	6.574
MS.252         	15.15          	6.524
MS.253         	15.12          	6.61
MS.254         	15.09          	6.536
MS.255         	15.06          	6.564
MS.256         	15.03          	6.58
MS.257         	15             	6.445
MS.258         	14.97          	6.453
MS.259         	14.94          	6.407
MS.260         	14.91          	6.476
MS.261         	14.88          	6.474
MS.262         	14.85          	6.413
MS.263         	14.82          	6.451
MS.264         	14.792         	6.48
MS.265         	14.762         	6.399
MS.266         	14.733         	6.431
MS.267         	14.702         	6.435
MS.268         	14.672         	6.339
MS.269         	14.645         	6.337
MS.270         	14.615         	6.389
MS.271         	14.585         	6.361
MS.272         	14.557         	6.248
MS.273         	14.527         	6.411
MS.274         	14.497         	6.248
MS.275         	14.47          	6.218
MS.276         	14.44          	6.341
MS.277         	14.412         	6.302
MS.278         	14.382         	6.179
MS.279         	14.355         	6.234
MS.280         	14.325         	6.202
MS.281         	14.297         	6.175
MS.282         	14.267         	6.214
MS.283         	14.24          	6.238
MS.284         	14.212         	6.238
MS.285         	14.182         	6.192
MS.286         	14.155         	6.244
MS.287         	14.127         	6.214
MS.288         	14.097         	6.278
MS.289         	14.07          	6.137
MS.290         	14.042         	6.202
MS.291         	14.015         	6.204
MS.292         	13.985         	6.093
MS.293         	13.957         	6.165
MS.294         	13.93          	6.147
MS.295         	13.903         	6.091
MS.296         	13.875         	6.179
MS.297         	13.847         	6.165
MS.298         	13.82          	6.022
MS.299         	13.792         	6.022
MS.300         	13.765         	6.131
MS.301         	13.737         	6.149
MS.302         	13.71          	6.038
MS.303         	13.682         	6.01
MS.304         	13.655         	6.034
MS.305         	13.627         	6.067
MS.306         	13.6           	6.02
MS.307         	13.572         	6.049
MS.308         	13.545         	6.141
MS.309         	13.517         	6
MS.310         	13.492         	6.061
MS.311         	13.465         	6.139
MS.312         	13.438         	5.962
MS.313         	13.41          	5.93
MS.314         	13.385         	5.992
MS.315         	13.358         	6.083
MS.316         	13.33          	6.008
MS.317         	13.305         	6.02
MS.318         	13.278         	5.978
MS.319         	13.25          	5.889
MS.320         	13.225         	5.914
MS.321         	13.197         	5.869
MS.322         	13.172         	5.867
MS.323         	13.145         	5.837
MS.324         	13.12          	5.904
MS.325         	13.092         	5.887
MS.326         	13.068         	5.823
MS.327         	13.04          	5.807
MS.328         	13.015         	5.895
MS.329         	12.987         	5.775
MS.330         	12.962         	5.946
MS.331         	12.938         	5.714
MS.332         	12.91          	5.916
MS.333         	12.885         	5.944
MS.334         	12.86          	5.889
MS.335         	12.832         	5.726
MS.336         	12.807         	5.74
MS.337         	12.782         	5.662
MS.338         	12.757         	5.865
MS.339         	12.73          	5.638
MS.340         	12.705         	5.765
MS.341         	12.68          	5.658
MS.342         	12.655         	5.634
MS.343         	12.63          	5.527
MS.344         	12.605         	5.511
MS.345         	12.58          	5.543
MS.346         	12.555         	5.654
MS.347         	12.53          	5.672
MS.348         	12.505         	5.406
MS.349         	12.48          	5.505
MS.350         	12.455         	5.62
MS.351         	12.43          	5.515
MS.352         	12.405         	5.225
MS.353         	12.38          	5.184
MS.354         	12.355         	5.321
MS.355         	12.33          	5.261
MS.356         	12.305         	5.35
MS.357         	12.28          	5.368
MS.358         	12.257         	5.213
MS.359         	12.233         	5.305
MS.360         	12.207         	5.088
MS.361         	12.182         	5.082
MS.362         	12.16          	5.126
MS.363         	12.135         	5.186
MS.364         	12.11          	4.999
MS.365         	12.085         	5.11
MS.366         	12.062         	5.116
MS.367         	12.037         	5.108
MS.368         	12.012         	5.039
MS.369         	11.99          	5.072
MS.370         	11.965         	4.927
MS.371         	11.943         	4.87
MS.372         	11.917         	4.87
MS.373         	11.895         	4.977
MS.374         	11.87          	4.971
MS.375         	11.847         	4.864
MS.376         	11.822         	5.009
MS.377         	11.8           	4.82
MS.378         	11.775         	4.906
MS.379         	11.752         	4.8
MS.380         	11.73          	4.794
MS.381         	11.705         	4.681
MS.382         	11.682         	4.733
MS.383         	11.657         	4.755
MS.384         	11.635         	4.687
MS.385         	11.613         	4.588
MS.386         	11.59          	4.693
MS.387         	11.565         	4.679
MS.388         	11.542         	4.618
MS.389         	11.52          	4.631
MS.390         	11.497         	4.655
MS.391         	11.472         	4.647
MS.392         	11.45          	4.598
MS.393         	11.427         	4.467
MS.394         	11.405         	4.502
MS.395         	11.382         	4.451
MS.396         	11.36          	4.475
MS.397         	11.337         	4.31
MS.398         	11.315         	4.395
MS.399         	11.292         	4.437
MS.400         	11.27          	4.314
MS.401         	11.247         	4.367
MS.402         	11.225         	4.276
MS.403         	11.202         	4.385
MS.404         	11.18          	4.29
MS.405         	11.157         	4.296
MS.406         	11.135         	4.171
MS.407         	11.113         	4.145
MS.408         	11.09          	4.165
MS.409         	11.068         	4.113
MS.410         	11.045         	4.153
MS.411         	11.023         	4.252
MS.412         	11.002         	4.185
MS.413         	10.98          	4.006
MS.414         	10.957         	4.123
MS.415         	10.935         	4.059
MS.416         	10.915         	3.934
MS.417         	10.892         	3.966
MS.418         	10.87          	3.994
MS.419         	10.85          	4.02
MS.420         	10.827         	3.962
MS.421         	10.805         	4.002
MS.422         	10.785         	3.978
MS.423         	10.762         	3.914
MS.424         	10.74          	3.932
MS.425         	10.72          	3.873
MS.426         	10.698         	3.837
MS.427         	10.677         	4.024
MS.428         	10.655         	3.807
MS.429         	10.635         	3.847
MS.430         	10.613         	3.728
MS.431         	10.592         	3.865
MS.432         	10.57          	3.841
MS.433         	10.55          	3.847
MS.434         	10.528         	3.783
MS.435         	10.507         	3.754
MS.436         	10.485         	3.752
MS.437         	10.465         	3.678
MS.438         	10.445         	3.607
MS.439         	10.422         	3.533
MS.440         	10.403         	3.704
MS.441         	10.382         	3.682
MS.442         	10.36          	3.609
MS.443         	10.34          	3.599
MS.444         	10.32          	3.579
MS.445         	10.3           	3.573
MS.446         	10.278         	3.493
MS.447         	10.257         	3.416
MS.448         	10.238         	3.573
MS.449         	10.217         	3.487
MS.450         	10.198         	3.539
MS.451         	10.175         	3.66
MS.452         	10.155         	3.484
MS.453         	10.135         	3.337
MS.454         	10.115         	3.223
MS.455         	10.095         	3.106
MS.456         	10.075         	3.396
MS.457         	10.055         	3.45
MS.458         	10.035         	3.231
MS.459         	10.015         	3.398
MS.460         	9.995          	3.4
MS.461         	9.975          	3.259
MS.462         	9.955          	3.339
MS.463         	9.935          	3.158
MS.464         	9.915          	3.084
MS.465         	9.895          	3.011
MS.466         	9.875          	3.235
MS.467         	9.855          	3.293
MS.468         	9.835          	3.138
MS.469         	9.818          	2.949
MS.470         	9.797          	3.257
MS.471         	9.778          	2.886
MS.472         	9.757          	2.985
MS.473         	9.738          	2.836
MS.474         	9.717          	3.078
MS.475         	9.7            	2.88
MS.476         	9.68           	2.739
MS.477         	9.66           	2.723
MS.478         	9.64           	2.761
MS.479         	9.622          	2.816
MS.480         	9.602          	2.788
MS.481         	9.582          	2.763
MS.482         	9.565          	2.705
MS.483         	9.545          	2.896
MS.484         	9.525          	2.834
MS.485         	9.507          	2.727
MS.486         	9.488          	2.554
MS.487         	9.47           	2.57
MS.488         	9.45           	2.363
MS.489         	9.432          	2.598
MS.490         	9.412          	2.739
MS.491         	9.395          	2.776
MS.492         	9.375          	2.673
MS.493         	9.358          	2.705
MS.494         	9.337          	2.655
MS.495         	9.32           	2.624
MS.496         	9.3            	2.496
MS.497         	9.283          	2.502
MS.498         	9.262          	2.427
MS.499         	9.245          	2.469
MS.500         	9.225          	2.266
MS.501         	9.207          	2.377
MS.502         	9.19           	2.389
MS.503         	9.17           	2.403
MS.504         	9.153          	2.342
MS.505         	9.135          	2.399
MS.506         	9.115          	2.349
MS.507         	9.097          	2.145
MS.508         	9.08           	2.365
MS.509         	9.062          	2.024
MS.510         	9.042          	2.165
MS.511         	9.025          	2.183
MS.512         	9.007          	2.22
MS.513         	8.99           	2.149
MS.514         	8.972          	2.046
MS.515         	8.952          	1.972
MS.516         	8.935          	2.058
MS.517         	8.917          	2.004
MS.518         	8.9            	2.054
MS.519         	8.882          	1.873
MS.520         	8.865          	1.942
MS.521         	8.847          	1.982
MS.522         	8.83           	1.905
MS.523         	8.812          	1.944
MS.524         	8.795          	1.97
MS.525         	8.778          	1.847
MS.526         	8.757          	1.861
MS.527         	8.74           	1.905
MS.528         	8.725          	1.823
MS.529         	8.707          	1.944
MS.530         	8.69           	1.821
MS.531         	8.672          	1.781
MS.532         	8.655          	1.855
MS.533         	8.637          	1.805
MS.534         	8.62           	1.901
MS.535         	8.602          	1.815
MS.536         	8.585          	1.901
MS.537         	8.568          	1.833
MS.538         	8.55           	1.805
MS.539         	8.535          	1.688
MS.540         	8.517          	1.774
MS.541         	8.5            	1.801
MS.542         	8.483          	1.801
MS.543         	8.465          	1.742
MS.544         	8.45           	1.833
MS.545         	8.432          	1.664
MS.546         	8.415          	1.422
MS.547         	8.398          	1.708
MS.548         	8.382          	1.446
MS.549         	8.365          	1.577
MS.550         	8.347          	1.684
MS.551         	8.332          	1.666
MS.552         	8.315          	1.67
MS.553         	8.297          	1.583
MS.554         	8.283          	1.382
MS.555         	8.265          	1.329
MS.556         	8.247          	1.412
MS.557         	8.233          	1.335
MS.558         	8.215          	1.412
MS.559         	8.2            	1.607
MS.560         	8.182          	1.303
MS.561         	8.167          	1.575
MS.562         	8.15           	1.247
MS.563         	8.135          	1.472
MS.564         	8.117          	1.265
MS.565         	8.102          	1.287
MS.566         	8.085          	1.241
MS.567         	8.07           	1.43
MS.568         	8.052          	1.215
MS.569         	8.037          	1.225
MS.570         	8.02           	1.202
MS.571         	8.005          	1.42
MS.572         	7.99           	1.219
MS.573         	7.972          	1.17
MS.574         	7.957          	1.136
MS.575         	7.94           	1.152
MS.576         	7.925          	1.315
MS.577         	7.91           	1.182
MS.578         	7.892          	1.009
MS.579         	7.878          	1.1
MS.580         	7.862          	1.148
MS.581         	7.847          	1.096
MS.582         	7.83           	1.08
MS.583         	7.815          	1.041
MS.584         	7.8            	1.078
MS.585         	7.785          	1.047
MS.586         	7.767          	1.041
MS.587         	7.753          	1.001
MS.588         	7.737          	1.037
MS.589         	7.722          	1.023
MS.590         	7.707          	1.053
MS.591         	7.69           	1.037
MS.592         	7.675          	0.969
MS.593         	7.66           	1.017
MS.594         	7.645          	0.935
MS.595         	7.63           	0.997
MS.596         	7.615          	0.957
MS.597         	7.6            	0.981
MS.598         	7.585          	0.937
MS.599         	7.57           	0.951
MS.600         	7.555          	1.007
MS.601         	7.537          	0.88
MS.602         	7.523          	0.947
MS.603         	7.507          	0.985
MS.604         	7.492          	0.88
MS.605         	7.477          	0.882
MS.606         	7.462          	0.945
MS.607         	7.45           	0.945
MS.608         	7.435          	0.87
MS.609         	7.42           	0.904
MS.610         	7.405          	0.931
MS.611         	7.39           	0.886
MS.612         	7.375          	0.908
MS.613         	7.36           	0.888
MS.614         	7.345          	0.814
MS.615         	7.33           	0.834
MS.616         	7.315          	0.868
MS.617         	7.302          	0.906
MS.618         	7.287          	0.862
MS.619         	7.273          	0.84
MS.620         	7.257          	0.777
MS.621         	7.242          	0.87
MS.622         	7.227          	0.779
MS.623         	7.215          	0.727
MS.624         	7.2            	0.747
MS.625         	7.185          	0.731
MS.626         	7.17           	0.747
MS.627         	7.157          	0.703
MS.628         	7.142          	0.802
MS.629         	7.128          	0.81
MS.630         	7.115          	0.731
MS.631         	7.1            	0.703
MS.632         	7.085          	0.723
MS.633         	7.072          	0.649
MS.634         	7.057          	0.667
MS.635         	7.043          	0.677
MS.636         	7.03           	0.695
MS.637         	7.015          	0.628
MS.638         	7              	0.636
MS.639         	6.987          	0.679
MS.640         	6.972          	0.661
MS.641         	6.96           	0.641
MS.642         	6.945          	0.683
MS.643         	6.932          	0.663
MS.644         	6.918          	0.612
MS.645         	6.902          	0.594
MS.646         	6.89           	0.524
MS.647         	6.875          	0.526
MS.648         	6.862          	0.554
MS.649         	6.847          	0.51
MS.650         	6.835          	0.582
MS.651         	6.822          	0.518
MS.652         	6.807          	0.576
MS.653         	6.795          	0.481
MS.654         	6.78           	0.447
MS.655         	6.767          	0.532
MS.656         	6.753          	0.5
MS.657         	6.74           	0.423
MS.658         	6.727          	0.56
MS.659         	6.712          	0.409
MS.660         	6.7            	0.437
MS.661         	6.685          	0.463
MS.662         	6.672          	0.413
MS.663         	6.66           	0.427
MS.664         	6.645          	0.423
MS.665         	6.632          	0.375
MS.666         	6.62           	0.413
MS.667         	6.608          	0.437
MS.668         	6.592          	0.417
MS.669         	6.58           	0.361
MS.670         	6.567          	0.413
MS.671         	6.555          	0.457
MS.672         	6.54           	0.389
MS.673         	6.527          	0.32
MS.674         	6.515          	0.361
MS.675         	6.503          	0.266
MS.676         	6.487          	0.278
MS.677         	6.475          	0.332
MS.678         	6.462          	0.298
MS.679         	6.45           	0.354
MS.680         	6.438          	0.318
MS.681         	6.425          	0.274
MS.682         	6.41           	0.328
MS.683         	6.398          	0.352
MS.684         	6.385          	0.264
MS.685         	6.372          	0.244
MS.686         	6.36           	0.385
MS.687         	6.347          	0.28
MS.688         	6.335          	0.403
MS.689         	6.322          	0.369
MS.690         	6.31           	0.328
MS.691         	6.297          	0.433
MS.692         	6.285          	0.34
MS.693         	6.273          	0.387
MS.694         	6.26           	0.228
MS.695         	6.247          	0.354
MS.696         	6.235          	0.34
MS.697         	6.222          	0.35
MS.698         	6.21           	0.397
MS.699         	6.197          	0.381
MS.700         	6.185          	0.367
MS.701         	6.172          	0.389
MS.702         	6.16           	0.348
MS.703         	6.148          	0.298
MS.704         	6.135          	0.365
MS.705         	6.122          	0.344
MS.706         	6.11           	0.342
MS.707         	6.097          	0.272
MS.708         	6.088          	0.278
MS.709         	6.075          	0.306
MS.710         	6.062          	0.24
MS.711         	6.05           	0.278
MS.712         	6.037          	0.308
MS.713         	6.025          	0.266
MS.714         	6.015          	0.101
MS.715         	6.003          	0.218
MS.716         	5.99           	0.248
MS.717         	5.977          	0.23
MS.718         	5.965          	0.203
MS.719         	5.955          	0.203
MS.720         	5.942          	0.252
MS.721         	5.93           	0.224
MS.722         	5.918          	0.288
MS.723         	5.907          	0.224
MS.724         	5.895          	0.199
MS.725         	5.882          	0.199
MS.726         	5.87           	0.209
MS.727         	5.86           	0.191
MS.728         	5.847          	0.201
MS.729         	5.835          	0.205
MS.730         	5.825          	0.197
MS.731         	5.812          	0.179
MS.732         	5.8            	0.189
MS.733         	5.79           	0.201
MS.734         	5.777          	0.179
MS.735         	5.767          	0.187
MS.736         	5.755          	0.183
MS.737         	5.742          	0.193
MS.738         	5.733          	0.177
MS.739         	5.72           	0.185
MS.740         	5.71           	0.167
MS.741         	5.697          	0.175
MS.742         	5.685          	0.171
MS.743         	5.675          	0.177
MS.744         	5.662          	0.195
MS.745         	5.652          	0.179
MS.746         	5.64           	0.179
MS.747         	5.63           	0.171
MS.748         	5.617          	0.177
MS.749         	5.608          	0.167
MS.750         	5.595          	0.163
MS.751         	5.585          	0.167
MS.752         	5.572          	0.163
MS.753         	5.562          	0.171
MS.754         	5.552          	0.173
MS.755         	5.54           	0.175
MS.756         	5.53           	0.159
MS.757         	5.517          	0.163
MS.758         	5.507          	0.173
MS.759         	5.495          	0.169
MS.760         	5.485          	0.167
MS.761         	5.475          	0.151
MS.762         	5.463          	0.161
MS.763         	5.452          	0.167
MS.764         	5.443          	0.161
MS.765         	5.43           	0.147
MS.766         	5.42           	0.165
MS.767         	5.41           	0.171
MS.768         	5.398          	0.153
MS.769         	5.387          	0.173
MS.770         	5.378          	0.167
MS.771         	5.365          	0.161
MS.772         	5.355          	0.151
MS.773         	5.345          	0.131
MS.774         	5.332          	0.161
MS.775         	5.322          	0.153
MS.776         	5.312          	0.151
MS.777         	5.302          	0.155
MS.778         	5.29           	0.141
MS.779         	5.28           	0.137
MS.780         	5.27           	0.129
MS.781         	5.26           	0.147
MS.782         	5.25           	0.131
MS.783         	5.237          	0.133
MS.784         	5.227          	0.139
MS.785         	5.217          	0.153
MS.786         	5.207          	0.115
MS.787         	5.197          	0.131
MS.788         	5.188          	0.121
MS.789         	5.175          	0.145
MS.790         	5.165          	0.115
MS.791         	5.155          	0.127
MS.792         	5.145          	0.129
MS.793         	5.135          	0.119
MS.794         	5.125          	0.107
MS.795         	5.115          	0.113
MS.796         	5.105          	0.097
MS.797         	5.095          	0.123
MS.798         	5.085          	0.109
MS.799         	5.072          	0.125
MS.800         	5.062          	0.097
MS.801         	5.052          	0.113
MS.802         	5.043          	0.105
MS.803         	5.032          	0.103
MS.804         	5.023          	0.119
MS.805         	5.012          	0.101
MS.806         	5.003          	0.107
MS.807         	4.992          	0.097
MS.808         	4.983          	0.111
MS.809         	4.972          	0.107
MS.810         	4.963          	0.121
MS.811         	4.952          	0.107
MS.812         	4.943          	0.089
MS.813         	4.932          	0.113
MS.814         	4.922          	0.109
MS.815         	4.915          	0.101
MS.816         	4.905          	0.111
MS.817         	4.895          	0.068
MS.818         	4.885          	0.101
MS.819         	4.875          	0.07
MS.820         	4.865          	0.101
MS.821         	4.855          	0.107
MS.822         	4.845          	0.07
MS.823         	4.835          	0.075
MS.824         	4.825          	0.068
MS.825         	4.818          	0.105
MS.826         	4.807          	0.054
MS.827         	4.797          	0.07
MS.828         	4.787          	0.062
MS.829         	4.777          	0.073
MS.830         	4.767          	0.066
MS.831         	4.76           	0.073
MS.832         	4.75           	0.07
MS.833         	4.74           	0.097
MS.834         	4.73           	0.07
MS.835         	4.72           	0.068
MS.836         	4.713          	0.073
MS.837         	4.702          	0.06
MS.838         	4.693          	0.073
MS.839         	4.682          	0.064
MS.840         	4.675          	0.105
MS.841         	4.665          	0.073
MS.842         	4.655          	0.07
MS.843         	4.645          	0.062
MS.844         	4.637          	0.06
MS.845         	4.628          	0.062
MS.846         	4.617          	0.06
MS.847         	4.61           	0.058
MS.848         	4.6            	0.06
MS.849         	4.59           	0.054
MS.850         	4.582          	0.052
MS.851         	4.572          	0.056
MS.852         	4.562          	0.073
MS.853         	4.555          	0.05
MS.854         	4.545          	0.075
MS.855         	4.535          	0.064
MS.856         	4.527          	0.058
MS.857         	4.517          	0.064
MS.858         	4.51           	0.052
MS.859         	4.5            	0.04
MS.860         	4.49           	0.064
MS.861         	4.483          	0.052
MS.862         	4.472          	0.042
MS.863         	4.465          	0.064
MS.864         	4.455          	0.064
MS.865         	4.445          	0.052
MS.866         	4.438          	0.052
MS.867         	4.427          	0.048
MS.868         	4.42           	0.046
MS.869         	4.41           	0.054
MS.870         	4.402          	0.054
MS.871         	4.392          	0.056
MS.872         	4.385          	0.054
MS.873         	4.375          	0.056
MS.874         	4.367          	0.056
MS.875         	4.358          	0.048
MS.876         	4.35           	0.05
MS.877         	4.34           	0.044
MS.878         	4.332          	0.056
MS.879         	4.322          	0.05
MS.880         	4.315          	0.054
MS.881         	4.305          	0.054
MS.882         	4.298          	0.042
MS.883         	4.29           	0.038
MS.884         	4.28           	0.042
MS.885         	4.273          	0.046
MS.886         	4.262          	0.04
MS.887         	4.255          	0.046
MS.888         	4.247          	0.038
MS.889         	4.237          	0.036
MS.890         	4.23           	0.046
MS.891         	4.22           	0.044
MS.892         	4.213          	0.034
MS.893         	4.205          	0.032
MS.894         	4.195          	0.046
MS.895         	4.188          	0.036
MS.896         	4.18           	0.034
MS.897         	4.17           	0.034
MS.898         	4.162          	0.038
MS.899         	4.155          	0.05
MS.900         	4.145          	0.054
MS.901         	4.137          	0.054
MS.902         	4.13           	0.06
MS.903         	4.12           	0.073
MS.904         	4.112          	0.062
MS.905         	4.105          	0.056
MS.906         	4.095          	0.058
MS.907         	4.088          	0.081
MS.908         	4.08           	0.052
MS.909         	4.072          	0.03
MS.910         	4.062          	0.048
MS.911         	4.055          	0.042
MS.912         	4.048          	0.054
MS.913         	4.04           	0.062
MS.914         	4.03           	0.05
MS.915         	4.023          	0.056
MS.916         	4.015          	0.066
MS.917         	4.007          	0.06
MS.918         	4              	0.048
DERIVED EXCITABILITY VARIABLES
Program = QTracP 3/4/2020
Threshold method = 6 (optimised for CAP, using data for present condition only)
SR method = 1 (using actual data values)
6.                 	0.000               	Peak response\(mV)
9.                 	37.8                	Temperature ( C)
17.                	34                  	Age (years)
18.                	1                   	Sex (M=1, F=2)

EXTRA VARIABLES

MScPeak(mV) = 7.64
MScS5(mA) = 6.37
MScS50(mA) = 10.61
MScS95(mA) = 18.7
MScNSteps = 0
MScSteps(%) = 0.0
MScStepMax(%) = 0.0
MScD50 = 106
MScSlope = 2.65
MSFPeakAmp(mV) = 7.63
MSFNUnits = 147
MSFMeanUnitAmp(uV) = 51.9
MSFHuntTime(m) = 3.96
MSFError(%) = 1.94
MSFNLarge = 38.89
MSFMedianAmp(%) = 0.542
MSFMedianAmp(mV) = 0.0414
MSFHalfAmpAmp(%) = 0.743
MSFHalfAmpAmp(mV) = 0.0567
MSFLargestAmp(%) = 2.86
MSFLargestAmp(mV) = 0.218
MSFMeanRS(%) = 2
MSFOpts = 10106121
MScDuration(min) = 8.8
MSFTraces = 867
MSFSizeLimit(uV) = 19.1
MSFLimitType = 1
MSFSmallestAmp(uV) = 19.4

EXTRA WAVEFORMS


!MScan Model
!147
	1	4.64	0.53	2
	2	5.14	0.56	2
	3	5.3	0.32	2
	4	5.6	0.36	2
	5	5.99	0.98	2
	6	6.08	0.56	2
	7	6.13	0.66	2
	8	6.56	0.47	2
	9	6.69	0.92	2
	10	6.76	0.55	2
	11	6.8	0.28	2
	12	6.84	0.36	2
	13	6.87	0.4	2
	14	6.91	0.44	2
	15	6.97	0.4	2
	16	7.03	0.62	2
	17	7.12	0.47	2
	18	7.19	0.74	2
	19	7.26	0.41	2
	20	7.35	0.89	2
	21	7.53	0.9	2
	22	7.6	0.32	2
	23	7.65	0.44	2
	24	7.8	0.72	2
	25	7.86	0.66	2
	26	7.98	1.63	2
	27	8.2	2.22	2
	28	8.32	2.35	2
	29	8.45	1.69	2
	30	8.45	0.56	2
	31	8.62	1.29	2
	32	8.75	0.76	2
	33	8.8	0.44	2
	34	8.84	0.41	2
	35	8.88	0.44	2
	36	8.92	0.54	2
	37	8.96	0.61	2
	38	8.99	0.52	2
	39	9.02	0.59	2
	40	9.07	1.23	2
	41	9.14	0.75	2
	42	9.17	0.57	2
	43	9.2	0.58	2
	44	9.24	0.86	2
	45	9.42	2.44	2
	46	9.59	1.51	2
	47	9.65	0.72	2
	48	9.7	0.81	2
	49	9.77	1.56	2
	50	9.85	2.14	2
	51	10.08	2.86	2
	52	10.3	2.45	2
	53	10.36	0.34	2
	54	10.39	0.44	2
	55	10.44	0.66	2
	56	10.49	0.56	2
	57	10.56	0.89	2
	58	10.63	0.7	2
	59	10.69	0.59	2
	60	10.81	1.04	2
	61	10.88	0.49	2
	62	10.94	0.73	2
	63	10.98	0.33	2
	64	11.01	0.37	2
	65	11.05	0.56	2
	66	11.1	0.66	2
	67	11.15	0.62	2
	68	11.18	0.37	2
	69	11.21	0.26	2
	70	11.25	0.34	2
	71	11.27	0.34	2
	72	11.31	0.44	2
	73	11.33	0.28	2
	74	11.35	0.29	2
	75	11.36	0.28	2
	76	11.38	0.28	2
	77	11.41	0.4	2
	78	11.44	0.28	2
	79	11.47	0.33	2
	80	11.49	0.37	2
	81	11.55	0.7	2
	82	11.6	0.72	2
	83	11.63	0.29	2
	84	11.69	0.54	2
	85	11.72	0.38	2
	86	11.76	0.57	2
	87	11.81	0.46	2
	88	11.87	0.63	2
	89	11.94	0.9	2
	90	12	0.6	2
	91	12.06	0.32	2
	92	12.14	1.08	2
	93	12.24	1.01	2
	94	12.31	0.96	2
	95	12.41	1.59	2
	96	12.51	1.26	2
	97	12.6	1.34	2
	98	12.69	1.02	2
	99	12.82	1.52	2
	100	13.11	1.1	2
	101	13.22	0.51	2
	102	13.31	0.59	2
	103	13.69	1.28	2
	104	13.84	0.62	2
	105	14	0.82	2
	106	14.34	0.95	2
	107	14.45	0.3	2
	108	14.54	0.7	2
	109	14.64	0.62	2
	110	14.74	0.38	2
	111	14.85	0.72	2
	112	14.94	0.57	2
	113	15.14	0.76	2
	114	15.27	0.46	2
	115	15.36	0.34	2
	116	15.42	0.25	2
	117	15.48	0.26	2
	118	15.54	0.27	2
	119	15.63	0.38	2
	120	15.74	0.43	2
	121	15.89	0.5	2
	122	16.02	0.46	2
	123	16.1	0.28	2
	124	16.19	0.27	2
	125	16.26	0.32	2
	126	16.4	0.46	2
	127	16.59	0.54	2
	128	16.75	0.42	2
	129	16.91	0.46	2
	130	17.13	0.46	2
	131	17.9	0.61	2
	132	18.1	0.27	2
	133	18.23	0.28	2
	134	18.34	0.37	2
	135	18.47	0.51	2
	136	18.79	0.86	2
	137	18.97	0.44	2
	138	19.04	0.33	2
	139	19.2	0.51	2
	140	19.35	0.36	2
	141	19.52	0.31	2
	142	20.26	0.74	2
	143	20.52	0.34	2
	144	20.9	0.33	2
	145	21.76	0.47	2
	146	23.02	0.66	2
	147	23.56	0.51	2

