File:              	C:\Qtrac\Data\Daniel M Sørensen\MScan multicentre study\Data from centres\Toronto\Processed data\MSCC01120E.QZD
Name:              	CA.TOR.NC.5.2
Protocol:          	MSCAN-R2
Date:              	20/11/20
Start time:        	14:13:34
Age:               	53
Sex:               	M
Temperature:       	31.6
S/R sites:         	ADM
NC/disease:        	NC
Operator:          	LP
Comments:
M-SCAN DATA (8.3-2.8m)
Scanpts: 16, 27, 573, 595
Stim. (mA)     	Amp. (mV)
MS.1           	32             	8.447
MS.2           	32             	8.415
MS.3           	32             	8.385
MS.4           	32             	8.323
MS.5           	32             	8.441
MS.6           	32             	8.393
MS.7           	32             	8.411
MS.8           	32             	8.389
MS.9           	32             	8.536
MS.10          	32             	8.468
MS.11          	32             	8.506
MS.12          	32             	8.363
MS.13          	32             	8.403
MS.14          	32             	8.353
MS.15          	32             	8.411
MS.16          	32             	8.415
MS.17          	32             	8.484
MS.18          	32             	8.331
MS.19          	32             	8.536
MS.20          	32             	8.536
MS.21          	32             	8.357
MS.22          	32             	8.385
MS.23          	32             	8.363
MS.24          	31.872         	8.361
MS.25          	31.807         	8.498
MS.26          	31.745         	8.488
MS.27          	31.682         	8.466
MS.28          	31.617         	8.498
MS.29          	31.555         	8.435
MS.30          	31.492         	8.349
MS.31          	31.43          	8.391
MS.32          	31.365         	8.361
MS.33          	31.302         	8.461
MS.34          	31.24          	8.459
MS.35          	31.177         	8.306
MS.36          	31.117         	8.262
MS.37          	31.055         	8.379
MS.38          	30.992         	8.359
MS.39          	30.93          	8.361
MS.40          	30.867         	8.24
MS.41          	30.807         	8.236
MS.42          	30.745         	8.18
MS.43          	30.682         	8.077
MS.44          	30.622         	8.304
MS.45          	30.56          	8.246
MS.46          	30.5           	8.306
MS.47          	30.44          	8.264
MS.48          	30.377         	8.123
MS.49          	30.317         	8.177
MS.50          	30.257         	8.043
MS.51          	30.198         	8.288
MS.52          	30.137         	8.329
MS.53          	30.075         	8.202
MS.54          	30.015         	8.206
MS.55          	29.955         	8.085
MS.56          	29.895         	8.216
MS.57          	29.837         	8.085
MS.58          	29.778         	7.916
MS.59          	29.717         	8.147
MS.60          	29.657         	8.129
MS.61          	29.597         	8.169
MS.62          	29.54          	7.96
MS.63          	29.48          	7.954
MS.64          	29.422         	8.105
MS.65          	29.362         	8.039
MS.66          	29.305         	8.002
MS.67          	29.245         	7.92
MS.68          	29.188         	7.865
MS.69          	29.13          	7.896
MS.70          	29.07          	7.9
MS.71          	29.012         	7.817
MS.72          	28.955         	7.887
MS.73          	28.897         	7.912
MS.74          	28.84          	7.867
MS.75          	28.782         	7.605
MS.76          	28.725         	7.881
MS.77          	28.667         	7.849
MS.78          	28.61          	7.773
MS.79          	28.552         	7.622
MS.80          	28.495         	7.591
MS.81          	28.438         	7.632
MS.82          	28.382         	7.551
MS.83          	28.325         	7.366
MS.84          	28.267         	7.545
MS.85          	28.212         	7.503
MS.86          	28.155         	7.418
MS.87          	28.1           	7.164
MS.88          	28.042         	7.346
MS.89          	27.987         	7.362
MS.90          	27.93          	7.392
MS.91          	27.875         	7.15
MS.92          	27.82          	7.164
MS.93          	27.765         	6.977
MS.94          	27.707         	7.14
MS.95          	27.653         	6.824
MS.96          	27.597         	7.015
MS.97          	27.542         	6.699
MS.98          	27.487         	6.675
MS.99          	27.432         	6.349
MS.100         	27.377         	6.425
MS.101         	27.323         	6.657
MS.102         	27.267         	6.55
MS.103         	27.215         	6.075
MS.104         	27.16          	6.262
MS.105         	27.105         	6.093
MS.106         	27.05          	6.48
MS.107         	26.997         	6.206
MS.108         	26.942         	5.744
MS.109         	26.89          	6.042
MS.110         	26.835         	6.061
MS.111         	26.782         	5.807
MS.112         	26.727         	6.075
MS.113         	26.675         	6.218
MS.114         	26.622         	6.079
MS.115         	26.567         	6.117
MS.116         	26.515         	6.208
MS.117         	26.462         	6.355
MS.118         	26.41          	5.744
MS.119         	26.358         	6.087
MS.120         	26.305         	5.797
MS.121         	26.252         	5.315
MS.122         	26.2           	5.225
MS.123         	26.147         	5.225
MS.124         	26.095         	5.458
MS.125         	26.042         	4.919
MS.126         	25.99          	5.114
MS.127         	25.938         	5.017
MS.128         	25.887         	4.757
MS.129         	25.835         	4.399
MS.130         	25.782         	4.465
MS.131         	25.733         	4.53
MS.132         	25.68          	4.586
MS.133         	25.63          	4.463
MS.134         	25.577         	4.32
MS.135         	25.528         	4.385
MS.136         	25.475         	4.383
MS.137         	25.425         	4.345
MS.138         	25.375         	4.367
MS.139         	25.323         	4.427
MS.140         	25.272         	4.343
MS.141         	25.222         	4.163
MS.142         	25.172         	4.294
MS.143         	25.122         	4.278
MS.144         	25.073         	4.081
MS.145         	25.022         	4.179
MS.146         	24.972         	4.193
MS.147         	24.922         	4.508
MS.148         	24.872         	4.393
MS.149         	24.823         	4.584
MS.150         	24.772         	4.272
MS.151         	24.722         	4.212
MS.152         	24.672         	4.179
MS.153         	24.625         	4.294
MS.154         	24.575         	4.334
MS.155         	24.525         	4.328
MS.156         	24.477         	4.01
MS.157         	24.427         	4.073
MS.158         	24.38          	3.948
MS.159         	24.33          	4.139
MS.160         	24.282         	3.656
MS.161         	24.233         	3.404
MS.162         	24.185         	3.652
MS.163         	24.137         	3.495
MS.164         	24.087         	3.75
MS.165         	24.04          	3.694
MS.166         	23.993         	3.881
MS.167         	23.945         	3.325
MS.168         	23.897         	3.571
MS.169         	23.85          	3.698
MS.170         	23.8           	3.38
MS.171         	23.752         	3.319
MS.172         	23.705         	3.178
MS.173         	23.657         	3.36
MS.174         	23.612         	3.275
MS.175         	23.565         	3.19
MS.176         	23.517         	3.156
MS.177         	23.47          	3.134
MS.178         	23.422         	2.818
MS.179         	23.377         	3.1
MS.180         	23.33          	3.243
MS.181         	23.282         	3.186
MS.182         	23.237         	3.126
MS.183         	23.19          	2.864
MS.184         	23.145         	2.886
MS.185         	23.097         	2.598
MS.186         	23.052         	2.687
MS.187         	23.005         	2.624
MS.188         	22.96          	2.707
MS.189         	22.913         	2.659
MS.190         	22.868         	2.743
MS.191         	22.823         	2.751
MS.192         	22.778         	2.471
MS.193         	22.73          	2.588
MS.194         	22.685         	2.514
MS.195         	22.64          	2.344
MS.196         	22.595         	2.556
MS.197         	22.55          	2.391
MS.198         	22.505         	2.439
MS.199         	22.46          	2.212
MS.200         	22.415         	2.332
MS.201         	22.37          	2.256
MS.202         	22.325         	2.185
MS.203         	22.28          	2.131
MS.204         	22.237         	2.355
MS.205         	22.192         	1.978
MS.206         	22.147         	2.191
MS.207         	22.102         	2.018
MS.208         	22.06          	1.907
MS.209         	22.015         	1.774
MS.210         	21.97          	1.805
MS.211         	21.927         	1.919
MS.212         	21.882         	1.855
MS.213         	21.84          	1.966
MS.214         	21.795         	1.746
MS.215         	21.752         	1.762
MS.216         	21.71          	1.783
MS.217         	21.665         	1.666
MS.218         	21.622         	1.758
MS.219         	21.58          	1.591
MS.220         	21.535         	1.694
MS.221         	21.493         	1.575
MS.222         	21.45          	1.499
MS.223         	21.407         	1.638
MS.224         	21.365         	1.287
MS.225         	21.323         	1.579
MS.226         	21.28          	1.64
MS.227         	21.237         	1.607
MS.228         	21.195         	1.535
MS.229         	21.153         	1.533
MS.230         	21.11          	1.241
MS.231         	21.067         	1.555
MS.232         	21.025         	1.446
MS.233         	20.983         	1.416
MS.234         	20.942         	1.41
MS.235         	20.9           	1.374
MS.236         	20.858         	1.331
MS.237         	20.815         	1.162
MS.238         	20.775         	1.287
MS.239         	20.733         	1.239
MS.240         	20.692         	1.204
MS.241         	20.65          	1.303
MS.242         	20.61          	1.386
MS.243         	20.567         	1.104
MS.244         	20.528         	1.251
MS.245         	20.485         	1.229
MS.246         	20.445         	1.124
MS.247         	20.405         	1.202
MS.248         	20.362         	1.106
MS.249         	20.323         	1.223
MS.250         	20.282         	1.233
MS.251         	20.243         	1.12
MS.252         	20.2           	1.043
MS.253         	20.16          	1.019
MS.254         	20.12          	0.979
MS.255         	20.08          	1.11
MS.256         	20.04          	1.025
MS.257         	20             	1.027
MS.258         	19.96          	1.184
MS.259         	19.92          	0.987
MS.260         	19.88          	0.876
MS.261         	19.84          	0.767
MS.262         	19.8           	0.693
MS.263         	19.762         	0.743
MS.264         	19.722         	0.735
MS.265         	19.682         	0.856
MS.266         	19.642         	0.643
MS.267         	19.605         	0.735
MS.268         	19.565         	0.604
MS.269         	19.525         	0.663
MS.270         	19.487         	0.542
MS.271         	19.448         	0.504
MS.272         	19.41          	0.544
MS.273         	19.37          	0.493
MS.274         	19.333         	0.61
MS.275         	19.292         	0.554
MS.276         	19.255         	0.467
MS.277         	19.215         	0.554
MS.278         	19.177         	0.59
MS.279         	19.14          	0.502
MS.280         	19.1           	0.485
MS.281         	19.062         	0.401
MS.282         	19.025         	0.671
MS.283         	18.987         	0.502
MS.284         	18.948         	0.566
MS.285         	18.91          	0.435
MS.286         	18.872         	0.435
MS.287         	18.835         	0.504
MS.288         	18.797         	0.361
MS.289         	18.76          	0.403
MS.290         	18.722         	0.439
MS.291         	18.685         	0.471
MS.292         	18.647         	0.425
MS.293         	18.61          	0.461
MS.294         	18.573         	0.415
MS.295         	18.538         	0.441
MS.296         	18.5           	0.363
MS.297         	18.462         	0.383
MS.298         	18.425         	0.393
MS.299         	18.387         	0.399
MS.300         	18.352         	0.407
MS.301         	18.315         	0.318
MS.302         	18.278         	0.298
MS.303         	18.243         	0.302
MS.304         	18.205         	0.312
MS.305         	18.17          	0.316
MS.306         	18.132         	0.34
MS.307         	18.097         	0.308
MS.308         	18.06          	0.29
MS.309         	18.025         	0.286
MS.310         	17.987         	0.296
MS.311         	17.952         	0.302
MS.312         	17.917         	0.29
MS.313         	17.88          	0.272
MS.314         	17.845         	0.288
MS.315         	17.81          	0.282
MS.316         	17.775         	0.284
MS.317         	17.737         	0.282
MS.318         	17.702         	0.286
MS.319         	17.667         	0.232
MS.320         	17.632         	0.244
MS.321         	17.597         	0.272
MS.322         	17.562         	0.278
MS.323         	17.528         	0.286
MS.324         	17.493         	0.232
MS.325         	17.458         	0.226
MS.326         	17.422         	0.262
MS.327         	17.387         	0.268
MS.328         	17.352         	0.207
MS.329         	17.317         	0.22
MS.330         	17.282         	0.268
MS.331         	17.247         	0.203
MS.332         	17.215         	0.23
MS.333         	17.18          	0.195
MS.334         	17.145         	0.211
MS.335         	17.11          	0.201
MS.336         	17.077         	0.193
MS.337         	17.042         	0.205
MS.338         	17.01          	0.232
MS.339         	16.975         	0.189
MS.340         	16.94          	0.191
MS.341         	16.907         	0.203
MS.342         	16.872         	0.205
MS.343         	16.84          	0.203
MS.344         	16.805         	0.218
MS.345         	16.772         	0.195
MS.346         	16.74          	0.191
MS.347         	16.705         	0.163
MS.348         	16.672         	0.181
MS.349         	16.637         	0.181
MS.350         	16.605         	0.179
MS.351         	16.573         	0.183
MS.352         	16.54          	0.155
MS.353         	16.505         	0.189
MS.354         	16.472         	0.155
MS.355         	16.44          	0.179
MS.356         	16.407         	0.181
MS.357         	16.375         	0.157
MS.358         	16.342         	0.159
MS.359         	16.31          	0.155
MS.360         	16.278         	0.137
MS.361         	16.245         	0.159
MS.362         	16.212         	0.127
MS.363         	16.18          	0.133
MS.364         	16.147         	0.155
MS.365         	16.115         	0.127
MS.366         	16.083         	0.129
MS.367         	16.05          	0.117
MS.368         	16.017         	0.127
MS.369         	15.987         	0.103
MS.370         	15.955         	0.129
MS.371         	15.922         	0.137
MS.372         	15.89          	0.129
MS.373         	15.86          	0.123
MS.374         	15.827         	0.129
MS.375         	15.795         	0.119
MS.376         	15.765         	0.117
MS.377         	15.733         	0.117
MS.378         	15.7           	0.113
MS.379         	15.67          	0.103
MS.380         	15.637         	0.113
MS.381         	15.608         	0.099
MS.382         	15.575         	0.127
MS.383         	15.545         	0.107
MS.384         	15.515         	0.105
MS.385         	15.483         	0.097
MS.386         	15.452         	0.109
MS.387         	15.42          	0.087
MS.388         	15.39          	0.099
MS.389         	15.36          	0.103
MS.390         	15.33          	0.097
MS.391         	15.297         	0.107
MS.392         	15.267         	0.085
MS.393         	15.237         	0.093
MS.394         	15.207         	0.095
MS.395         	15.177         	0.087
MS.396         	15.145         	0.099
MS.397         	15.115         	0.087
MS.398         	15.085         	0.097
MS.399         	15.055         	0.097
MS.400         	15.025         	0.091
MS.401         	14.995         	0.079
MS.402         	14.965         	0.089
MS.403         	14.935         	0.097
MS.404         	14.905         	0.087
MS.405         	14.875         	0.095
MS.406         	14.845         	0.087
MS.407         	14.818         	0.089
MS.408         	14.787         	0.087
MS.409         	14.757         	0.089
MS.410         	14.727         	0.087
MS.411         	14.697         	0.087
MS.412         	14.67          	0.085
MS.413         	14.64          	0.095
MS.414         	14.61          	0.079
MS.415         	14.58          	0.085
MS.416         	14.552         	0.091
MS.417         	14.523         	0.089
MS.418         	14.495         	0.091
MS.419         	14.465         	0.089
MS.420         	14.435         	0.091
MS.421         	14.407         	0.091
MS.422         	14.377         	0.089
MS.423         	14.35          	0.089
MS.424         	14.32          	0.07
MS.425         	14.292         	0.089
MS.426         	14.265         	0.085
MS.427         	14.235         	0.087
MS.428         	14.207         	0.068
MS.429         	14.177         	0.087
MS.430         	14.15          	0.085
MS.431         	14.122         	0.068
MS.432         	14.095         	0.068
MS.433         	14.065         	0.083
MS.434         	14.037         	0.073
MS.435         	14.01          	0.091
MS.436         	13.983         	0.089
MS.437         	13.952         	0.048
MS.438         	13.925         	0.056
MS.439         	13.898         	0.05
MS.440         	13.87          	0.068
MS.441         	13.842         	0.085
MS.442         	13.815         	0.068
MS.443         	13.787         	0.052
MS.444         	13.76          	0.064
MS.445         	13.733         	0.048
MS.446         	13.705         	0.05
MS.447         	13.677         	0.052
MS.448         	13.65          	0.05
MS.449         	13.622         	0.04
MS.450         	13.595         	0.052
MS.451         	13.568         	0.056
MS.452         	13.54          	0.048
MS.453         	13.515         	0.05
MS.454         	13.487         	0.052
MS.455         	13.46          	0.034
MS.456         	13.432         	0.038
MS.457         	13.407         	0.038
MS.458         	13.38          	0.038
MS.459         	13.352         	0.066
MS.460         	13.325         	0.04
MS.461         	13.3           	0.052
MS.462         	13.273         	0.04
MS.463         	13.247         	0.04
MS.464         	13.22          	0.042
MS.465         	13.193         	0.054
MS.466         	13.167         	0.042
MS.467         	13.14          	0.044
MS.468         	13.115         	0.04
MS.469         	13.087         	0.046
MS.470         	13.062         	0.042
MS.471         	13.035         	0.046
MS.472         	13.01          	0.046
MS.473         	12.985         	0.054
MS.474         	12.957         	0.046
MS.475         	12.932         	0.044
MS.476         	12.907         	0.042
MS.477         	12.88          	0.046
MS.478         	12.855         	0.046
MS.479         	12.83          	0.046
MS.480         	12.802         	0.048
MS.481         	12.778         	0.05
MS.482         	12.752         	0.042
MS.483         	12.727         	0.044
MS.484         	12.702         	0.046
MS.485         	12.677         	0.046
MS.486         	12.65          	0.042
MS.487         	12.625         	0.04
MS.488         	12.6           	0.042
MS.489         	12.575         	0.046
MS.490         	12.55          	0.048
MS.491         	12.525         	0.028
MS.492         	12.5           	0.048
MS.493         	12.475         	0.046
MS.494         	12.45          	0.022
MS.495         	12.425         	0.026
MS.496         	12.4           	0.046
MS.497         	12.375         	0.048
MS.498         	12.35          	0.02
MS.499         	12.327         	0.03
MS.500         	12.302         	0.044
MS.501         	12.278         	0.046
MS.502         	12.252         	0.02
MS.503         	12.227         	0.026
MS.504         	12.202         	0.044
MS.505         	12.18          	0.022
MS.506         	12.155         	0.022
MS.507         	12.13          	0.022
MS.508         	12.108         	0.024
MS.509         	12.082         	0.024
MS.510         	12.057         	0.024
MS.511         	12.035         	0.026
MS.512         	12.01          	0.026
MS.513         	11.985         	0.022
MS.514         	11.962         	0.022
MS.515         	11.938         	0.03
MS.516         	11.915         	0.028
MS.517         	11.89          	0.028
MS.518         	11.867         	0.024
MS.519         	11.842         	0.024
MS.520         	11.82          	0.022
MS.521         	11.795         	0.024
MS.522         	11.773         	0.03
MS.523         	11.747         	0.022
MS.524         	11.725         	0.022
MS.525         	11.702         	0.026
MS.526         	11.677         	0.02
MS.527         	11.655         	0.024
MS.528         	11.632         	0.024
MS.529         	11.608         	0.026
MS.530         	11.585         	0.024
MS.531         	11.562         	0.026
MS.532         	11.54          	0.022
MS.533         	11.515         	0.024
MS.534         	11.492         	0.026
MS.535         	11.47          	0.022
MS.536         	11.447         	0.028
MS.537         	11.425         	0.03
MS.538         	11.403         	0.03
MS.539         	11.377         	0.02
MS.540         	11.355         	0.022
MS.541         	11.332         	0.014
MS.542         	11.31          	0.02
MS.543         	11.287         	0.018
MS.544         	11.265         	0.02
MS.545         	11.242         	0.026
MS.546         	11.22          	0.028
MS.547         	11.197         	0.02
MS.548         	11.175         	0.024
MS.549         	11.153         	0.018
MS.550         	11.13          	0.022
MS.551         	11.108         	0.026
MS.552         	11.087         	0.03
MS.553         	11.065         	0.028
MS.554         	11.042         	0.022
MS.555         	11.02          	0.022
MS.556         	10.997         	0.01
MS.557         	10.975         	0.026
MS.558         	10.955         	0.022
MS.559         	10.932         	0.008
MS.560         	10.91          	0.022
MS.561         	10.89          	0.016
MS.562         	10.867         	0.014
MS.563         	10.845         	0.01
MS.564         	10.823         	0.024
MS.565         	10.802         	0.026
MS.566         	10.78          	0.002
MS.567         	10.76          	0.024
MS.568         	10.738         	0.002
MS.569         	10.715         	0.014
MS.570         	10.695         	0.000
MS.571         	10.672         	0.002
MS.572         	10.653         	0.02
MS.573         	10.63          	0.014
MS.574         	10.61          	0.002
MS.575         	10.587         	0.006
MS.576         	10.568         	0.018
MS.577         	10.545         	0.006
MS.578         	10.525         	0.004
MS.579         	10.502         	0.014
MS.580         	10.483         	0.004
MS.581         	10.462         	0.004
MS.582         	10.44          	0.006
MS.583         	10.42          	0.006
MS.584         	10.4           	0.000
MS.585         	10.377         	0.004
MS.586         	10.358         	0.004
MS.587         	10.337         	0.004
MS.588         	10.318         	0.002
MS.589         	10.295         	0.000
MS.590         	10.275         	0.004
MS.591         	10.255         	0.008
MS.592         	10.235         	0.006
MS.593         	10.212         	0.004
MS.594         	10.193         	0.008
MS.595         	10.172         	0.014
DERIVED EXCITABILITY VARIABLES
Program = QTracP 3/4/2020
Threshold method = 6 (optimised for CAP, using data for present condition only)
SR method = 1 (using actual data values)
6.                 	0.000               	Peak response\(mV)
9.                 	31.6                	Temperature ( C)
17.                	53                  	Age (years)
18.                	1                   	Sex (M=1, F=2)

EXTRA VARIABLES

MScPeak(mV) = 8.42
MScS5(mA) = 18.77
MScS50(mA) = 24.91
MScS95(mA) = 29.58
MScNSteps = 3
MScSteps(%) = 7.5
MScStepMax(%) = 2.8
MScD50 = 41
MScSlope = 5.31
MSFPeakAmp(mV) = 8.43
MSFNUnits = 92
MSFMeanUnitAmp(uV) = 91.6
MSFHuntTime(m) = 2.88
MSFError(%) = 3.31
MSFNLarge = 25.22
MSFMedianAmp(%) = 0.945
MSFMedianAmp(mV) = 0.0796
MSFHalfAmpAmp(%) = 1.13
MSFHalfAmpAmp(mV) = 0.0952
MSFLargestAmp(%) = 6.38
MSFLargestAmp(mV) = 0.537
MSFMeanRS(%) = 1.99
MSFOpts = 10106121
MScDuration(min) = 5.5
MSFTraces = 580
MSFSizeLimit(uV) = 21.1
MSFLimitType = 1
MSFSmallestAmp(uV) = 21.6

EXTRA WAVEFORMS


!MScan Model
!92
	1	12.22	0.29	2
	2	14.12	0.55	2
	3	15.86	0.55	2
	4	16.41	0.47	2
	5	16.79	0.37	2
	6	17.12	0.3	2
	7	17.55	0.46	2
	8	17.83	0.33	2
	9	18.01	0.26	2
	10	18.23	0.49	2
	11	18.4	0.29	2
	12	18.75	0.95	2
	13	19.29	1.4	2
	14	19.42	0.55	2
	15	19.53	0.77	2
	16	19.62	0.53	2
	17	19.7	0.48	2
	18	19.78	0.63	2
	19	19.86	0.59	2
	20	19.94	0.61	2
	21	20.05	0.88	2
	22	20.24	1.34	2
	23	20.46	1.08	2
	24	20.65	1.01	2
	25	20.89	1.08	2
	26	21.12	1.08	2
	27	21.3	1.16	2
	28	21.48	1.09	2
	29	21.65	1.02	2
	30	21.76	0.75	2
	31	21.83	0.66	2
	32	21.89	0.51	2
	33	21.96	0.56	2
	34	22.02	0.61	2
	35	22.08	0.57	2
	36	22.14	0.55	2
	37	22.2	0.57	2
	38	22.27	0.63	2
	39	22.34	0.59	2
	40	22.4	0.57	2
	41	22.47	0.58	2
	42	22.54	0.81	2
	43	22.63	0.98	2
	44	22.72	0.94	2
	45	22.82	0.91	2
	46	22.92	0.92	2
	47	23.02	0.98	2
	48	23.13	0.98	2
	49	23.24	1.1	2
	50	23.36	1.28	2
	51	23.51	1.46	2
	52	23.69	1.71	2
	53	23.88	2.05	2
	54	24.01	1.44	2
	55	24.16	1.79	2
	56	24.34	1.94	2
	57	24.35	3.48	2
	58	25.59	2.2	2
	59	25.7	0.97	2
	60	25.8	1.94	2
	61	25.91	1.97	2
	62	26.01	1.33	2
	63	26.11	1.65	2
	64	26.26	2.56	1.6
	65	26.35	6.38	2
	66	26.42	2.25	2
	67	26.48	2.47	2
	68	27.13	2.33	2
	69	27.23	1.13	2
	70	27.32	0.65	2
	71	27.41	0.96	2
	72	27.5	1.19	2
	73	27.57	1.03	2
	74	27.65	0.96	2
	75	27.72	0.87	2
	76	27.78	0.82	2
	77	27.84	0.81	2
	78	27.91	0.75	2
	79	27.97	0.7	2
	80	28.03	0.69	2
	81	28.13	1.26	2
	82	28.24	1.03	2
	83	28.36	0.98	2
	84	28.48	0.92	2
	85	28.6	0.75	2
	86	28.73	0.86	2
	87	28.87	0.77	2
	88	29.09	1.19	2
	89	29.33	1.02	2
	90	29.63	1.01	2
	91	30.45	1.98	2
	92	30.96	1.06	2

