File:              	C:\Qtrac\Data\Daniel M Sørensen\MScan multicentre study\Data from centres\Toronto\Processed data\MSCC01209B.QZD
Name:              	CA.TOR.NC.7.2
Protocol:          	MSCAN-R2
Date:              	9/12/20
Start time:        	10:45:31
Age:               	43
Sex:               	F
Temperature:       	31.6
S/R sites:         	ADM
NC/disease:        	NC
Operator:          	LP
Comments:          	MFF60ON
M-SCAN DATA (6.4-1.4m)
Scanpts: 33, 39, 397, 419
Stim. (mA)     	Amp. (mV)
MS.1           	28             	12.133
MS.2           	28             	12.111
MS.3           	28             	12.103
MS.4           	28             	12.101
MS.5           	28             	12.087
MS.6           	28             	12.109
MS.7           	28             	12.099
MS.8           	28             	12.085
MS.9           	28             	12.125
MS.10          	28             	12.101
MS.11          	28             	12.099
MS.12          	28             	12.119
MS.13          	28             	12.129
MS.14          	28             	12.117
MS.15          	28             	12.176
MS.16          	28             	12.176
MS.17          	28             	12.139
MS.18          	28             	12.151
MS.19          	28             	12.145
MS.20          	28             	12.149
MS.21          	28             	12.164
MS.22          	28             	12.192
MS.23          	28             	12.188
MS.24          	27.887         	12.188
MS.25          	27.832         	12.172
MS.26          	27.778         	12.192
MS.27          	27.722         	12.178
MS.28          	27.665         	12.184
MS.29          	27.61          	12.196
MS.30          	27.555         	12.196
MS.31          	27.5           	12.206
MS.32          	27.445         	12.188
MS.33          	27.39          	12.18
MS.34          	27.335         	12.208
MS.35          	27.282         	12.216
MS.36          	27.227         	12.226
MS.37          	27.172         	12.202
MS.38          	27.118         	12.2
MS.39          	27.065         	12.228
MS.40          	27.01          	12.22
MS.41          	26.955         	12.214
MS.42          	26.903         	12.23
MS.43          	26.847         	12.224
MS.44          	26.795         	12.24
MS.45          	26.74          	12.192
MS.46          	26.688         	12.212
MS.47          	26.635         	12.19
MS.48          	26.58          	12.119
MS.49          	26.528         	12.222
MS.50          	26.475         	12.222
MS.51          	26.422         	12.17
MS.52          	26.37          	12.099
MS.53          	26.317         	12.159
MS.54          	26.265         	12.226
MS.55          	26.212         	12.198
MS.56          	26.16          	12.236
MS.57          	26.108         	12.087
MS.58          	26.055         	12.031
MS.59          	26.002         	12.117
MS.60          	25.95          	12.139
MS.61          	25.9           	12.01
MS.62          	25.847         	12.053
MS.63          	25.795         	11.988
MS.64          	25.745         	12.051
MS.65          	25.692         	11.968
MS.66          	25.64          	12.025
MS.67          	25.59          	11.845
MS.68          	25.54          	11.807
MS.69          	25.487         	11.904
MS.70          	25.438         	11.867
MS.71          	25.385         	11.847
MS.72          	25.335         	11.839
MS.73          	25.285         	11.658
MS.74          	25.235         	11.845
MS.75          	25.185         	11.686
MS.76          	25.132         	11.728
MS.77          	25.082         	11.579
MS.78          	25.032         	11.591
MS.79          	24.983         	11.718
MS.80          	24.932         	11.517
MS.81          	24.882         	11.658
MS.82          	24.832         	11.461
MS.83          	24.785         	11.354
MS.84          	24.735         	11.73
MS.85          	24.685         	11.223
MS.86          	24.635         	11.346
MS.87          	24.587         	11.026
MS.88          	24.538         	10.985
MS.89          	24.487         	11.171
MS.90          	24.44          	11.614
MS.91          	24.39          	11.297
MS.92          	24.342         	10.891
MS.93          	24.292         	11.052
MS.94          	24.245         	10.683
MS.95          	24.198         	10.822
MS.96          	24.147         	11.011
MS.97          	24.1           	10.613
MS.98          	24.052         	10.29
MS.99          	24.002         	10.46
MS.100         	23.955         	10.464
MS.101         	23.907         	10.55
MS.102         	23.86          	10.194
MS.103         	23.812         	10.419
MS.104         	23.765         	9.962
MS.105         	23.717         	10.079
MS.106         	23.67          	10.002
MS.107         	23.622         	10.018
MS.108         	23.575         	9.948
MS.109         	23.528         	9.805
MS.110         	23.48          	9.7
MS.111         	23.435         	9.376
MS.112         	23.387         	9.636
MS.113         	23.34          	9.477
MS.114         	23.295         	9.189
MS.115         	23.247         	9.501
MS.116         	23.2           	9.052
MS.117         	23.155         	9.187
MS.118         	23.108         	8.832
MS.119         	23.062         	8.81
MS.120         	23.017         	9.124
MS.121         	22.97          	8.496
MS.122         	22.925         	8.882
MS.123         	22.877         	8.673
MS.124         	22.832         	8.496
MS.125         	22.788         	8.679
MS.126         	22.743         	7.952
MS.127         	22.698         	8.202
MS.128         	22.65          	8.28
MS.129         	22.605         	7.91
MS.130         	22.56          	7.714
MS.131         	22.515         	8.236
MS.132         	22.47          	7.352
MS.133         	22.425         	7.809
MS.134         	22.38          	7.466
MS.135         	22.335         	7.636
MS.136         	22.292         	7.672
MS.137         	22.247         	7.16
MS.138         	22.202         	7.211
MS.139         	22.157         	7.08
MS.140         	22.115         	7.072
MS.141         	22.07          	6.907
MS.142         	22.025         	6.961
MS.143         	21.983         	7.13
MS.144         	21.938         	6.838
MS.145         	21.892         	6.983
MS.146         	21.85          	6.6
MS.147         	21.807         	6.482
MS.148         	21.762         	6.633
MS.149         	21.72          	6.51
MS.150         	21.675         	6.067
MS.151         	21.632         	5.863
MS.152         	21.59          	5.754
MS.153         	21.545         	5.758
MS.154         	21.502         	6.085
MS.155         	21.46          	5.805
MS.156         	21.417         	5.277
MS.157         	21.375         	5.628
MS.158         	21.333         	5.553
MS.159         	21.29          	5.722
MS.160         	21.247         	5.406
MS.161         	21.205         	5.311
MS.162         	21.163         	5.301
MS.163         	21.12          	5.396
MS.164         	21.077         	5.19
MS.165         	21.035         	5.08
MS.166         	20.993         	4.826
MS.167         	20.952         	4.776
MS.168         	20.91          	4.544
MS.169         	20.868         	4.866
MS.170         	20.825         	4.647
MS.171         	20.785         	4.31
MS.172         	20.743         	4.488
MS.173         	20.702         	4.508
MS.174         	20.66          	4.222
MS.175         	20.62          	4.969
MS.176         	20.577         	4.733
MS.177         	20.538         	4.369
MS.178         	20.495         	4.258
MS.179         	20.455         	4.177
MS.180         	20.413         	4.377
MS.181         	20.372         	4.248
MS.182         	20.333         	4.079
MS.183         	20.292         	4.097
MS.184         	20.25          	4.022
MS.185         	20.21          	3.811
MS.186         	20.17          	3.648
MS.187         	20.13          	3.954
MS.188         	20.09          	3.37
MS.189         	20.05          	3.225
MS.190         	20.01          	3.17
MS.191         	19.97          	2.919
MS.192         	19.93          	2.906
MS.193         	19.89          	2.534
MS.194         	19.85          	2.9
MS.195         	19.81          	2.858
MS.196         	19.77          	2.304
MS.197         	19.73          	2.127
MS.198         	19.692         	2.628
MS.199         	19.653         	1.871
MS.200         	19.612         	1.819
MS.201         	19.575         	2.296
MS.202         	19.535         	2.065
MS.203         	19.495         	1.73
MS.204         	19.458         	2.034
MS.205         	19.417         	1.724
MS.206         	19.38          	1.438
MS.207         	19.34          	1.245
MS.208         	19.302         	1.577
MS.209         	19.262         	1.327
MS.210         	19.225         	1.448
MS.211         	19.188         	1.154
MS.212         	19.147         	1.74
MS.213         	19.11          	1.231
MS.214         	19.073         	1.231
MS.215         	19.032         	1.233
MS.216         	18.995         	1.352
MS.217         	18.958         	1.164
MS.218         	18.92          	0.967
MS.219         	18.882         	1.204
MS.220         	18.845         	1.07
MS.221         	18.807         	0.733
MS.222         	18.77          	0.675
MS.223         	18.733         	0.904
MS.224         	18.695         	1.011
MS.225         	18.657         	0.987
MS.226         	18.62          	0.777
MS.227         	18.583         	0.961
MS.228         	18.545         	0.703
MS.229         	18.507         	0.582
MS.230         	18.47          	0.544
MS.231         	18.435         	0.665
MS.232         	18.397         	0.606
MS.233         	18.36          	0.532
MS.234         	18.325         	0.63
MS.235         	18.288         	0.467
MS.236         	18.25          	0.526
MS.237         	18.215         	0.612
MS.238         	18.177         	0.524
MS.239         	18.142         	0.624
MS.240         	18.105         	0.576
MS.241         	18.07          	0.477
MS.242         	18.032         	0.495
MS.243         	17.997         	0.536
MS.244         	17.96          	0.522
MS.245         	17.925         	0.532
MS.246         	17.89          	0.443
MS.247         	17.852         	0.54
MS.248         	17.817         	0.475
MS.249         	17.782         	0.471
MS.250         	17.747         	0.526
MS.251         	17.712         	0.483
MS.252         	17.675         	0.465
MS.253         	17.64          	0.558
MS.254         	17.605         	0.457
MS.255         	17.57          	0.528
MS.256         	17.535         	0.373
MS.257         	17.5           	0.415
MS.258         	17.465         	0.453
MS.259         	17.43          	0.383
MS.260         	17.395         	0.352
MS.261         	17.36          	0.385
MS.262         	17.325         	0.419
MS.263         	17.292         	0.395
MS.264         	17.257         	0.361
MS.265         	17.222         	0.328
MS.266         	17.188         	0.383
MS.267         	17.153         	0.346
MS.268         	17.12          	0.389
MS.269         	17.085         	0.357
MS.270         	17.05          	0.288
MS.271         	17.017         	0.365
MS.272         	16.983         	0.377
MS.273         	16.95          	0.304
MS.274         	16.915         	0.312
MS.275         	16.88          	0.298
MS.276         	16.847         	0.292
MS.277         	16.815         	0.318
MS.278         	16.78          	0.296
MS.279         	16.747         	0.35
MS.280         	16.712         	0.312
MS.281         	16.68          	0.302
MS.282         	16.647         	0.288
MS.283         	16.612         	0.3
MS.284         	16.58          	0.3
MS.285         	16.547         	0.296
MS.286         	16.515         	0.308
MS.287         	16.48          	0.27
MS.288         	16.448         	0.292
MS.289         	16.415         	0.272
MS.290         	16.382         	0.272
MS.291         	16.35          	0.268
MS.292         	16.317         	0.282
MS.293         	16.285         	0.264
MS.294         	16.253         	0.264
MS.295         	16.22          	0.268
MS.296         	16.188         	0.276
MS.297         	16.155         	0.258
MS.298         	16.122         	0.272
MS.299         	16.09          	0.24
MS.300         	16.057         	0.246
MS.301         	16.025         	0.272
MS.302         	15.995         	0.169
MS.303         	15.962         	0.274
MS.304         	15.93          	0.179
MS.305         	15.898         	0.242
MS.306         	15.867         	0.173
MS.307         	15.835         	0.236
MS.308         	15.802         	0.268
MS.309         	15.773         	0.278
MS.310         	15.74          	0.163
MS.311         	15.707         	0.242
MS.312         	15.677         	0.179
MS.313         	15.645         	0.187
MS.314         	15.615         	0.157
MS.315         	15.582         	0.248
MS.316         	15.552         	0.179
MS.317         	15.52          	0.25
MS.318         	15.49          	0.159
MS.319         	15.46          	0.153
MS.320         	15.427         	0.151
MS.321         	15.398         	0.155
MS.322         	15.367         	0.153
MS.323         	15.335         	0.131
MS.324         	15.305         	0.145
MS.325         	15.275         	0.133
MS.326         	15.245         	0.159
MS.327         	15.215         	0.153
MS.328         	15.182         	0.157
MS.329         	15.152         	0.159
MS.330         	15.122         	0.155
MS.331         	15.092         	0.093
MS.332         	15.062         	0.135
MS.333         	15.032         	0.095
MS.334         	15.002         	0.091
MS.335         	14.972         	0.163
MS.336         	14.943         	0.131
MS.337         	14.912         	0.147
MS.338         	14.882         	0.137
MS.339         	14.852         	0.068
MS.340         	14.822         	0.093
MS.341         	14.792         	0.075
MS.342         	14.765         	0.089
MS.343         	14.735         	0.075
MS.344         	14.705         	0.038
MS.345         	14.675         	0.036
MS.346         	14.648         	0.038
MS.347         	14.617         	0.147
MS.348         	14.587         	0.036
MS.349         	14.56          	0.042
MS.350         	14.53          	0.133
MS.351         	14.5           	0.085
MS.352         	14.472         	0.073
MS.353         	14.443         	0.064
MS.354         	14.415         	0.042
MS.355         	14.385         	0.07
MS.356         	14.358         	0.073
MS.357         	14.327         	0.075
MS.358         	14.3           	0.04
MS.359         	14.27          	0.038
MS.360         	14.242         	0.038
MS.361         	14.212         	0.046
MS.362         	14.185         	0.068
MS.363         	14.157         	0.068
MS.364         	14.127         	0.038
MS.365         	14.1           	0.04
MS.366         	14.072         	0.038
MS.367         	14.045         	0.07
MS.368         	14.015         	0.04
MS.369         	13.987         	0.042
MS.370         	13.96          	0.036
MS.371         	13.932         	0.04
MS.372         	13.905         	0.042
MS.373         	13.877         	0.04
MS.374         	13.85          	0.04
MS.375         	13.82          	0.04
MS.376         	13.792         	0.04
MS.377         	13.765         	0.04
MS.378         	13.737         	0.04
MS.379         	13.71          	0.04
MS.380         	13.682         	0.04
MS.381         	13.657         	0.036
MS.382         	13.63          	0.038
MS.383         	13.602         	0.044
MS.384         	13.575         	0.04
MS.385         	13.547         	0.04
MS.386         	13.52          	0.044
MS.387         	13.492         	0.034
MS.388         	13.467         	0.044
MS.389         	13.44          	0.038
MS.390         	13.412         	0.038
MS.391         	13.385         	0.04
MS.392         	13.36          	0.038
MS.393         	13.332         	0.038
MS.394         	13.305         	0.04
MS.395         	13.28          	0.042
MS.396         	13.252         	0.04
MS.397         	13.225         	0.034
MS.398         	13.2           	0.042
MS.399         	13.172         	0.04
MS.400         	13.148         	0.042
MS.401         	13.12          	0.038
MS.402         	13.095         	0.04
MS.403         	13.068         	0.042
MS.404         	13.042         	0.038
MS.405         	13.017         	0.038
MS.406         	12.99          	0.042
MS.407         	12.965         	0.044
MS.408         	12.938         	0.042
MS.409         	12.912         	0.042
MS.410         	12.887         	0.042
MS.411         	12.86          	0.04
MS.412         	12.835         	0.042
MS.413         	12.81          	0.036
MS.414         	12.785         	0.042
MS.415         	12.757         	0.044
MS.416         	12.733         	0.04
MS.417         	12.707         	0.044
MS.418         	12.682         	0.04
MS.419         	12.657         	0.038
MS.420         	12.632         	0.04
MS.421         	12.608         	0.036
MS.422         	12.58          	0.036
MS.423         	12.555         	0.034
MS.424         	12.53          	0.042
MS.425         	12.505         	0.036
MS.426         	12.48          	0.036
MS.427         	12.455         	0.034
MS.428         	12.43          	0.038
MS.429         	12.405         	0.036
MS.430         	12.382         	0.038
MS.431         	12.358         	0.036
MS.432         	12.332         	0.038
MS.433         	12.307         	0.036
MS.434         	12.282         	0.038
MS.435         	12.257         	0.038
MS.436         	12.235         	0.034
MS.437         	12.21          	0.04
MS.438         	12.185         	0.034
MS.439         	12.16          	0.042
MS.440         	12.137         	0.036
MS.441         	12.113         	0.04
MS.442         	12.087         	0.042
MS.443         	12.062         	0.042
MS.444         	12.04          	0.042
MS.445         	12.015         	0.03
MS.446         	11.992         	0.04
MS.447         	11.967         	0.042
MS.448         	11.943         	0.036
MS.449         	11.92          	0.038
MS.450         	11.895         	0.04
MS.451         	11.872         	0.038
MS.452         	11.847         	0.038
MS.453         	11.825         	0.036
MS.454         	11.8           	0.04
MS.455         	11.778         	0.036
MS.456         	11.755         	0.04
MS.457         	11.73          	0.038
MS.458         	11.707         	0.038
MS.459         	11.685         	0.044
MS.460         	11.66          	0.036
MS.461         	11.637         	0.038
MS.462         	11.615         	0.038
MS.463         	11.59          	0.04
MS.464         	11.568         	0.038
MS.465         	11.545         	0.036
MS.466         	11.523         	0.036
MS.467         	11.497         	0.04
MS.468         	11.475         	0.038
MS.469         	11.452         	0.036
MS.470         	11.43          	0.044
MS.471         	11.407         	0.04
MS.472         	11.385         	0.038
MS.473         	11.36          	0.04
MS.474         	11.337         	0.04
MS.475         	11.315         	0.038
MS.476         	11.292         	0.04
MS.477         	11.27          	0.04
MS.478         	11.247         	0.04
MS.479         	11.225         	0.038
MS.480         	11.202         	0.036
MS.481         	11.18          	0.038
MS.482         	11.157         	0.04
MS.483         	11.135         	0.04
MS.484         	11.115         	0.04
MS.485         	11.092         	0.04
MS.486         	11.07          	0.034
MS.487         	11.047         	0.038
MS.488         	11.025         	0.04
MS.489         	11.002         	0.034
MS.490         	10.983         	0.038
MS.491         	10.96          	0.038
MS.492         	10.938         	0.014
MS.493         	10.915         	0.036
MS.494         	10.895         	0.044
MS.495         	10.872         	0.042
MS.496         	10.85          	0.042
MS.497         	10.827         	0.042
MS.498         	10.807         	0.038
MS.499         	10.785         	0.012
MS.500         	10.765         	0.036
MS.501         	10.742         	0.044
MS.502         	10.72          	0.04
MS.503         	10.7           	0.014
MS.504         	10.677         	0.036
MS.505         	10.657         	0.04
MS.506         	10.635         	0.04
MS.507         	10.615         	0.038
MS.508         	10.592         	0.04
MS.509         	10.573         	0.04
MS.510         	10.55          	0.018
MS.511         	10.53          	0.04
MS.512         	10.507         	0.038
MS.513         	10.488         	0.038
MS.514         	10.467         	0.016
MS.515         	10.445         	0.04
MS.516         	10.425         	0.046
MS.517         	10.405         	0.014
MS.518         	10.382         	0.042
MS.519         	10.363         	0.038
MS.520         	10.342         	0.036
MS.521         	10.32          	0.014
MS.522         	10.3           	0.014
MS.523         	10.28          	0.046
MS.524         	10.26          	0.02
MS.525         	10.24          	0.02
MS.526         	10.217         	0.014
MS.527         	10.198         	0.018
MS.528         	10.177         	0.018
MS.529         	10.157         	0.016
MS.530         	10.137         	0.018
MS.531         	10.117         	0.016
MS.532         	10.097         	0.018
MS.533         	10.077         	0.02
MS.534         	10.057         	0.018
MS.535         	10.035         	0.018
MS.536         	10.015         	0.014
MS.537         	9.995          	0.024
MS.538         	9.975          	0.022
MS.539         	9.955          	0.018
MS.540         	9.938          	0.016
MS.541         	9.917          	0.014
MS.542         	9.898          	0.016
MS.543         	9.877          	0.014
MS.544         	9.858          	0.016
MS.545         	9.837          	0.012
MS.546         	9.818          	0.018
MS.547         	9.797          	0.018
MS.548         	9.778          	0.014
MS.549         	9.76           	0.018
MS.550         	9.74           	0.014
MS.551         	9.72           	0.014
DERIVED EXCITABILITY VARIABLES
Program = QTracP 3/4/2020
Threshold method = 6 (optimised for CAP, using data for present condition only)
SR method = 1 (using actual data values)
6.                 	0.000               	Peak response\(mV)
9.                 	31.6                	Temperature ( C)
17.                	43                  	Age (years)
18.                	2                   	Sex (M=1, F=2)

EXTRA VARIABLES

MScPeak(mV) = 12.11
MScS5(mA) = 18.3
MScS50(mA) = 21.56
MScS95(mA) = 24.64
MScNSteps = 3
MScSteps(%) = 7.4
MScStepMax(%) = 3.3
MScD50 = 38
MScSlope = 6.89
MSFPeakAmp(mV) = 12.2
MSFNUnits = 135
MSFMeanUnitAmp(uV) = 90.1
MSFHuntTime(m) = 2.47
MSFError(%) = 3.82
MSFNLarge = 47.45
MSFMedianAmp(%) = 0.679
MSFMedianAmp(mV) = 0.0826
MSFHalfAmpAmp(%) = 0.799
MSFHalfAmpAmp(mV) = 0.0972
MSFLargestAmp(%) = 2.55
MSFLargestAmp(mV) = 0.31
MSFMeanRS(%) = 2
MSFOpts = 10106121
MScDuration(min) = 5
MSFTraces = 387
MSFSizeLimit(uV) = 30.4
MSFLimitType = 1
MSFSmallestAmp(uV) = 32.4

EXTRA WAVEFORMS


!MScan Model
!135
	1	14.81	0.33	2
	2	15.07	0.35	2
	3	15.37	0.28	2
	4	15.84	0.51	2
	5	15.94	0.61	2
	6	17.11	0.47	2
	7	17.3	0.33	2
	8	17.46	0.27	2
	9	17.7	0.37	2
	10	18.18	0.78	2
	11	18.39	0.65	2
	12	18.54	0.93	2
	13	18.63	0.53	2
	14	18.73	0.78	2
	15	18.85	1	2
	16	19	1.27	2
	17	19.14	1.27	2
	18	19.26	1.49	2
	19	19.34	1.23	2
	20	19.42	1.17	2
	21	19.48	0.91	2
	22	19.53	0.58	2
	23	19.57	0.66	2
	24	19.61	0.8	2
	25	19.65	1.35	2
	26	19.66	0.81	2
	27	19.69	0.61	2
	28	19.72	0.68	2
	29	19.75	0.74	2
	30	19.78	0.8	2
	31	19.81	0.83	2
	32	19.85	0.7	2
	33	19.87	0.67	2
	34	19.9	0.58	2
	35	19.93	0.47	2
	36	19.96	0.49	2
	37	19.99	0.51	2
	38	20.01	0.54	2
	39	20.04	0.69	2
	40	20.08	0.9	2
	41	20.12	1.04	2
	42	20.16	0.93	2
	43	20.21	0.77	2
	44	20.25	0.66	2
	45	20.35	2.55	2
	46	20.61	2.12	2
	47	20.72	1.21	2
	48	20.81	1.22	2
	49	20.9	1.11	2
	50	20.98	0.79	2
	51	21.06	0.97	2
	52	21.12	0.82	2
	53	21.18	0.73	2
	54	21.23	0.79	2
	55	21.29	0.82	2
	56	21.33	0.66	2
	57	21.38	0.8	2
	58	21.42	0.85	2
	59	21.47	0.87	2
	60	21.51	0.71	2
	61	21.55	0.68	2
	62	21.6	0.54	2
	63	21.64	0.55	2
	64	21.68	0.58	2
	65	21.72	0.73	2
	66	21.75	0.59	2
	67	21.79	0.58	2
	68	21.83	0.58	2
	69	21.86	0.58	2
	70	21.9	0.58	2
	71	21.93	0.59	2
	72	21.98	0.81	2
	73	22.03	0.99	2
	74	22.09	0.9	2
	75	22.14	0.81	2
	76	22.19	0.81	2
	77	22.25	0.91	2
	78	22.31	0.93	2
	79	22.37	0.89	2
	80	22.42	0.78	2
	81	22.47	0.67	2
	82	22.52	0.7	2
	83	22.57	0.76	2
	84	22.61	0.81	2
	85	22.66	0.81	2
	86	22.71	0.8	2
	87	22.76	0.8	2
	88	22.81	0.8	2
	89	22.85	0.66	2
	90	22.89	0.57	2
	91	22.93	0.55	2
	92	22.96	0.54	2
	93	23	0.54	2
	94	23.03	0.56	2
	95	23.07	0.58	2
	96	23.11	0.59	2
	97	23.15	0.7	2
	98	23.18	0.66	2
	99	23.22	0.62	2
	100	23.26	0.57	2
	101	23.3	0.53	2
	102	23.34	0.53	2
	103	23.37	0.51	2
	104	23.41	0.5	2
	105	23.45	0.48	2
	106	23.49	0.47	2
	107	23.52	0.51	2
	108	23.56	0.51	2
	109	23.6	0.56	2
	110	23.64	0.58	2
	111	23.68	0.57	2
	112	23.72	0.55	2
	113	23.76	0.49	2
	114	23.81	0.74	2
	115	23.88	0.89	2
	116	23.94	0.86	2
	117	24.01	0.82	2
	118	24.1	1.1	2
	119	24.2	0.89	2
	120	24.3	1.17	2
	121	24.42	1.15	2
	122	24.56	1.35	2
	123	24.74	1.38	2
	124	24.99	1.28	2
	125	25.13	0.81	2
	126	25.25	0.58	2
	127	25.32	0.31	2
	128	25.39	0.29	2
	129	25.46	0.27	2
	130	25.54	0.31	2
	131	25.62	0.35	2
	132	25.71	0.31	2
	133	25.82	0.4	2
	134	25.96	0.32	2
	135	26.2	0.58	2

