File:              	C:\Qtrac\Data\Daniel M Sørensen\MScan multicentre study\Data from centres\Toronto\Processed data\MSCC01118B.QZD
Name:              	CA.TOR.NC.3.1
Protocol:          	MSCAN-R2
Date:              	18/11/20
Start time:        	13:15:00
Age:               	25
Sex:               	M
Temperature:       	32.5
S/R sites:         	ADM
NC/disease:        	NC
Operator:          	LP
Comments:
M-SCAN DATA (6.2-1.5m)
Scanpts: 14, 19, 498, 519
Stim. (mA)     	Amp. (mV)
MS.1           	17.5           	12.198
MS.2           	17.5           	12.164
MS.3           	17.5           	12.18
MS.4           	17.5           	12.204
MS.5           	17.5           	12.212
MS.6           	17.5           	12.232
MS.7           	17.5           	12.264
MS.8           	17.5           	12.232
MS.9           	17.5           	12.226
MS.10          	17.5           	12.22
MS.11          	17.5           	12.252
MS.12          	17.5           	12.22
MS.13          	17.5           	12.228
MS.14          	17.5           	12.224
MS.15          	17.5           	12.224
MS.16          	17.5           	12.222
MS.17          	17.5           	12.192
MS.18          	17.5           	12.246
MS.19          	17.5           	12.242
MS.20          	17.5           	12.23
MS.21          	17.5           	12.228
MS.22          	17.5           	12.216
MS.23          	17.5           	12.216
MS.24          	17.43          	12.202
MS.25          	17.395         	12.238
MS.26          	17.36          	12.228
MS.27          	17.325         	12.22
MS.28          	17.29          	12.222
MS.29          	17.257         	12.206
MS.30          	17.222         	12.157
MS.31          	17.188         	12.143
MS.32          	17.153         	12.149
MS.33          	17.12          	12.091
MS.34          	17.085         	12.077
MS.35          	17.05          	12.051
MS.36          	17.017         	12.101
MS.37          	16.983         	12.041
MS.38          	16.95          	12.079
MS.39          	16.915         	12.149
MS.40          	16.88          	12.149
MS.41          	16.847         	12.043
MS.42          	16.812         	12.035
MS.43          	16.78          	11.998
MS.44          	16.747         	11.926
MS.45          	16.712         	11.932
MS.46          	16.68          	11.958
MS.47          	16.647         	11.89
MS.48          	16.612         	11.875
MS.49          	16.58          	11.853
MS.50          	16.547         	11.849
MS.51          	16.515         	11.809
MS.52          	16.48          	11.698
MS.53          	16.448         	11.817
MS.54          	16.415         	11.579
MS.55          	16.382         	11.676
MS.56          	16.35          	11.708
MS.57          	16.317         	11.73
MS.58          	16.285         	11.539
MS.59          	16.253         	11.553
MS.60          	16.22          	11.557
MS.61          	16.188         	11.614
MS.62          	16.155         	11.533
MS.63          	16.122         	11.581
MS.64          	16.09          	11.563
MS.65          	16.057         	11.378
MS.66          	16.025         	11.348
MS.67          	15.992         	11.167
MS.68          	15.962         	11.221
MS.69          	15.93          	11.281
MS.70          	15.898         	11.13
MS.71          	15.867         	11.116
MS.72          	15.835         	11.167
MS.73          	15.802         	11.154
MS.74          	15.773         	10.999
MS.75          	15.74          	10.917
MS.76          	15.707         	10.957
MS.77          	15.677         	11.013
MS.78          	15.645         	10.852
MS.79          	15.615         	10.802
MS.80          	15.582         	10.671
MS.81          	15.552         	10.512
MS.82          	15.52          	10.494
MS.83          	15.49          	10.484
MS.84          	15.46          	10.657
MS.85          	15.427         	10.673
MS.86          	15.398         	10.462
MS.87          	15.367         	10.395
MS.88          	15.335         	10.28
MS.89          	15.305         	10.208
MS.90          	15.275         	10.184
MS.91          	15.245         	10.23
MS.92          	15.212         	10.105
MS.93          	15.182         	10.081
MS.94          	15.152         	9.855
MS.95          	15.122         	9.898
MS.96          	15.092         	9.982
MS.97          	15.062         	9.688
MS.98          	15.032         	9.722
MS.99          	15.002         	9.863
MS.100         	14.972         	9.642
MS.101         	14.943         	9.686
MS.102         	14.912         	9.563
MS.103         	14.882         	9.444
MS.104         	14.852         	9.388
MS.105         	14.822         	9.39
MS.106         	14.792         	9.116
MS.107         	14.765         	9.356
MS.108         	14.735         	9.253
MS.109         	14.705         	8.77
MS.110         	14.675         	8.915
MS.111         	14.648         	8.995
MS.112         	14.617         	8.772
MS.113         	14.587         	8.613
MS.114         	14.56          	8.512
MS.115         	14.53          	8.449
MS.116         	14.5           	8.163
MS.117         	14.472         	8.254
MS.118         	14.443         	8.085
MS.119         	14.415         	7.988
MS.120         	14.385         	7.557
MS.121         	14.358         	7.622
MS.122         	14.327         	7.412
MS.123         	14.3           	7.527
MS.124         	14.27          	7.295
MS.125         	14.242         	7.321
MS.126         	14.212         	7.037
MS.127         	14.185         	6.939
MS.128         	14.157         	6.856
MS.129         	14.127         	6.898
MS.130         	14.1           	6.81
MS.131         	14.072         	6.709
MS.132         	14.045         	6.76
MS.133         	14.015         	6.373
MS.134         	13.987         	6.482
MS.135         	13.96          	6.28
MS.136         	13.932         	6.143
MS.137         	13.905         	6.369
MS.138         	13.877         	6.163
MS.139         	13.85          	6.059
MS.140         	13.82          	6.083
MS.141         	13.792         	5.899
MS.142         	13.765         	5.787
MS.143         	13.737         	5.622
MS.144         	13.71          	5.799
MS.145         	13.682         	5.583
MS.146         	13.655         	5.11
MS.147         	13.63          	5.638
MS.148         	13.602         	5.398
MS.149         	13.575         	5.541
MS.150         	13.547         	5.13
MS.151         	13.52          	5.09
MS.152         	13.492         	4.906
MS.153         	13.467         	4.826
MS.154         	13.44          	4.681
MS.155         	13.412         	4.572
MS.156         	13.385         	4.405
MS.157         	13.36          	4.429
MS.158         	13.332         	4.308
MS.159         	13.305         	4.123
MS.160         	13.28          	4.258
MS.161         	13.252         	4.282
MS.162         	13.225         	4.091
MS.163         	13.2           	3.865
MS.164         	13.172         	3.73
MS.165         	13.148         	3.855
MS.166         	13.12          	3.914
MS.167         	13.095         	3.978
MS.168         	13.068         	3.789
MS.169         	13.042         	3.748
MS.170         	13.015         	3.678
MS.171         	12.99          	3.559
MS.172         	12.965         	3.742
MS.173         	12.938         	3.646
MS.174         	12.912         	3.553
MS.175         	12.887         	3.543
MS.176         	12.86          	3.597
MS.177         	12.835         	3.358
MS.178         	12.81          	3.523
MS.179         	12.785         	3.372
MS.180         	12.757         	3.317
MS.181         	12.733         	3.243
MS.182         	12.707         	3.402
MS.183         	12.682         	3.164
MS.184         	12.657         	3.186
MS.185         	12.632         	3.074
MS.186         	12.608         	3.015
MS.187         	12.58          	2.868
MS.188         	12.555         	2.945
MS.189         	12.53          	2.933
MS.190         	12.505         	2.745
MS.191         	12.48          	2.904
MS.192         	12.455         	2.991
MS.193         	12.43          	2.78
MS.194         	12.405         	2.496
MS.195         	12.382         	2.626
MS.196         	12.358         	2.389
MS.197         	12.332         	2.612
MS.198         	12.307         	2.53
MS.199         	12.282         	2.262
MS.200         	12.257         	2.232
MS.201         	12.233         	2.479
MS.202         	12.21          	2.246
MS.203         	12.185         	2.101
MS.204         	12.16          	1.889
MS.205         	12.135         	2.123
MS.206         	12.113         	1.893
MS.207         	12.087         	1.974
MS.208         	12.062         	1.76
MS.209         	12.04          	1.819
MS.210         	12.015         	1.748
MS.211         	11.992         	1.768
MS.212         	11.967         	1.744
MS.213         	11.943         	1.652
MS.214         	11.92          	1.456
MS.215         	11.895         	1.436
MS.216         	11.872         	1.545
MS.217         	11.847         	1.577
MS.218         	11.825         	1.436
MS.219         	11.8           	1.432
MS.220         	11.778         	1.376
MS.221         	11.755         	1.414
MS.222         	11.73          	1.372
MS.223         	11.707         	1.339
MS.224         	11.682         	1.313
MS.225         	11.66          	1.074
MS.226         	11.637         	1.132
MS.227         	11.615         	1.088
MS.228         	11.59          	1.192
MS.229         	11.568         	1.138
MS.230         	11.545         	0.908
MS.231         	11.523         	0.997
MS.232         	11.497         	1.001
MS.233         	11.475         	0.955
MS.234         	11.452         	0.836
MS.235         	11.43          	0.866
MS.236         	11.407         	0.874
MS.237         	11.385         	0.82
MS.238         	11.36          	0.82
MS.239         	11.337         	0.759
MS.240         	11.315         	0.818
MS.241         	11.292         	0.794
MS.242         	11.27          	0.695
MS.243         	11.247         	0.657
MS.244         	11.225         	0.761
MS.245         	11.202         	0.784
MS.246         	11.18          	0.788
MS.247         	11.157         	0.747
MS.248         	11.135         	0.739
MS.249         	11.115         	0.741
MS.250         	11.092         	0.614
MS.251         	11.07          	0.824
MS.252         	11.047         	0.763
MS.253         	11.025         	0.683
MS.254         	11.002         	0.679
MS.255         	10.983         	0.542
MS.256         	10.96          	0.753
MS.257         	10.938         	0.58
MS.258         	10.915         	0.544
MS.259         	10.895         	0.516
MS.260         	10.872         	0.556
MS.261         	10.85          	0.647
MS.262         	10.827         	0.51
MS.263         	10.807         	0.485
MS.264         	10.785         	0.554
MS.265         	10.765         	0.52
MS.266         	10.742         	0.516
MS.267         	10.72          	0.497
MS.268         	10.7           	0.493
MS.269         	10.677         	0.51
MS.270         	10.657         	0.502
MS.271         	10.635         	0.514
MS.272         	10.615         	0.467
MS.273         	10.592         	0.528
MS.274         	10.573         	0.51
MS.275         	10.55          	0.455
MS.276         	10.53          	0.485
MS.277         	10.507         	0.417
MS.278         	10.488         	0.417
MS.279         	10.467         	0.455
MS.280         	10.445         	0.477
MS.281         	10.425         	0.391
MS.282         	10.405         	0.338
MS.283         	10.382         	0.421
MS.284         	10.363         	0.381
MS.285         	10.342         	0.447
MS.286         	10.32          	0.417
MS.287         	10.3           	0.383
MS.288         	10.28          	0.403
MS.289         	10.26          	0.308
MS.290         	10.24          	0.35
MS.291         	10.217         	0.439
MS.292         	10.198         	0.306
MS.293         	10.177         	0.288
MS.294         	10.157         	0.352
MS.295         	10.137         	0.298
MS.296         	10.117         	0.306
MS.297         	10.097         	0.304
MS.298         	10.077         	0.306
MS.299         	10.057         	0.308
MS.300         	10.035         	0.262
MS.301         	10.015         	0.27
MS.302         	9.995          	0.306
MS.303         	9.975          	0.375
MS.304         	9.955          	0.248
MS.305         	9.938          	0.248
MS.306         	9.917          	0.226
MS.307         	9.898          	0.296
MS.308         	9.877          	0.248
MS.309         	9.858          	0.207
MS.310         	9.837          	0.26
MS.311         	9.818          	0.224
MS.312         	9.797          	0.232
MS.313         	9.778          	0.224
MS.314         	9.76           	0.27
MS.315         	9.74           	0.222
MS.316         	9.72           	0.159
MS.317         	9.7            	0.272
MS.318         	9.682          	0.201
MS.319         	9.662          	0.201
MS.320         	9.642          	0.193
MS.321         	9.622          	0.137
MS.322         	9.605          	0.197
MS.323         	9.585          	0.232
MS.324         	9.565          	0.145
MS.325         	9.547          	0.187
MS.326         	9.528          	0.195
MS.327         	9.507          	0.169
MS.328         	9.49           	0.117
MS.329         	9.47           	0.193
MS.330         	9.452          	0.167
MS.331         	9.432          	0.169
MS.332         	9.415          	0.185
MS.333         	9.395          	0.129
MS.334         	9.377          	0.191
MS.335         	9.358          	0.139
MS.336         	9.34           	0.234
MS.337         	9.32           	0.115
MS.338         	9.302          	0.131
MS.339         	9.283          	0.121
MS.340         	9.265          	0.111
MS.341         	9.245          	0.117
MS.342         	9.227          	0.113
MS.343         	9.21           	0.127
MS.344         	9.19           	0.113
MS.345         	9.172          	0.131
MS.346         	9.155          	0.121
MS.347         	9.135          	0.111
MS.348         	9.117          	0.123
MS.349         	9.1            	0.117
MS.350         	9.08           	0.113
MS.351         	9.062          	0.121
MS.352         	9.045          	0.105
MS.353         	9.028          	0.117
MS.354         	9.01           	0.109
MS.355         	8.99           	0.115
MS.356         	8.972          	0.125
MS.357         	8.955          	0.113
MS.358         	8.938          	0.117
MS.359         	8.92           	0.105
MS.360         	8.903          	0.109
MS.361         	8.882          	0.123
MS.362         	8.865          	0.099
MS.363         	8.847          	0.123
MS.364         	8.83           	0.107
MS.365         	8.812          	0.117
MS.366         	8.795          	0.107
MS.367         	8.778          	0.093
MS.368         	8.76           	0.107
MS.369         	8.742          	0.109
MS.370         	8.725          	0.109
MS.371         	8.707          	0.109
MS.372         	8.69           	0.107
MS.373         	8.672          	0.109
MS.374         	8.655          	0.097
MS.375         	8.637          	0.105
MS.376         	8.62           	0.101
MS.377         	8.602          	0.032
MS.378         	8.587          	0.099
MS.379         	8.57           	0.095
MS.380         	8.552          	0.034
MS.381         	8.535          	0.093
MS.382         	8.517          	0.036
MS.383         	8.5            	0.097
MS.384         	8.485          	0.095
MS.385         	8.467          	0.03
MS.386         	8.45           	0.02
MS.387         	8.432          	0.093
MS.388         	8.417          	0.101
MS.389         	8.4            	0.093
MS.390         	8.382          	0.032
MS.391         	8.365          	0.034
MS.392         	8.35           	0.034
MS.393         	8.332          	0.026
MS.394         	8.315          	0.101
MS.395         	8.3            	0.024
MS.396         	8.283          	0.032
MS.397         	8.267          	0.103
MS.398         	8.25           	0.034
MS.399         	8.233          	0.026
MS.400         	8.217          	0.032
MS.401         	8.2            	0.024
MS.402         	8.185          	0.022
MS.403         	8.167          	0.03
MS.404         	8.153          	0.024
MS.405         	8.135          	0.028
MS.406         	8.12           	0.02
MS.407         	8.102          	0.032
MS.408         	8.087          	0.107
MS.409         	8.07           	0.026
MS.410         	8.055          	0.03
MS.411         	8.037          	0.026
MS.412         	8.023          	0.028
MS.413         	8.005          	0.02
MS.414         	7.99           	0.022
MS.415         	7.975          	0.032
MS.416         	7.957          	0.034
MS.417         	7.942          	0.034
MS.418         	7.927          	0.034
MS.419         	7.91           	0.032
MS.420         	7.895          	0.028
MS.421         	7.88           	0.024
MS.422         	7.862          	0.032
MS.423         	7.847          	0.022
MS.424         	7.832          	0.034
MS.425         	7.815          	0.022
MS.426         	7.8            	0.036
MS.427         	7.785          	0.03
MS.428         	7.77           	0.024
MS.429         	7.755          	0.024
MS.430         	7.737          	0.028
MS.431         	7.722          	0.03
MS.432         	7.707          	0.036
MS.433         	7.692          	0.026
MS.434         	7.677          	0.028
MS.435         	7.662          	0.038
MS.436         	7.645          	0.028
MS.437         	7.63           	0.026
MS.438         	7.615          	0.036
MS.439         	7.6            	0.036
MS.440         	7.585          	0.032
MS.441         	7.57           	0.034
MS.442         	7.555          	0.036
MS.443         	7.54           	0.036
MS.444         	7.525          	0.036
MS.445         	7.51           	0.034
MS.446         	7.495          	0.032
MS.447         	7.48           	0.03
MS.448         	7.465          	0.028
MS.449         	7.45           	0.038
MS.450         	7.435          	0.026
MS.451         	7.42           	0.036
MS.452         	7.405          	0.032
MS.453         	7.39           	0.028
MS.454         	7.375          	0.03
MS.455         	7.36           	0.038
MS.456         	7.347          	0.032
MS.457         	7.332          	0.036
MS.458         	7.317          	0.026
MS.459         	7.302          	0.04
MS.460         	7.287          	0.036
MS.461         	7.273          	0.036
MS.462         	7.257          	0.03
MS.463         	7.245          	0.038
MS.464         	7.23           	0.028
MS.465         	7.215          	0.036
MS.466         	7.2            	0.032
MS.467         	7.188          	0.038
MS.468         	7.172          	0.028
MS.469         	7.157          	0.04
MS.470         	7.142          	0.026
MS.471         	7.13           	0.008
MS.472         	7.115          	0.004
MS.473         	7.1            	0.01
MS.474         	7.087          	0.006
MS.475         	7.072          	0.026
MS.476         	7.057          	0.01
MS.477         	7.045          	0.038
MS.478         	7.03           	0.038
MS.479         	7.015          	0.01
MS.480         	7.003          	0.01
MS.481         	6.987          	0.038
MS.482         	6.975          	0.028
MS.483         	6.96           	0.036
MS.484         	6.945          	0.01
MS.485         	6.932          	0.036
MS.486         	6.918          	0.006
MS.487         	6.905          	0.006
MS.488         	6.89           	0.006
MS.489         	6.878          	0.008
MS.490         	6.862          	0.012
MS.491         	6.85           	0.008
MS.492         	6.835          	0.008
MS.493         	6.822          	0.008
MS.494         	6.807          	0.012
MS.495         	6.795          	0.008
MS.496         	6.782          	0.01
MS.497         	6.767          	0.01
MS.498         	6.755          	0.008
MS.499         	6.74           	0.012
MS.500         	6.727          	0.01
MS.501         	6.715          	0.006
MS.502         	6.7            	0.004
MS.503         	6.688          	0.01
MS.504         	6.675          	0.012
MS.505         	6.66           	-0.002
MS.506         	6.648          	0.016
MS.507         	6.635          	0.014
MS.508         	6.62           	0.008
MS.509         	6.608          	0.014
MS.510         	6.595          	0.000
MS.511         	6.58           	0.008
MS.512         	6.567          	0.002
MS.513         	6.555          	0.01
MS.514         	6.543          	0.004
MS.515         	6.527          	0.002
MS.516         	6.515          	-0.002
MS.517         	6.503          	-0.002
MS.518         	6.49           	0.008
MS.519         	6.477          	-0.002
DERIVED EXCITABILITY VARIABLES
Program = QTracP 3/4/2020
Threshold method = 6 (optimised for CAP, using data for present condition only)
SR method = 1 (using actual data values)
6.                 	0.000               	Peak response\(mV)
9.                 	32.5                	Temperature ( C)
17.                	25                  	Age (years)
18.                	1                   	Sex (M=1, F=2)

EXTRA VARIABLES

MScPeak(mV) = 12.21
MScS5(mA) = 10.92
MScS50(mA) = 13.86
MScS95(mA) = 16.3
MScNSteps = 3
MScSteps(%) = 7.3
MScStepMax(%) = 3
MScD50 = 45
MScSlope = 6.46
MSFPeakAmp(mV) = 12.2
MSFNUnits = 193
MSFMeanUnitAmp(uV) = 63.3
MSFHuntTime(m) = 3.1
MSFError(%) = 10
MSFNLarge = 67.62
MSFMedianAmp(%) = 0.466
MSFMedianAmp(mV) = 0.057
MSFHalfAmpAmp(%) = 0.539
MSFHalfAmpAmp(mV) = 0.0659
MSFLargestAmp(%) = 1.43
MSFLargestAmp(mV) = 0.175
MSFMeanRS(%) = 2
MSFOpts = 10106121
MScDuration(min) = 4.7
MSFTraces = 506
MSFSizeLimit(uV) = 30.5
MSFLimitType = 1
MSFSmallestAmp(uV) = 31.8

EXTRA WAVEFORMS


!MScan Model
!193
	1	8.18	0.82	2
	2	9.26	0.26	2
	3	9.79	0.91	2
	4	10.16	0.78	2
	5	10.37	0.63	2
	6	10.48	0.29	2
	7	10.58	0.33	2
	8	10.86	0.72	2
	9	11.02	0.82	2
	10	11.34	1.14	2
	11	11.4	0.39	2
	12	11.48	0.75	2
	13	11.51	0.36	2
	14	11.54	0.31	2
	15	11.57	0.33	2
	16	11.6	0.4	2
	17	11.63	0.38	2
	18	11.68	0.68	2
	19	11.74	0.65	2
	20	11.77	0.37	2
	21	11.81	0.57	2
	22	11.84	0.52	2
	23	11.88	0.41	2
	24	11.92	0.45	2
	25	11.96	0.55	2
	26	12	0.49	2
	27	12.03	0.51	2
	28	12.07	0.64	2
	29	12.1	0.62	2
	30	12.14	0.69	2
	31	12.18	0.73	2
	32	12.22	0.78	2
	33	12.27	0.85	2
	34	12.31	0.94	2
	35	12.36	0.89	2
	36	12.4	0.89	2
	37	12.45	0.71	2
	38	12.5	0.74	2
	39	12.54	0.81	2
	40	12.59	0.72	2
	41	12.62	0.5	2
	42	12.64	0.33	2
	43	12.67	0.31	2
	44	12.69	0.32	2
	45	12.71	0.4	2
	46	12.76	0.63	2
	47	12.8	0.65	2
	48	12.84	0.5	2
	49	12.9	0.72	2
	50	12.98	0.91	2
	51	13.04	0.69	2
	52	13.1	0.88	2
	53	13.14	0.57	2
	54	13.18	0.54	2
	55	13.21	0.66	2
	56	13.24	0.42	2
	57	13.25	0.31	2
	58	13.27	0.31	2
	59	13.29	0.3	2
	60	13.3	0.28	2
	61	13.32	0.48	2
	62	13.34	0.5	2
	63	13.35	0.52	2
	64	13.37	0.52	2
	65	13.39	0.55	2
	66	13.41	0.66	2
	67	13.43	0.49	2
	68	13.46	0.5	2
	69	13.48	0.6	2
	70	13.5	0.78	2
	71	13.53	0.96	2
	72	13.56	0.95	2
	73	13.59	0.84	2
	74	13.62	0.78	2
	75	13.65	0.78	2
	76	13.7	1.31	2
	77	13.75	1.27	2
	78	13.78	0.58	2
	79	13.79	0.34	2
	80	13.81	0.34	2
	81	13.82	0.35	2
	82	13.84	0.37	2
	83	13.86	0.38	2
	84	13.87	0.4	2
	85	13.89	0.38	2
	86	13.9	0.37	2
	87	13.92	0.37	2
	88	13.94	0.37	2
	89	13.95	0.34	2
	90	13.96	0.34	2
	91	13.98	0.31	2
	92	13.99	0.32	2
	93	14.01	0.32	2
	94	14.02	0.34	2
	95	14.04	0.35	2
	96	14.05	0.35	2
	97	14.07	0.35	2
	98	14.08	0.35	2
	99	14.1	0.35	2
	100	14.11	0.37	2
	101	14.13	0.37	2
	102	14.14	0.4	2
	103	14.16	0.41	2
	104	14.17	0.39	2
	105	14.18	0.39	2
	106	14.2	0.39	2
	107	14.21	0.36	2
	108	14.23	0.47	2
	109	14.25	0.47	2
	110	14.27	0.48	2
	111	14.28	0.28	2
	112	14.28	0.3	2
	113	14.29	0.3	2
	114	14.3	0.3	2
	115	14.31	0.29	2
	116	14.32	0.29	2
	117	14.33	0.31	2
	118	14.34	0.37	2
	119	14.35	0.37	2
	120	14.36	0.37	2
	121	14.38	0.37	2
	122	14.39	0.37	2
	123	14.4	0.35	2
	124	14.41	0.35	2
	125	14.42	0.35	2
	126	14.43	0.35	2
	127	14.44	0.35	2
	128	14.46	0.37	2
	129	14.47	0.37	2
	130	14.48	0.37	2
	131	14.49	0.37	2
	132	14.5	0.38	2
	133	14.52	0.54	2
	134	14.53	0.55	2
	135	14.55	0.61	2
	136	14.57	0.58	2
	137	14.58	0.53	2
	138	14.6	0.47	2
	139	14.61	0.45	2
	140	14.64	0.61	2
	141	14.66	0.63	2
	142	14.68	0.64	2
	143	14.71	0.64	2
	144	14.73	0.54	2
	145	14.75	0.53	2
	146	14.78	0.53	2
	147	14.8	0.64	2
	148	14.85	0.88	2
	149	14.89	0.63	2
	150	14.92	0.59	2
	151	14.95	0.42	2
	152	14.97	0.42	2
	153	15	0.48	2
	154	15.02	0.44	2
	155	15.05	0.39	2
	156	15.07	0.37	2
	157	15.1	0.38	2
	158	15.13	0.46	2
	159	15.16	0.5	2
	160	15.19	0.53	2
	161	15.22	0.56	2
	162	15.27	0.72	2
	163	15.31	0.5	2
	164	15.36	0.47	2
	165	15.4	0.6	2
	166	15.45	0.69	2
	167	15.5	0.73	2
	168	15.54	0.54	2
	169	15.57	0.45	2
	170	15.6	0.41	2
	171	15.64	0.39	2
	172	15.67	0.45	2
	173	15.71	0.46	2
	174	15.75	0.58	2
	175	15.79	0.58	2
	176	15.83	0.46	2
	177	15.88	0.43	2
	178	15.92	0.45	2
	179	15.96	0.46	2
	180	16	0.43	2
	181	16.06	0.63	2
	182	16.15	0.67	2
	183	16.32	1.43	2
	184	16.4	0.39	2
	185	16.46	0.32	2
	186	16.51	0.36	2
	187	16.57	0.33	2
	188	16.62	0.34	2
	189	16.67	0.38	2
	190	16.76	0.53	2
	191	16.92	0.64	2
	192	17.1	0.51	2
	193	17.31	0.51	2

