File:              	C:\Qtrac\Data\Daniel M Sørensen\MScan multicentre study\Data from centres\Oulu\Processed data\OUHC01024A.QZD
Name:              	FL.OUL.NC.1.1
Protocol:          	MSCAN-R2
Date:              	24/10/20
Start time:        	11:38:17
Age:               	21
Sex:               	M
Temperature:       	33,2
S/R sites:         	APB
NC/disease:        	NC
Operator:          	MK
Comments:
M-SCAN DATA (2.4-0.0m)
Scanpts: 89, 138, 448, 487
Stim. (mA)     	Amp. (mV)
MS.1           	23.5           	10.288
MS.2           	23.5           	10.308
MS.3           	23.452         	10.371
MS.4           	23.405         	10.405
MS.5           	23.36          	10.411
MS.6           	23.312         	10.393
MS.7           	23.265         	10.415
MS.8           	23.22          	10.395
MS.9           	23.172         	10.377
MS.10          	23.127         	10.341
MS.11          	23.08          	10.335
MS.12          	23.035         	10.333
MS.13          	22.987         	10.312
MS.14          	22.942         	10.31
MS.15          	22.897         	10.379
MS.16          	22.85          	10.377
MS.17          	22.805         	10.349
MS.18          	22.76          	10.3
MS.19          	22.715         	10.284
MS.20          	22.67          	10.272
MS.21          	22.625         	10.268
MS.22          	22.577         	10.266
MS.23          	22.532         	10.254
MS.24          	22.487         	10.248
MS.25          	22.442         	10.266
MS.26          	22.397         	10.27
MS.27          	22.355         	10.28
MS.28          	22.31          	10.274
MS.29          	22.265         	10.266
MS.30          	22.22          	10.304
MS.31          	22.175         	10.308
MS.32          	22.132         	10.298
MS.33          	22.087         	10.27
MS.34          	22.042         	10.236
MS.35          	22             	10.234
MS.36          	21.955         	10.264
MS.37          	21.913         	10.294
MS.38          	21.868         	10.286
MS.39          	21.825         	10.276
MS.40          	21.78          	10.248
MS.41          	21.737         	10.236
MS.42          	21.692         	10.216
MS.43          	21.65          	10.182
MS.44          	21.608         	10.192
MS.45          	21.562         	10.176
MS.46          	21.52          	10.176
MS.47          	21.477         	10.19
MS.48          	21.435         	10.2
MS.49          	21.392         	10.246
MS.50          	21.35          	10.242
MS.51          	21.305         	10.25
MS.52          	21.262         	10.258
MS.53          	21.22          	10.224
MS.54          	21.18          	10.21
MS.55          	21.137         	10.2
MS.56          	21.095         	10.206
MS.57          	21.052         	10.172
MS.58          	21.01          	10.178
MS.59          	20.967         	10.186
MS.60          	20.925         	10.194
MS.61          	20.885         	10.192
MS.62          	20.842         	10.172
MS.63          	20.8           	10.246
MS.64          	20.76          	10.244
MS.65          	20.717         	10.236
MS.66          	20.677         	10.202
MS.67          	20.635         	10.18
MS.68          	20.595         	10.167
MS.69          	20.552         	10.167
MS.70          	20.512         	10.149
MS.71          	20.47          	10.155
MS.72          	20.43          	10.159
MS.73          	20.39          	10.165
MS.74          	20.347         	10.163
MS.75          	20.307         	10.176
MS.76          	20.267         	10.198
MS.77          	20.227         	10.2
MS.78          	20.185         	10.22
MS.79          	20.145         	10.236
MS.80          	20.105         	10.22
MS.81          	20.065         	10.192
MS.82          	20.025         	10.186
MS.83          	19.985         	10.163
MS.84          	19.945         	10.139
MS.85          	19.905         	10.129
MS.86          	19.865         	10.129
MS.87          	19.825         	10.141
MS.88          	19.788         	10.149
MS.89          	19.747         	10.165
MS.90          	19.708         	10.155
MS.91          	19.667         	10.165
MS.92          	19.63          	10.139
MS.93          	19.59          	10.135
MS.94          	19.55          	10.139
MS.95          	19.512         	10.149
MS.96          	19.472         	10.137
MS.97          	19.432         	10.145
MS.98          	19.395         	10.135
MS.99          	19.355         	10.149
MS.100         	19.317         	10.141
MS.101         	19.278         	10.145
MS.102         	19.24          	10.149
MS.103         	19.202         	10.153
MS.104         	19.163         	10.182
MS.105         	19.125         	10.218
MS.106         	19.087         	10.22
MS.107         	19.047         	10.182
MS.108         	19.01          	10.167
MS.109         	18.972         	10.137
MS.110         	18.935         	10.139
MS.111         	18.897         	10.119
MS.112         	18.86          	10.127
MS.113         	18.823         	10.121
MS.114         	18.785         	10.178
MS.115         	18.747         	10.174
MS.116         	18.71          	10.161
MS.117         	18.672         	10.133
MS.118         	18.635         	10.119
MS.119         	18.597         	10.105
MS.120         	18.56          	10.117
MS.121         	18.522         	10.111
MS.122         	18.485         	10.119
MS.123         	18.45          	10.139
MS.124         	18.413         	10.143
MS.125         	18.375         	10.157
MS.126         	18.337         	10.143
MS.127         	18.302         	10.121
MS.128         	18.265         	10.133
MS.129         	18.23          	10.127
MS.130         	18.192         	10.139
MS.131         	18.155         	10.133
MS.132         	18.12          	10.121
MS.133         	18.083         	10.139
MS.134         	18.047         	10.131
MS.135         	18.012         	10.133
MS.136         	17.975         	10.125
MS.137         	17.94          	10.125
MS.138         	17.903         	10.139
MS.139         	17.868         	10.131
MS.140         	17.833         	10.159
MS.141         	17.797         	10.145
MS.142         	17.76          	10.151
MS.143         	17.725         	10.169
MS.144         	17.69          	10.172
MS.145         	17.655         	10.157
MS.146         	17.62          	10.155
MS.147         	17.585         	10.202
MS.148         	17.55          	10.204
MS.149         	17.515         	10.188
MS.150         	17.48          	10.169
MS.151         	17.445         	10.129
MS.152         	17.41          	10.139
MS.153         	17.375         	10.167
MS.154         	17.34          	10.155
MS.155         	17.305         	10.151
MS.156         	17.27          	10.139
MS.157         	17.235         	10.145
MS.158         	17.202         	10.137
MS.159         	17.167         	10.115
MS.160         	17.132         	10.111
MS.161         	17.097         	10.123
MS.162         	17.065         	10.127
MS.163         	17.03          	10.109
MS.164         	16.997         	10.113
MS.165         	16.962         	10.119
MS.166         	16.927         	10.129
MS.167         	16.895         	10.107
MS.168         	16.86          	10.121
MS.169         	16.827         	10.097
MS.170         	16.792         	10.109
MS.171         	16.76          	10.117
MS.172         	16.727         	10.107
MS.173         	16.692         	10.111
MS.174         	16.66          	10.111
MS.175         	16.628         	10.127
MS.176         	16.592         	10.163
MS.177         	16.56          	10.167
MS.178         	16.528         	10.167
MS.179         	16.495         	10.111
MS.180         	16.46          	10.131
MS.181         	16.427         	10.089
MS.182         	16.395         	10.117
MS.183         	16.362         	10.105
MS.184         	16.33          	10.071
MS.185         	16.297         	10.141
MS.186         	16.265         	10.141
MS.187         	16.233         	10.133
MS.188         	16.2           	10.125
MS.189         	16.167         	10.087
MS.190         	16.135         	10.051
MS.191         	16.102         	10.075
MS.192         	16.07          	10.083
MS.193         	16.038         	10.083
MS.194         	16.007         	10.083
MS.195         	15.975         	10.071
MS.196         	15.943         	10.079
MS.197         	15.91          	10.069
MS.198         	15.88          	10.109
MS.199         	15.847         	10.061
MS.200         	15.815         	10.073
MS.201         	15.785         	10.039
MS.202         	15.752         	10.059
MS.203         	15.72          	10.051
MS.204         	15.69          	10.031
MS.205         	15.657         	10.037
MS.206         	15.627         	10.031
MS.207         	15.595         	10.065
MS.208         	15.565         	10.035
MS.209         	15.532         	9.845
MS.210         	15.502         	10.018
MS.211         	15.472         	10.016
MS.212         	15.44          	10.049
MS.213         	15.41          	9.829
MS.214         	15.38          	9.829
MS.215         	15.347         	10.029
MS.216         	15.318         	9.847
MS.217         	15.287         	9.938
MS.218         	15.257         	9.839
MS.219         	15.225         	9.881
MS.220         	15.195         	9.863
MS.221         	15.165         	9.841
MS.222         	15.135         	9.835
MS.223         	15.105         	9.825
MS.224         	15.075         	9.763
MS.225         	15.045         	9.825
MS.226         	15.015         	9.771
MS.227         	14.985         	9.656
MS.228         	14.955         	9.67
MS.229         	14.925         	9.734
MS.230         	14.895         	9.618
MS.231         	14.865         	9.863
MS.232         	14.835         	9.612
MS.233         	14.805         	9.704
MS.234         	14.775         	9.523
MS.235         	14.747         	9.658
MS.236         	14.717         	9.257
MS.237         	14.688         	9.519
MS.238         	14.657         	9.406
MS.239         	14.63          	9.37
MS.240         	14.6           	9.503
MS.241         	14.57          	9.571
MS.242         	14.542         	9.247
MS.243         	14.512         	9.348
MS.244         	14.483         	9.243
MS.245         	14.455         	9.181
MS.246         	14.425         	9.549
MS.247         	14.398         	9.072
MS.248         	14.367         	9.424
MS.249         	14.34          	9.368
MS.250         	14.31          	9.003
MS.251         	14.282         	9.287
MS.252         	14.252         	8.981
MS.253         	14.225         	8.951
MS.254         	14.197         	9.072
MS.255         	14.167         	8.778
MS.256         	14.14          	8.909
MS.257         	14.112         	8.59
MS.258         	14.082         	8.669
MS.259         	14.055         	8.659
MS.260         	14.028         	8.609
MS.261         	14             	8.729
MS.262         	13.97          	8.651
MS.263         	13.943         	8.697
MS.264         	13.915         	8.53
MS.265         	13.887         	8.558
MS.266         	13.86          	8.488
MS.267         	13.832         	8.111
MS.268         	13.805         	8.401
MS.269         	13.778         	8.32
MS.270         	13.75          	8.198
MS.271         	13.722         	8.143
MS.272         	13.695         	8.157
MS.273         	13.667         	8.173
MS.274         	13.64          	8.022
MS.275         	13.612         	7.755
MS.276         	13.585         	7.793
MS.277         	13.557         	7.859
MS.278         	13.53          	7.744
MS.279         	13.505         	7.418
MS.280         	13.477         	7.517
MS.281         	13.45          	7.479
MS.282         	13.422         	7.364
MS.283         	13.398         	7.454
MS.284         	13.37          	7.845
MS.285         	13.342         	6.973
MS.286         	13.318         	7.37
MS.287         	13.29          	7.046
MS.288         	13.262         	6.703
MS.289         	13.237         	7.064
MS.290         	13.21          	6.842
MS.291         	13.185         	7.136
MS.292         	13.157         	6.975
MS.293         	13.132         	7.06
MS.294         	13.105         	6.316
MS.295         	13.08          	6.29
MS.296         	13.052         	6.725
MS.297         	13.028         	6.129
MS.298         	13             	6.286
MS.299         	12.975         	6.286
MS.300         	12.95          	6.282
MS.301         	12.922         	5.946
MS.302         	12.898         	5.702
MS.303         	12.872         	5.781
MS.304         	12.845         	5.549
MS.305         	12.82          	5.698
MS.306         	12.795         	5.382
MS.307         	12.767         	5.38
MS.308         	12.742         	5.243
MS.309         	12.717         	5.551
MS.310         	12.693         	5.116
MS.311         	12.667         	5.728
MS.312         	12.642         	4.941
MS.313         	12.617         	4.955
MS.314         	12.59          	4.691
MS.315         	12.565         	4.943
MS.316         	12.54          	4.616
MS.317         	12.515         	4.572
MS.318         	12.49          	4.608
MS.319         	12.465         	4.498
MS.320         	12.44          	4.516
MS.321         	12.415         	4.135
MS.322         	12.392         	4.512
MS.323         	12.367         	3.968
MS.324         	12.342         	3.722
MS.325         	12.318         	3.946
MS.326         	12.292         	4.312
MS.327         	12.267         	3.909
MS.328         	12.242         	3.779
MS.329         	12.22          	3.916
MS.330         	12.195         	3.591
MS.331         	12.17          	3.527
MS.332         	12.145         	3.341
MS.333         	12.122         	3.319
MS.334         	12.097         	3.348
MS.335         	12.072         	3.344
MS.336         	12.05          	3.019
MS.337         	12.025         	3.319
MS.338         	12             	3.035
MS.339         	11.977         	3.088
MS.340         	11.952         	2.723
MS.341         	11.93          	2.49
MS.342         	11.905         	2.403
MS.343         	11.882         	2.397
MS.344         	11.858         	2.494
MS.345         	11.835         	2.641
MS.346         	11.81          	2.492
MS.347         	11.787         	2.27
MS.348         	11.762         	2.512
MS.349         	11.74          	1.938
MS.350         	11.717         	2.312
MS.351         	11.693         	1.702
MS.352         	11.67          	2.169
MS.353         	11.648         	1.752
MS.354         	11.622         	1.847
MS.355         	11.6           	1.702
MS.356         	11.577         	1.73
MS.357         	11.552         	1.603
MS.358         	11.53          	1.795
MS.359         	11.507         	1.478
MS.360         	11.485         	1.446
MS.361         	11.462         	1.497
MS.362         	11.438         	1.339
MS.363         	11.415         	1.448
MS.364         	11.392         	1.537
MS.365         	11.37          	1.38
MS.366         	11.347         	1.279
MS.367         	11.325         	1.428
MS.368         	11.302         	1.36
MS.369         	11.28          	1.166
MS.370         	11.257         	1.279
MS.371         	11.235         	1.124
MS.372         	11.212         	0.888
MS.373         	11.19          	1.08
MS.374         	11.167         	0.826
MS.375         	11.145         	1.219
MS.376         	11.122         	0.918
MS.377         	11.1           	1.065
MS.378         	11.077         	0.763
MS.379         	11.057         	1.009
MS.380         	11.035         	0.814
MS.381         	11.012         	0.739
MS.382         	10.99          	0.552
MS.383         	10.967         	0.733
MS.384         	10.948         	0.636
MS.385         	10.925         	0.745
MS.386         	10.903         	0.554
MS.387         	10.88          	0.516
MS.388         	10.86          	0.626
MS.389         	10.837         	0.566
MS.390         	10.815         	0.695
MS.391         	10.795         	0.576
MS.392         	10.773         	0.417
MS.393         	10.75          	0.63
MS.394         	10.73          	0.53
MS.395         	10.707         	0.504
MS.396         	10.688         	0.439
MS.397         	10.665         	0.58
MS.398         	10.645         	0.612
MS.399         	10.622         	0.443
MS.400         	10.602         	0.238
MS.401         	10.58          	0.407
MS.402         	10.56          	0.218
MS.403         	10.537         	0.284
MS.404         	10.517         	0.286
MS.405         	10.495         	0.189
MS.406         	10.475         	0.314
MS.407         	10.455         	0.284
MS.408         	10.432         	0.336
MS.409         	10.412         	0.409
MS.410         	10.392         	0.163
MS.411         	10.37          	0.131
MS.412         	10.35          	0.201
MS.413         	10.33          	0.189
MS.414         	10.31          	0.171
MS.415         	10.287         	0.115
MS.416         	10.267         	0.244
MS.417         	10.247         	0.191
MS.418         	10.227         	0.155
MS.419         	10.205         	0.169
MS.420         	10.185         	0.117
MS.421         	10.165         	0.113
MS.422         	10.145         	0.143
MS.423         	10.125         	0.113
MS.424         	10.105         	0.224
MS.425         	10.085         	0.064
MS.426         	10.065         	0.087
MS.427         	10.045         	0.151
MS.428         	10.025         	0.145
MS.429         	10.005         	0.137
MS.430         	9.985          	0.093
MS.431         	9.965          	0.064
MS.432         	9.945          	0.06
MS.433         	9.925          	0.01
MS.434         	9.905          	0.01
MS.435         	9.885          	0.028
MS.436         	9.865          	0.038
MS.437         	9.845          	0.02
MS.438         	9.825          	0.018
MS.439         	9.805          	0.068
MS.440         	9.787          	0.119
MS.441         	9.767          	0.05
MS.442         	9.747          	0.02
MS.443         	9.727          	0.01
MS.444         	9.707          	0.008
MS.445         	9.69           	0.02
MS.446         	9.67           	0.008
MS.447         	9.65           	0.004
MS.448         	9.63           	0.004
MS.449         	9.613          	0.01
MS.450         	9.592          	0.012
MS.451         	9.573          	0.012
MS.452         	9.555          	0.056
MS.453         	9.535          	-0.004
MS.454         	9.515          	-0.004
MS.455         	9.497          	0.024
MS.456         	9.477          	0.004
MS.457         	9.46           	0.022
MS.458         	9.44           	0.004
MS.459         	9.422          	0.002
MS.460         	9.403          	0.004
MS.461         	9.385          	0.018
MS.462         	9.365          	0.01
MS.463         	9.347          	0.002
MS.464         	9.327          	0.004
MS.465         	9.31           	0.036
MS.466         	9.29           	0.022
MS.467         	9.273          	0.008
MS.468         	9.252          	0.008
MS.469         	9.235          	0.018
MS.470         	9.217          	0.000
MS.471         	9.198          	0.01
MS.472         	9.18           	0.012
MS.473         	9.162          	0.01
MS.474         	9.142          	0.008
MS.475         	9.125          	0.026
MS.476         	9.108          	0.022
MS.477         	9.087          	0.026
MS.478         	9.07           	0.026
MS.479         	9.052          	0.038
MS.480         	9.035          	0.028
MS.481         	9.015          	0.028
MS.482         	8.997          	0.026
MS.483         	8.98           	0.026
MS.484         	8.962          	0.012
MS.485         	8.945          	0.026
MS.486         	8.927          	0.026
MS.487         	8.908          	0.012
MS.488         	8.89           	0.024
MS.489         	8.872          	0.026
MS.490         	8.855          	0.02
MS.491         	8.837          	0.026
MS.492         	8.82           	0.026
MS.493         	8.802          	0.03
MS.494         	8.785          	0.028
MS.495         	8.767          	0.042
MS.496         	8.75           	0.042
MS.497         	8.733          	0.034
MS.498         	8.715          	0.038
MS.499         	8.698          	0.03
MS.500         	8.68           	0.044
MS.501         	8.662          	0.046
MS.502         	8.645          	0.044
MS.503         	8.627          	0.03
MS.504         	8.61           	0.044
MS.505         	8.592          	0.038
MS.506         	8.577          	0.07
MS.507         	8.56           	0.044
MS.508         	8.542          	0.032
MS.509         	8.525          	0.052
MS.510         	8.507          	0.042
MS.511         	8.49           	0.042
MS.512         	8.475          	0.06
MS.513         	8.457          	0.064
MS.514         	8.44           	0.056
MS.515         	8.422          	0.066
MS.516         	8.408          	0.073
MS.517         	8.39           	0.062
MS.518         	8.372          	0.062
MS.519         	8.355          	0.066
MS.520         	8.34           	0.075
MS.521         	8.323          	0.077
MS.522         	8.305          	0.062
MS.523         	8.29           	0.075
MS.524         	8.273          	0.064
MS.525         	8.257          	0.06
MS.526         	8.24           	0.073
MS.527         	8.222          	0.062
MS.528         	8.207          	0.083
MS.529         	8.19           	0.07
MS.530         	8.175          	0.083
MS.531         	8.158          	0.079
MS.532         	8.142          	0.075
MS.533         	8.125          	0.081
MS.534         	8.11           	0.077
MS.535         	8.092          	0.085
MS.536         	8.077          	0.079
MS.537         	8.06           	0.079
MS.538         	8.045          	0.075
MS.539         	8.028          	0.079
MS.540         	8.012          	0.077
MS.541         	7.997          	0.081
MS.542         	7.98           	0.079
MS.543         	7.965          	0.081
MS.544         	7.947          	0.079
MS.545         	7.932          	0.077
MS.546         	7.918          	0.081
MS.547         	7.9            	0.089
MS.548         	7.885          	0.085
MS.549         	7.87           	0.081
MS.550         	7.855          	0.075
MS.551         	7.837          	0.081
MS.552         	7.822          	0.075
MS.553         	7.807          	0.081
MS.554         	7.79           	0.083
MS.555         	7.775          	0.085
MS.556         	7.76           	0.089
MS.557         	7.745          	0.079
MS.558         	7.73           	0.087
MS.559         	7.712          	0.087
MS.560         	7.697          	0.083
MS.561         	7.682          	0.018
MS.562         	7.668          	0.097
MS.563         	7.652          	0.081
MS.564         	7.637          	0.087
MS.565         	7.622          	0.083
MS.566         	7.607          	0.018
MS.567         	7.592          	0.093
MS.568         	7.575          	0.091
MS.569         	7.56           	0.032
MS.570         	7.545          	0.111
MS.571         	7.53           	0.099
MS.572         	7.515          	0.097
MS.573         	7.5            	0.024
MS.574         	7.485          	0.099
MS.575         	7.47           	0.101
MS.576         	7.455          	0.03
MS.577         	7.44           	0.103
MS.578         	7.425          	0.038
MS.579         	7.412          	0.034
MS.580         	7.398          	0.04
MS.581         	7.382          	0.028
MS.582         	7.367          	0.04
MS.583         	7.352          	0.036
MS.584         	7.337          	0.115
MS.585         	7.322          	0.038
MS.586         	7.307          	0.052
MS.587         	7.293          	0.052
MS.588         	7.28           	0.036
MS.589         	7.265          	0.038
MS.590         	7.25           	0.046
MS.591         	7.235          	0.036
MS.592         	7.22           	0.036
MS.593         	7.207          	0.034
MS.594         	7.192          	0.04
MS.595         	7.177          	0.052
MS.596         	7.162          	0.048
MS.597         	7.15           	0.054
MS.598         	7.135          	0.046
MS.599         	7.12           	0.042
MS.600         	7.108          	0.038
MS.601         	7.092          	0.048
MS.602         	7.077          	0.048
MS.603         	7.065          	0.048
MS.604         	7.05           	0.05
MS.605         	7.035          	0.042
MS.606         	7.023          	0.048
MS.607         	7.007          	0.052
MS.608         	6.992          	0.05
MS.609         	6.98           	0.048
MS.610         	6.965          	0.05
MS.611         	6.952          	0.048
MS.612         	6.938          	0.048
MS.613         	6.925          	0.05
MS.614         	6.91           	0.06
MS.615         	6.898          	0.058
MS.616         	6.882          	0.05
MS.617         	6.87           	0.058
MS.618         	6.855          	0.058
MS.619         	6.842          	0.062
MS.620         	6.827          	0.062
MS.621         	6.815          	0.06
MS.622         	6.8            	0.062
MS.623         	6.787          	0.064
MS.624         	6.773          	0.06
MS.625         	6.76           	0.052
MS.626         	6.747          	0.089
MS.627         	6.733          	0.081
MS.628         	6.72           	0.06
MS.629         	6.705          	0.062
MS.630         	6.692          	0.062
MS.631         	6.68           	0.066
MS.632         	6.665          	0.089
MS.633         	6.652          	0.083
MS.634         	6.64           	0.066
MS.635         	6.625          	0.087
MS.636         	6.612          	0.087
MS.637         	6.6            	0.083
MS.638         	6.587          	0.091
MS.639         	6.572          	0.083
MS.640         	6.56           	0.06
MS.641         	6.547          	0.089
MS.642         	6.535          	0.089
MS.643         	6.52           	0.091
MS.644         	6.507          	0.083
MS.645         	6.495          	0.093
MS.646         	6.483          	0.093
MS.647         	6.47           	0.087
MS.648         	6.455          	0.087
MS.649         	6.442          	0.095
MS.650         	6.43           	0.093
MS.651         	6.418          	0.091
MS.652         	6.405          	0.085
MS.653         	6.392          	0.091
MS.654         	6.38           	0.091
MS.655         	6.365          	0.085
MS.656         	6.352          	0.083
MS.657         	6.34           	0.091
MS.658         	6.327          	0.091
MS.659         	6.315          	0.087
MS.660         	6.302          	0.077
MS.661         	6.29           	0.087
MS.662         	6.277          	0.093
MS.663         	6.265          	0.089
MS.664         	6.253          	0.093
MS.665         	6.24           	0.093
MS.666         	6.227          	0.081
MS.667         	6.215          	0.093
MS.668         	6.202          	0.087
MS.669         	6.19           	0.089
MS.670         	6.177          	0.079
MS.671         	6.165          	0.091
MS.672         	6.152          	0.089
MS.673         	6.14           	0.095
MS.674         	6.13           	0.105
MS.675         	6.117          	0.101
MS.676         	6.105          	0.107
MS.677         	6.092          	0.079
MS.678         	6.08           	0.081
MS.679         	6.067          	0.083
MS.680         	6.055          	0.083
MS.681         	6.043          	0.089
MS.682         	6.032          	0.087
MS.683         	6.02           	0.111
MS.684         	6.007          	0.081
MS.685         	5.995          	0.075
MS.686         	5.983          	0.089
MS.687         	5.972          	0.111
MS.688         	5.96           	0.095
MS.689         	5.947          	0.111
MS.690         	5.935          	0.103
MS.691         	5.925          	0.077
MS.692         	5.912          	0.093
MS.693         	5.9            	0.111
MS.694         	5.887          	0.099
MS.695         	5.878          	0.066
MS.696         	5.865          	0.081
MS.697         	5.852          	0.093
MS.698         	5.842          	0.113
MS.699         	5.83           	0.077
MS.700         	5.817          	0.089
MS.701         	5.807          	0.097
MS.702         	5.795          	0.079
MS.703         	5.782          	0.109
MS.704         	5.773          	0.089
MS.705         	5.76           	0.107
MS.706         	5.75           	0.091
MS.707         	5.737          	0.091
MS.708         	5.725          	0.091
MS.709         	5.715          	0.093
MS.710         	5.702          	0.083
MS.711         	5.692          	0.085
MS.712         	5.68           	0.091
MS.713         	5.67           	0.087
MS.714         	5.657          	0.089
MS.715         	5.648          	0.089
MS.716         	5.635          	0.089
MS.717         	5.625          	0.087
MS.718         	5.612          	0.085
MS.719         	5.602          	0.085
MS.720         	5.59           	0.091
MS.721         	5.58           	0.085
MS.722         	5.567          	0.089
MS.723         	5.557          	0.093
MS.724         	5.545          	0.089
MS.725         	5.535          	0.089
MS.726         	5.523          	0.087
MS.727         	5.512          	0.093
MS.728         	5.503          	0.089
MS.729         	5.49           	0.087
MS.730         	5.48           	0.087
MS.731         	5.467          	0.101
MS.732         	5.457          	0.091
MS.733         	5.447          	0.089
MS.734         	5.435          	0.087
MS.735         	5.425          	0.085
MS.736         	5.415          	0.095
MS.737         	5.402          	0.087
MS.738         	5.392          	0.103
MS.739         	5.382          	0.093
MS.740         	5.37           	0.091
MS.741         	5.36           	0.103
MS.742         	5.35           	0.091
MS.743         	5.34           	0.087
MS.744         	5.327          	0.099
MS.745         	5.318          	0.087
MS.746         	5.307          	0.097
MS.747         	5.297          	0.105
MS.748         	5.285          	0.099
MS.749         	5.275          	0.099
MS.750         	5.265          	0.099
MS.751         	5.255          	0.087
MS.752         	5.242          	0.103
MS.753         	5.233          	0.099
MS.754         	5.222          	0.103
MS.755         	5.213          	0.103
MS.756         	5.202          	0.105
MS.757         	5.193          	0.103
MS.758         	5.18           	0.101
MS.759         	5.17           	0.103
MS.760         	5.16           	0.097
MS.761         	5.15           	0.034
MS.762         	5.14           	0.036
MS.763         	5.13           	0.105
MS.764         	5.12           	0.034
MS.765         	5.11           	0.101
MS.766         	5.1            	0.105
MS.767         	5.088          	0.103
MS.768         	5.077          	0.103
MS.769         	5.068          	0.036
MS.770         	5.057          	0.105
MS.771         	5.047          	0.103
MS.772         	5.037          	0.103
MS.773         	5.027          	0.034
MS.774         	5.017          	0.101
MS.775         	5.007          	0.036
MS.776         	4.997          	0.038
MS.777         	4.987          	0.097
MS.778         	4.977          	0.034
MS.779         	4.967          	0.101
MS.780         	4.957          	0.105
MS.781         	4.947          	0.034
MS.782         	4.938          	0.101
MS.783         	4.927          	0.036
MS.784         	4.918          	0.034
MS.785         	4.907          	0.034
MS.786         	4.9            	0.036
MS.787         	4.89           	0.038
MS.788         	4.88           	0.04
MS.789         	4.87           	0.038
MS.790         	4.86           	0.034
MS.791         	4.85           	0.038
MS.792         	4.84           	0.032
MS.793         	4.83           	0.038
MS.794         	4.82           	0.036
MS.795         	4.812          	0.036
MS.796         	4.802          	0.038
MS.797         	4.793          	0.04
MS.798         	4.782          	0.036
MS.799         	4.773          	0.038
MS.800         	4.762          	0.034
MS.801         	4.755          	0.034
MS.802         	4.745          	0.032
MS.803         	4.735          	0.034
MS.804         	4.725          	0.034
MS.805         	4.715          	0.034
MS.806         	4.707          	0.034
MS.807         	4.697          	0.034
MS.808         	4.688          	0.032
MS.809         	4.677          	0.038
MS.810         	4.67           	0.034
MS.811         	4.66           	0.036
MS.812         	4.65           	0.038
MS.813         	4.642          	0.034
MS.814         	4.632          	0.038
MS.815         	4.622          	0.034
MS.816         	4.612          	0.03
MS.817         	4.605          	0.034
MS.818         	4.595          	0.034
MS.819         	4.585          	0.04
MS.820         	4.577          	0.038
MS.821         	4.568          	0.038
MS.822         	4.557          	0.038
MS.823         	4.55           	0.038
MS.824         	4.54           	0.032
MS.825         	4.532          	0.038
MS.826         	4.523          	0.038
MS.827         	4.512          	0.036
MS.828         	4.505          	0.038
MS.829         	4.495          	0.038
MS.830         	4.485          	0.034
MS.831         	4.477          	0.034
MS.832         	4.467          	0.038
MS.833         	4.46           	0.036
MS.834         	4.45           	0.034
MS.835         	4.443          	0.04
MS.836         	4.432          	0.034
MS.837         	4.425          	0.034
MS.838         	4.415          	0.038
MS.839         	4.405          	0.034
MS.840         	4.398          	0.004
MS.841         	4.387          	0.038
MS.842         	4.38           	0.004
MS.843         	4.37           	0.036
MS.844         	4.362          	0.038
MS.845         	4.352          	0.038
MS.846         	4.345          	0.038
MS.847         	4.335          	0.036
MS.848         	4.327          	0.034
MS.849         	4.32           	0.002
MS.850         	4.31           	0.036
MS.851         	4.302          	0.006
MS.852         	4.293          	0.036
MS.853         	4.285          	0.038
MS.854         	4.275          	0.004
MS.855         	4.267          	-0.002
MS.856         	4.26           	0.004
MS.857         	4.25           	0.002
MS.858         	4.242          	0.004
MS.859         	4.233          	0.034
MS.860         	4.225          	0.032
MS.861         	4.217          	0.038
MS.862         	4.207          	0.002
MS.863         	4.2            	0.000
MS.864         	4.193          	-0.002
MS.865         	4.182          	0.002
MS.866         	4.175          	0.006
MS.867         	4.165          	-0.002
MS.868         	4.157          	0.000
MS.869         	4.15           	0.000
MS.870         	4.142          	0.000
MS.871         	4.132          	0.004
MS.872         	4.125          	0.000
MS.873         	4.117          	0.036
MS.874         	4.108          	0.002
MS.875         	4.1            	0.008
MS.876         	4.092          	0.000
MS.877         	4.082          	0.000
MS.878         	4.075          	-0.002
MS.879         	4.068          	0.002
MS.880         	4.06           	-0.002
MS.881         	4.05           	0.002
MS.882         	4.043          	0.000
MS.883         	4.035          	-0.002
MS.884         	4.027          	-0.002
MS.885         	4.02           	0.000
MS.886         	4.01           	0.004
MS.887         	4.003          	-0.002
MS.888         	3.995          	0.002
MS.889         	3.987          	0.000
MS.890         	3.98           	-0.004
MS.891         	3.97           	0.000
MS.892         	3.962          	-0.002
MS.893         	3.955          	0.002
MS.894         	3.947          	-0.002
MS.895         	3.94           	0.000
MS.896         	3.932          	0.002
MS.897         	3.922          	0.002
MS.898         	3.915          	0.002
MS.899         	3.908          	-0.002
MS.900         	3.9            	0.000
MS.901         	3.892          	0.002
MS.902         	3.885          	0.002
MS.903         	3.877          	0.004
MS.904         	3.87           	0.004
MS.905         	3.862          	0.002
MS.906         	3.852          	0.000
MS.907         	3.845          	0.002
MS.908         	3.837          	0.004
MS.909         	3.83           	-0.002
MS.910         	3.822          	0.000
MS.911         	3.815          	0.002
MS.912         	3.807          	0.004
MS.913         	3.8            	0.000
MS.914         	3.793          	0.002
MS.915         	3.785          	0.000
MS.916         	3.777          	0.000
MS.917         	3.77           	0.002
MS.918         	3.762          	0.002
MS.919         	3.755          	0.002
MS.920         	3.747          	-0.002
MS.921         	3.74           	0.004
MS.922         	3.732          	0.002
MS.923         	3.725          	-0.002
MS.924         	3.717          	0.000
MS.925         	3.71           	0.004
MS.926         	3.702          	-0.008
MS.927         	3.695          	0.002
MS.928         	3.688          	-0.012
MS.929         	3.68           	0.004
MS.930         	3.672          	-0.012
MS.931         	3.665          	-0.012
MS.932         	3.658          	0.002
MS.933         	3.65           	0.004
MS.934         	3.642          	-0.008
MS.935         	3.637          	-0.006
MS.936         	3.63           	-0.01
MS.937         	3.622          	-0.008
MS.938         	3.615          	0.004
MS.939         	3.607          	-0.008
MS.940         	3.6            	-0.01
MS.941         	3.592          	0.004
MS.942         	3.585          	-0.01
MS.943         	3.577          	0.002
MS.944         	3.572          	-0.01
MS.945         	3.565          	-0.008
MS.946         	3.557          	-0.012
MS.947         	3.55           	-0.006
MS.948         	3.543          	-0.012
MS.949         	3.535          	0.000
MS.950         	3.53           	-0.012
MS.951         	3.523          	-0.008
MS.952         	3.515          	-0.01
MS.953         	3.507          	-0.01
MS.954         	3.5            	-0.006
MS.955         	3.495          	-0.008
MS.956         	3.487          	-0.008
MS.957         	3.48           	-0.01
MS.958         	3.472          	-0.008
MS.959         	3.465          	-0.01
MS.960         	3.46           	-0.01
MS.961         	3.452          	-0.006
MS.962         	3.445          	-0.008
MS.963         	3.438          	-0.01
MS.964         	3.432          	-0.006
MS.965         	3.425          	-0.01
MS.966         	3.418          	-0.008
MS.967         	3.41           	-0.006
MS.968         	3.405          	-0.008
MS.969         	3.398          	-0.008
MS.970         	3.39           	-0.012
MS.971         	3.385          	-0.006
MS.972         	3.377          	-0.008
MS.973         	3.37           	-0.01
MS.974         	3.362          	-0.008
MS.975         	3.357          	-0.01
DERIVED EXCITABILITY VARIABLES
Program = QTracP 9/10/2021
Threshold method = 6 (optimised for CAP, using data for present condition only)
SR method = 1 (using actual data values)
6.                 	0.000               	Peak response\(mV)
9.                 	33                  	Temperature ( C)
17.                	21                  	Age (years)
18.                	1                   	Sex (M=1, F=2)

EXTRA VARIABLES

MScPeak(mV) = 10.1
MScS5(mA) = 4.12
MScS50(mA) = 3.63
MScS95(mA) = 3.52
MScNSteps = 0
MScSteps(%) = 0.0
MScStepMax(%) = 0.0
MScD50 = 31
MScSlope = -4.98
MScDuration(min) = 2.4
MSFTraces = 399
MSFPeakAmp(mV) = 10.1
MSFNUnits = 123
MSFMeanUnitAmp(uV) = 82.3
MSFHuntTime(m) = 1.66
MSFError(%) = 4.55
MSFNLarge = 49.75
MSFMedianAmp(%) = 0.75
MSFMedianAmp(mV) = 0.0759
MSFHalfAmpAmp(%) = 0.794
MSFHalfAmpAmp(mV) = 0.0804
MSFLargestAmp(%) = 1.93
MSFLargestAmp(mV) = 0.195
MSFMeanRS(%) = 2.01
MSFSizeLimit(uV) = 33.7
MSFLimitType = 1
MSFSmallestAmp(uV) = 35.9
MSFOpts = 10104222032
MSFSDMax = 22.7
MSFSDMin = 12.6

EXTRA WAVEFORMS


!MScan Model
!123
	1	9.97	0.57	2
	2	10.13	0.52	2
	3	10.38	0.93	2
	4	10.48	0.82	2
	5	10.57	0.64	2
	6	10.67	0.68	2
	7	10.78	1.03	2
	8	10.88	1.03	2
	9	10.95	0.75	2
	10	11.02	0.74	2
	11	11.06	0.57	2
	12	11.1	0.53	2
	13	11.13	0.68	2
	14	11.18	0.74	2
	15	11.23	0.63	2
	16	11.27	0.72	2
	17	11.32	0.82	2
	18	11.36	0.81	2
	19	11.42	0.88	2
	20	11.47	1	2
	21	11.51	0.66	2
	22	11.54	0.71	2
	23	11.57	0.84	2
	24	11.6	0.76	2
	25	11.63	0.67	2
	26	11.67	0.66	2
	27	11.7	1.04	2
	28	11.73	0.76	2
	29	11.75	0.66	2
	30	11.78	0.74	2
	31	11.8	0.81	2
	32	11.83	0.73	2
	33	11.85	0.71	2
	34	11.87	0.73	2
	35	11.9	0.73	2
	36	11.92	0.74	2
	37	11.94	0.76	2
	38	11.96	0.68	2
	39	11.99	0.62	2
	40	12.01	0.62	2
	41	12.03	0.63	2
	42	12.05	0.64	2
	43	12.07	0.7	2
	44	12.09	0.67	2
	45	12.11	0.66	2
	46	12.13	0.65	2
	47	12.15	0.66	2
	48	12.17	0.68	2
	49	12.19	0.66	2
	50	12.22	0.83	2
	51	12.24	0.8	2
	52	12.26	0.75	2
	53	12.29	0.7	2
	54	12.31	0.75	2
	55	12.34	0.78	2
	56	12.36	0.83	2
	57	12.39	0.89	2
	58	12.41	0.9	2
	59	12.44	0.88	2
	60	12.47	0.94	2
	61	12.5	0.9	2
	62	12.53	0.84	2
	63	12.56	0.78	2
	64	12.58	0.74	2
	65	12.6	0.74	2
	66	12.62	0.76	2
	67	12.64	0.77	2
	68	12.67	0.74	2
	69	12.69	0.73	2
	70	12.72	0.78	2
	71	12.74	0.79	2
	72	12.77	0.79	2
	73	12.79	0.79	2
	74	12.82	0.98	2
	75	12.85	1.06	2
	76	12.88	1.14	2
	77	12.91	1.14	2
	78	12.94	1.1	2
	79	12.97	0.88	2
	80	13	0.82	2
	81	13.03	0.84	2
	82	13.07	1.18	2.4
	83	13.12	1.5	2
	84	13.16	1.26	2
	85	13.2	1.15	2
	86	13.26	1.57	2
	87	13.31	1.44	2
	88	13.36	1.1	2
	89	13.4	1.15	2
	90	13.44	1.09	2
	91	13.48	0.96	2
	92	13.52	0.82	2
	93	13.55	0.79	2
	94	13.59	0.74	2
	95	13.6	0.35	2
	96	13.63	0.67	2
	97	13.66	0.61	2
	98	13.7	0.59	2
	99	13.73	0.62	2
	100	13.77	0.84	2
	101	13.8	0.72	2
	102	13.83	0.6	2
	103	13.86	0.5	2
	104	13.9	0.67	2
	105	13.93	0.68	2
	106	13.97	0.68	2
	107	14.01	0.62	2
	108	14.05	0.74	2
	109	14.11	0.87	2
	110	14.17	0.9	2
	111	14.23	0.82	2
	112	14.29	0.74	2
	113	14.39	1.33	2
	114	14.56	1.93	2
	115	14.69	1.03	2
	116	14.79	0.79	2
	117	14.88	0.68	2
	118	15	0.83	2
	119	15.18	1.05	2
	120	15.3	0.6	2
	121	15.46	0.62	2
	122	15.82	0.65	2
	123	16.18	0.65	2

