File:              	C:\Qtrac\Data\CKMC01028D.QZD
Name:              	DK.COP.NC.6.1
Protocol:          	MSCAN-R2
Date:              	28/10/20
Start time:        	10:20:14
Age:               	43
Sex:               	F
Temperature:       	38.8
S/R sites:         	RMedian Wr-APB
NC/disease:        	NC
Operator:          	CK
Comments:          	CG
RECOVERY CYCLE DATA (0.0-0.0m)
Interval (ms)       	  Threshold change (%)
M-SCAN DATA (7.9-1.4m)
Scanpts: 140, 146, 675, 695
Stim. (mA)     	Amp. (mV)
MS.1           	13             	10.89
MS.2           	13             	10.905
MS.3           	13             	10.921
MS.4           	13             	10.904
MS.5           	13             	10.893
MS.6           	13             	10.887
MS.7           	13             	10.907
MS.8           	13             	10.907
MS.9           	13             	10.934
MS.10          	13             	10.934
MS.11          	13             	10.899
MS.12          	13             	10.912
MS.13          	13             	10.921
MS.14          	13             	10.921
MS.15          	13             	10.951
MS.16          	13             	10.921
MS.17          	13             	10.921
MS.18          	13             	10.933
MS.19          	13             	10.916
MS.20          	13             	10.939
MS.21          	13             	10.921
MS.22          	13             	10.934
MS.23          	13             	10.941
MS.24          	12.95          	10.983
MS.25          	12.92          	10.93
MS.26          	12.895         	10.936
MS.27          	12.87          	10.918
MS.28          	12.845         	10.933
MS.29          	12.82          	10.976
MS.30          	12.795         	10.941
MS.31          	12.77          	10.939
MS.32          	12.745         	10.954
MS.33          	12.715         	10.959
MS.34          	12.69          	10.976
MS.35          	12.665         	10.957
MS.36          	12.64          	10.947
MS.37          	12.615         	10.945
MS.38          	12.59          	10.966
MS.39          	12.565         	10.983
MS.40          	12.54          	10.971
MS.41          	12.515         	10.988
MS.42          	12.49          	10.992
MS.43          	12.465         	10.986
MS.44          	12.44          	10.979
MS.45          	12.415         	11.011
MS.46          	12.39          	10.976
MS.47          	12.365         	10.977
MS.48          	12.34          	10.977
MS.49          	12.315         	11.009
MS.50          	12.29          	10.995
MS.51          	12.265         	10.983
MS.52          	12.245         	11.018
MS.53          	12.22          	11.011
MS.54          	12.195         	11.009
MS.55          	12.17          	10.988
MS.56          	12.145         	10.991
MS.57          	12.12          	11.011
MS.58          	12.095         	10.986
MS.59          	12.075         	11.002
MS.60          	12.05          	10.979
MS.61          	12.025         	10.976
MS.62          	12             	11.002
MS.63          	11.975         	10.988
MS.64          	11.955         	10.989
MS.65          	11.93          	10.985
MS.66          	11.905         	10.994
MS.67          	11.88          	10.982
MS.68          	11.855         	10.983
MS.69          	11.835         	10.988
MS.70          	11.81          	10.995
MS.71          	11.785         	10.96
MS.72          	11.765         	10.985
MS.73          	11.74          	11
MS.74          	11.715         	11.012
MS.75          	11.69          	10.966
MS.76          	11.67          	10.977
MS.77          	11.645         	10.983
MS.78          	11.625         	11.024
MS.79          	11.6           	11.002
MS.80          	11.575         	10.977
MS.81          	11.555         	11.005
MS.82          	11.53          	11.012
MS.83          	11.505         	11.023
MS.84          	11.485         	11
MS.85          	11.46          	11.021
MS.86          	11.44          	11.009
MS.87          	11.415         	10.988
MS.88          	11.39          	11.011
MS.89          	11.37          	10.988
MS.90          	11.345         	11.028
MS.91          	11.325         	10.977
MS.92          	11.3           	10.989
MS.93          	11.28          	10.979
MS.94          	11.255         	11.005
MS.95          	11.235         	11.009
MS.96          	11.21          	11.003
MS.97          	11.19          	11
MS.98          	11.165         	11.002
MS.99          	11.145         	11.002
MS.100         	11.12          	11
MS.101         	11.1           	11.012
MS.102         	11.08          	11.012
MS.103         	11.055         	10.992
MS.104         	11.035         	10.979
MS.105         	11.01          	10.995
MS.106         	10.99          	10.999
MS.107         	10.97          	11.006
MS.108         	10.945         	11.002
MS.109         	10.925         	10.991
MS.110         	10.9           	11.011
MS.111         	10.88          	11.006
MS.112         	10.86          	11.032
MS.113         	10.835         	11.026
MS.114         	10.815         	11.02
MS.115         	10.795         	11.006
MS.116         	10.77          	10.985
MS.117         	10.75          	11
MS.118         	10.73          	11.003
MS.119         	10.71          	11.021
MS.120         	10.685         	11.008
MS.121         	10.665         	11.006
MS.122         	10.645         	11.008
MS.123         	10.62          	11.037
MS.124         	10.6           	11.031
MS.125         	10.58          	11.023
MS.126         	10.56          	11.037
MS.127         	10.54          	11.026
MS.128         	10.515         	11.021
MS.129         	10.495         	11.055
MS.130         	10.475         	11.04
MS.131         	10.455         	11.066
MS.132         	10.435         	11.044
MS.133         	10.41          	11.041
MS.134         	10.39          	11.076
MS.135         	10.37          	11.047
MS.136         	10.35          	11.066
MS.137         	10.33          	11.057
MS.138         	10.31          	11.063
MS.139         	10.29          	11.057
MS.140         	10.265         	11.086
MS.141         	10.245         	11.063
MS.142         	10.225         	11.067
MS.143         	10.205         	11.064
MS.144         	10.185         	11.076
MS.145         	10.165         	11.072
MS.146         	10.145         	11.084
MS.147         	10.125         	11.092
MS.148         	10.105         	11.07
MS.149         	10.085         	11.055
MS.150         	10.065         	11.044
MS.151         	10.045         	11.075
MS.152         	10.025         	11.07
MS.153         	10.005         	11.035
MS.154         	9.985          	11.028
MS.155         	9.965          	11.05
MS.156         	9.945          	11.018
MS.157         	9.925          	11.038
MS.158         	9.905          	11.029
MS.159         	9.885          	11.035
MS.160         	9.865          	11.053
MS.161         	9.845          	11.037
MS.162         	9.825          	11.008
MS.163         	9.805          	11.031
MS.164         	9.785          	11.049
MS.165         	9.765          	11.037
MS.166         	9.745          	11.047
MS.167         	9.725          	11.058
MS.168         	9.71           	11.032
MS.169         	9.69           	11.021
MS.170         	9.67           	11.034
MS.171         	9.65           	11.014
MS.172         	9.63           	11.047
MS.173         	9.61           	11.049
MS.174         	9.59           	11.028
MS.175         	9.575          	11.035
MS.176         	9.555          	11.026
MS.177         	9.535          	11
MS.178         	9.515          	11.011
MS.179         	9.495          	10.997
MS.180         	9.48           	10.989
MS.181         	9.46           	11.002
MS.182         	9.44           	10.977
MS.183         	9.42           	11.015
MS.184         	9.4            	10.986
MS.185         	9.385          	11.023
MS.186         	9.365          	11.026
MS.187         	9.345          	10.994
MS.188         	9.325          	11.003
MS.189         	9.31           	11.034
MS.190         	9.29           	11.041
MS.191         	9.27           	11.014
MS.192         	9.255          	11.053
MS.193         	9.235          	11.035
MS.194         	9.215          	11.038
MS.195         	9.2            	11.04
MS.196         	9.18           	11.038
MS.197         	9.16           	11.049
MS.198         	9.145          	11.018
MS.199         	9.125          	11.049
MS.200         	9.105          	11.055
MS.201         	9.09           	11.047
MS.202         	9.07           	11.057
MS.203         	9.05           	11.04
MS.204         	9.035          	10.968
MS.205         	9.015          	11.061
MS.206         	8.995          	11.024
MS.207         	8.98           	11.055
MS.208         	8.96           	10.921
MS.209         	8.945          	11.041
MS.210         	8.925          	11.038
MS.211         	8.91           	11.064
MS.212         	8.89           	11.031
MS.213         	8.87           	11.069
MS.214         	8.855          	11.064
MS.215         	8.835          	11.073
MS.216         	8.82           	10.948
MS.217         	8.8            	11.063
MS.218         	8.785          	10.945
MS.219         	8.765          	10.93
MS.220         	8.75           	10.954
MS.221         	8.73           	10.954
MS.222         	8.715          	10.977
MS.223         	8.695          	10.931
MS.224         	8.68           	10.957
MS.225         	8.66           	10.95
MS.226         	8.645          	11.064
MS.227         	8.625          	10.944
MS.228         	8.61           	10.983
MS.229         	8.595          	10.966
MS.230         	8.575          	10.962
MS.231         	8.56           	10.922
MS.232         	8.54           	10.971
MS.233         	8.525          	10.898
MS.234         	8.505          	10.95
MS.235         	8.49           	11.02
MS.236         	8.475          	10.973
MS.237         	8.455          	10.945
MS.238         	8.44           	11.034
MS.239         	8.425          	10.933
MS.240         	8.405          	10.89
MS.241         	8.39           	10.931
MS.242         	8.37           	10.927
MS.243         	8.355          	10.905
MS.244         	8.34           	10.896
MS.245         	8.32           	10.916
MS.246         	8.305          	10.834
MS.247         	8.29           	10.883
MS.248         	8.275          	10.901
MS.249         	8.255          	10.931
MS.250         	8.24           	10.899
MS.251         	8.225          	10.901
MS.252         	8.205          	10.841
MS.253         	8.19           	10.869
MS.254         	8.175          	10.486
MS.255         	8.16           	10.876
MS.256         	8.14           	10.872
MS.257         	8.125          	10.844
MS.258         	8.11           	10.887
MS.259         	8.095          	10.86
MS.260         	8.075          	10.867
MS.261         	8.06           	10.468
MS.262         	8.045          	10.826
MS.263         	8.03           	10.451
MS.264         	8.01           	10.411
MS.265         	7.995          	10.336
MS.266         	7.98           	10.381
MS.267         	7.965          	10.388
MS.268         	7.95           	10.504
MS.269         	7.93           	10.333
MS.270         	7.915          	10.587
MS.271         	7.9            	10.437
MS.272         	7.885          	10.344
MS.273         	7.87           	10.214
MS.274         	7.855          	10.136
MS.275         	7.84           	10.123
MS.276         	7.82           	10.39
MS.277         	7.805          	10.083
MS.278         	7.79           	9.846
MS.279         	7.775          	9.84
MS.280         	7.76           	10.275
MS.281         	7.745          	9.833
MS.282         	7.73           	9.845
MS.283         	7.715          	10.077
MS.284         	7.7            	9.569
MS.285         	7.685          	9.825
MS.286         	7.665          	9.843
MS.287         	7.65           	9.663
MS.288         	7.635          	9.624
MS.289         	7.62           	9.737
MS.290         	7.605          	9.396
MS.291         	7.59           	9.63
MS.292         	7.575          	9.348
MS.293         	7.56           	9.236
MS.294         	7.545          	8.972
MS.295         	7.53           	8.867
MS.296         	7.515          	8.907
MS.297         	7.5            	9.096
MS.298         	7.485          	8.89
MS.299         	7.47           	9.163
MS.300         	7.455          	9.589
MS.301         	7.44           	9.28
MS.302         	7.425          	9.268
MS.303         	7.41           	8.85
MS.304         	7.395          	8.443
MS.305         	7.38           	8.658
MS.306         	7.365          	8.727
MS.307         	7.35           	8.521
MS.308         	7.335          	8.231
MS.309         	7.32           	8.278
MS.310         	7.31           	8.438
MS.311         	7.295          	8.324
MS.312         	7.28           	7.819
MS.313         	7.265          	7.613
MS.314         	7.25           	7.436
MS.315         	7.235          	8.037
MS.316         	7.22           	8.372
MS.317         	7.205          	7.811
MS.318         	7.19           	7.237
MS.319         	7.175          	7.025
MS.320         	7.165          	7.283
MS.321         	7.15           	7.419
MS.322         	7.135          	7.196
MS.323         	7.12           	7.362
MS.324         	7.105          	7.126
MS.325         	7.09           	6.7
MS.326         	7.08           	6.665
MS.327         	7.065          	6.508
MS.328         	7.05           	6.572
MS.329         	7.035          	6.413
MS.330         	7.02           	6.726
MS.331         	7.005          	6.311
MS.332         	6.995          	6.1
MS.333         	6.98           	6.464
MS.334         	6.965          	6.366
MS.335         	6.95           	5.93
MS.336         	6.94           	6.393
MS.337         	6.925          	6.259
MS.338         	6.91           	5.934
MS.339         	6.895          	5.856
MS.340         	6.88           	5.522
MS.341         	6.87           	5.835
MS.342         	6.855          	5.801
MS.343         	6.84           	5.746
MS.344         	6.825          	5.582
MS.345         	6.815          	5.229
MS.346         	6.8            	5.049
MS.347         	6.785          	5.141
MS.348         	6.775          	4.614
MS.349         	6.76           	5.232
MS.350         	6.745          	4.591
MS.351         	6.73           	4.083
MS.352         	6.72           	4.028
MS.353         	6.705          	4.622
MS.354         	6.69           	4.352
MS.355         	6.68           	4.532
MS.356         	6.665          	4.402
MS.357         	6.65           	4.471
MS.358         	6.64           	4.514
MS.359         	6.625          	3.932
MS.360         	6.61           	4.004
MS.361         	6.6            	3.725
MS.362         	6.585          	3.671
MS.363         	6.575          	3.88
MS.364         	6.56           	4.163
MS.365         	6.545          	3.687
MS.366         	6.535          	3.575
MS.367         	6.52           	3.604
MS.368         	6.505          	3.577
MS.369         	6.495          	3.397
MS.370         	6.48           	3.387
MS.371         	6.47           	3.456
MS.372         	6.455          	3.232
MS.373         	6.445          	3.226
MS.374         	6.43           	3.497
MS.375         	6.415          	3.36
MS.376         	6.405          	3.398
MS.377         	6.39           	3.293
MS.378         	6.38           	3.252
MS.379         	6.365          	2.957
MS.380         	6.355          	2.783
MS.381         	6.34           	3.084
MS.382         	6.33           	3.073
MS.383         	6.315          	2.841
MS.384         	6.3            	2.888
MS.385         	6.29           	2.695
MS.386         	6.275          	2.844
MS.387         	6.265          	2.835
MS.388         	6.25           	2.921
MS.389         	6.24           	2.829
MS.390         	6.225          	2.629
MS.391         	6.215          	2.597
MS.392         	6.2            	2.55
MS.393         	6.19           	2.521
MS.394         	6.18           	2.307
MS.395         	6.165          	2.397
MS.396         	6.155          	2.446
MS.397         	6.14           	2.31
MS.398         	6.13           	2.502
MS.399         	6.115          	2.242
MS.400         	6.105          	2.24
MS.401         	6.09           	2.304
MS.402         	6.08           	2.191
MS.403         	6.065          	1.99
MS.404         	6.055          	1.997
MS.405         	6.045          	1.851
MS.406         	6.03           	2.13
MS.407         	6.02           	1.791
MS.408         	6.005          	1.634
MS.409         	5.995          	1.814
MS.410         	5.985          	1.704
MS.411         	5.97           	1.973
MS.412         	5.96           	1.979
MS.413         	5.945          	1.846
MS.414         	5.935          	1.733
MS.415         	5.925          	1.72
MS.416         	5.91           	1.831
MS.417         	5.9            	1.956
MS.418         	5.89           	1.904
MS.419         	5.875          	1.895
MS.420         	5.865          	1.888
MS.421         	5.855          	1.616
MS.422         	5.84           	1.456
MS.423         	5.83           	1.591
MS.424         	5.82           	1.633
MS.425         	5.805          	1.437
MS.426         	5.795          	1.276
MS.427         	5.785          	1.332
MS.428         	5.77           	1.343
MS.429         	5.76           	1.346
MS.430         	5.75           	1.274
MS.431         	5.735          	1.262
MS.432         	5.725          	1.164
MS.433         	5.715          	1.122
MS.434         	5.705          	1.128
MS.435         	5.69           	1.056
MS.436         	5.68           	0.977
MS.437         	5.67           	1.022
MS.438         	5.655          	1.151
MS.439         	5.645          	1.091
MS.440         	5.635          	0.804
MS.441         	5.625          	0.92
MS.442         	5.61           	1.157
MS.443         	5.6            	0.797
MS.444         	5.59           	1.045
MS.445         	5.58           	0.98
MS.446         	5.565          	1.025
MS.447         	5.555          	0.731
MS.448         	5.545          	0.76
MS.449         	5.535          	0.85
MS.450         	5.525          	0.81
MS.451         	5.51           	0.9
MS.452         	5.5            	0.807
MS.453         	5.49           	0.848
MS.454         	5.48           	0.691
MS.455         	5.47           	0.78
MS.456         	5.455          	0.827
MS.457         	5.445          	0.61
MS.458         	5.435          	0.684
MS.459         	5.425          	0.62
MS.460         	5.415          	0.621
MS.461         	5.405          	0.658
MS.462         	5.39           	0.566
MS.463         	5.38           	0.47
MS.464         	5.37           	0.499
MS.465         	5.36           	0.401
MS.466         	5.35           	0.636
MS.467         	5.34           	0.493
MS.468         	5.33           	0.603
MS.469         	5.315          	0.584
MS.470         	5.305          	0.423
MS.471         	5.295          	0.377
MS.472         	5.285          	0.325
MS.473         	5.275          	0.406
MS.474         	5.265          	0.366
MS.475         	5.255          	0.322
MS.476         	5.245          	0.462
MS.477         	5.235          	0.456
MS.478         	5.22           	0.433
MS.479         	5.21           	0.371
MS.480         	5.2            	0.317
MS.481         	5.19           	0.33
MS.482         	5.18           	0.354
MS.483         	5.17           	0.346
MS.484         	5.16           	0.327
MS.485         	5.15           	0.278
MS.486         	5.14           	0.304
MS.487         	5.13           	0.279
MS.488         	5.12           	0.313
MS.489         	5.11           	0.293
MS.490         	5.1            	0.261
MS.491         	5.09           	0.204
MS.492         	5.08           	0.247
MS.493         	5.07           	0.301
MS.494         	5.06           	0.322
MS.495         	5.05           	0.211
MS.496         	5.04           	0.287
MS.497         	5.03           	0.246
MS.498         	5.02           	0.278
MS.499         	5.01           	0.258
MS.500         	5              	0.195
MS.501         	4.99           	0.182
MS.502         	4.98           	0.206
MS.503         	4.97           	0.238
MS.504         	4.96           	0.186
MS.505         	4.95           	0.269
MS.506         	4.94           	0.169
MS.507         	4.93           	0.258
MS.508         	4.92           	0.183
MS.509         	4.91           	0.244
MS.510         	4.9            	0.256
MS.511         	4.89           	0.249
MS.512         	4.88           	0.177
MS.513         	4.87           	0.198
MS.514         	4.86           	0.177
MS.515         	4.85           	0.177
MS.516         	4.84           	0.18
MS.517         	4.83           	0.258
MS.518         	4.82           	0.182
MS.519         	4.81           	0.197
MS.520         	4.8            	0.189
MS.521         	4.79           	0.185
MS.522         	4.78           	0.188
MS.523         	4.775          	0.188
MS.524         	4.765          	0.183
MS.525         	4.755          	0.188
MS.526         	4.745          	0.182
MS.527         	4.735          	0.192
MS.528         	4.725          	0.191
MS.529         	4.715          	0.191
MS.530         	4.705          	0.177
MS.531         	4.695          	0.185
MS.532         	4.69           	0.154
MS.533         	4.68           	0.175
MS.534         	4.67           	0.197
MS.535         	4.66           	0.18
MS.536         	4.65           	0.156
MS.537         	4.64           	0.175
MS.538         	4.63           	0.172
MS.539         	4.625          	0.186
MS.540         	4.615          	0.177
MS.541         	4.605          	0.18
MS.542         	4.595          	0.185
MS.543         	4.585          	0.18
MS.544         	4.575          	0.157
MS.545         	4.565          	0.188
MS.546         	4.56           	0.153
MS.547         	4.55           	0.172
MS.548         	4.54           	0.247
MS.549         	4.53           	0.175
MS.550         	4.52           	0.175
MS.551         	4.515          	0.18
MS.552         	4.505          	0.16
MS.553         	4.495          	0.186
MS.554         	4.485          	0.18
MS.555         	4.475          	0.151
MS.556         	4.47           	0.148
MS.557         	4.46           	0.179
MS.558         	4.45           	0.156
MS.559         	4.44           	0.182
MS.560         	4.43           	0.154
MS.561         	4.425          	0.172
MS.562         	4.415          	0.154
MS.563         	4.405          	0.154
MS.564         	4.395          	0.174
MS.565         	4.39           	0.156
MS.566         	4.38           	0.172
MS.567         	4.37           	0.146
MS.568         	4.36           	0.162
MS.569         	4.355          	0.156
MS.570         	4.345          	0.169
MS.571         	4.335          	0.16
MS.572         	4.325          	0.148
MS.573         	4.32           	0.157
MS.574         	4.31           	0.165
MS.575         	4.3            	0.159
MS.576         	4.295          	0.169
MS.577         	4.285          	0.165
MS.578         	4.275          	0.159
MS.579         	4.265          	0.15
MS.580         	4.26           	0.153
MS.581         	4.25           	0.168
MS.582         	4.24           	0.156
MS.583         	4.235          	0.179
MS.584         	4.225          	0.168
MS.585         	4.215          	0.157
MS.586         	4.21           	0.154
MS.587         	4.2            	0.165
MS.588         	4.19           	0.166
MS.589         	4.185          	0.156
MS.590         	4.175          	0.154
MS.591         	4.165          	0.16
MS.592         	4.16           	0.162
MS.593         	4.15           	0.163
MS.594         	4.14           	0.163
MS.595         	4.135          	0.154
MS.596         	4.125          	0.153
MS.597         	4.115          	0.153
MS.598         	4.11           	0.16
MS.599         	4.1            	0.16
MS.600         	4.09           	0.159
MS.601         	4.085          	0.151
MS.602         	4.075          	0.159
MS.603         	4.065          	0.157
MS.604         	4.06           	0.159
MS.605         	4.05           	0.162
MS.606         	4.045          	0.148
MS.607         	4.035          	0.16
MS.608         	4.025          	0.166
MS.609         	4.02           	0.063
MS.610         	4.01           	0.166
MS.611         	4.005          	0.174
MS.612         	3.995          	0.151
MS.613         	3.985          	0.058
MS.614         	3.98           	0.151
MS.615         	3.97           	0.067
MS.616         	3.965          	0.055
MS.617         	3.955          	0.056
MS.618         	3.945          	0.146
MS.619         	3.94           	0.151
MS.620         	3.93           	0.16
MS.621         	3.925          	0.163
MS.622         	3.915          	0.063
MS.623         	3.91           	0.058
MS.624         	3.9            	0.172
MS.625         	3.89           	0.063
MS.626         	3.885          	0.154
MS.627         	3.875          	0.061
MS.628         	3.87           	0.153
MS.629         	3.86           	0.06
MS.630         	3.855          	0.064
MS.631         	3.845          	0.163
MS.632         	3.84           	0.053
MS.633         	3.83           	0.162
MS.634         	3.825          	0.056
MS.635         	3.815          	0.053
MS.636         	3.805          	0.049
MS.637         	3.8            	0.064
MS.638         	3.79           	0.058
MS.639         	3.785          	0.066
MS.640         	3.775          	0.061
MS.641         	3.77           	0.052
MS.642         	3.76           	0.058
MS.643         	3.755          	0.055
MS.644         	3.745          	0.053
MS.645         	3.74           	0.058
MS.646         	3.73           	0.07
MS.647         	3.725          	0.05
MS.648         	3.715          	0.049
MS.649         	3.71           	0.053
MS.650         	3.7            	0.06
MS.651         	3.695          	0.06
MS.652         	3.685          	0.053
MS.653         	3.68           	0.053
MS.654         	3.675          	0.049
MS.655         	3.665          	0.056
MS.656         	3.66           	0.05
MS.657         	3.65           	0.069
MS.658         	3.645          	0.063
MS.659         	3.635          	0.066
MS.660         	3.63           	0.056
MS.661         	3.62           	0.052
MS.662         	3.615          	0.055
MS.663         	3.605          	0.056
MS.664         	3.6            	0.053
MS.665         	3.595          	0.049
MS.666         	3.585          	0.053
MS.667         	3.58           	0.052
MS.668         	3.57           	0.058
MS.669         	3.565          	0.052
MS.670         	3.555          	0.053
MS.671         	3.55           	0.052
MS.672         	3.545          	0.063
MS.673         	3.535          	0.052
MS.674         	3.53           	0.047
MS.675         	3.52           	0.049
MS.676         	3.515          	0.052
MS.677         	3.51           	0.05
MS.678         	3.5            	0.067
MS.679         	3.495          	0.05
MS.680         	3.485          	0.061
MS.681         	3.48           	0.055
MS.682         	3.475          	0.061
MS.683         	3.465          	0.046
MS.684         	3.46           	0.052
MS.685         	3.45           	0.047
MS.686         	3.445          	0.049
MS.687         	3.44           	0.063
MS.688         	3.43           	0.055
MS.689         	3.425          	0.053
MS.690         	3.42           	0.049
MS.691         	3.41           	0.053
MS.692         	3.405          	0.046
MS.693         	3.395          	0.056
MS.694         	3.39           	0.05
MS.695         	3.385          	0.047
DERIVED EXCITABILITY VARIABLES
Program = QTracP 6/7/2018
Threshold method = 6 (optimised for CAP, using data for present condition only)
SR method = 1 (using actual data values)
6.                 	0.000               	Peak response\(mV)
9.                 	38.8                	Temperature ( C)
17.                	43                  	Age (years)
18.                	2                   	Sex (M=1, F=2)

EXTRA VARIABLES

MScPeak(mV) = 10.86
MScS5(mA) = 5.35
MScS50(mA) = 6.82
MScS95(mA) = 7.84
MScNSteps = 4
MScSteps(%) = 11
MScStepMax(%) = 3.9
MSFPeakAmp(mV) = 11
MSFNUnits = 113
MSFMeanUnitAmp(uV) = 97.5
MSFHuntTime(m) = 2.74
MSFError(%) = 3.63
MSFNLarge = 28.19
MSFMedianAmp(%) = 0.653
MSFMedianAmp(mV) = 0.072
MSFHalfAmpAmp(%) = 1.2
MSFHalfAmpAmp(mV) = 0.133
MSFLargestAmp(%) = 4.32
MSFLargestAmp(mV) = 0.476
MSFMeanRS(%) = 2.01
MSFOpts = 10106121
Height = 165
MScDuration(min) = 6.5
MSFTraces = 556
MSFSizeLimit(uV) = 27.6
MSFLimitType = 1
MSFSmallestAmp(uV) = 28.3

EXTRA WAVEFORMS


!MScan Model
!113
	1	3.87	0.61	2
	2	4.17	0.48	2
	3	4.98	0.44	2
	4	5.14	0.72	2
	5	5.2	0.49	2
	6	5.29	0.59	2
	7	5.37	1.22	2
	8	5.41	0.45	2
	9	5.43	0.35	2
	10	5.44	0.34	2
	11	5.46	0.33	2
	12	5.47	0.27	2
	13	5.49	0.4	2
	14	5.55	0.85	2
	15	5.64	1.17	2
	16	5.67	0.33	2
	17	5.69	0.32	2
	18	5.7	0.39	2
	19	5.72	0.61	2
	20	5.74	0.43	2
	21	5.76	0.44	2
	22	5.77	0.29	2
	23	5.78	0.27	2
	24	5.78	0.26	2
	25	5.79	0.38	2
	26	5.8	0.39	2
	27	5.81	0.39	1.6
	28	5.83	0.55	2
	29	5.86	1.1	2
	30	6	1.53	2
	31	6.02	0.41	2
	32	6.04	0.56	2
	33	6.05	0.44	2
	34	6.06	0.55	2
	35	6.07	0.51	2
	36	6.09	0.44	2
	37	6.1	0.44	2
	38	6.12	0.53	2
	39	6.13	0.54	2
	40	6.15	0.53	2
	41	6.16	0.27	2
	42	6.18	0.51	2
	43	6.19	0.36	2
	44	6.2	0.36	2
	45	6.21	0.35	2
	46	6.22	0.35	2
	47	6.28	1.62	2
	48	6.29	0.29	2
	49	6.31	0.38	2
	50	6.32	0.47	2
	51	6.34	0.58	2
	52	6.36	0.7	2
	53	6.39	0.95	2
	54	6.44	1.2	2
	55	6.48	1.21	2
	56	6.51	0.98	2
	57	6.54	1	2
	58	6.56	0.78	2
	59	6.58	1.28	2
	60	6.61	1.27	2
	61	6.68	2.29	2
	62	6.71	1.84	2
	63	6.75	1.84	2
	64	6.76	0.6	2
	65	6.77	0.66	2
	66	6.78	0.8	2
	67	6.79	0.95	2
	68	6.8	1.02	2
	69	6.81	1.1	2
	70	6.83	1.1	2
	71	6.85	0.92	2
	72	6.86	0.81	2
	73	6.87	0.73	2
	74	6.89	0.99	2
	75	6.91	0.96	2
	76	6.93	0.93	2
	77	6.97	1.87	2
	78	7.02	1.56	2
	79	7.03	0.26	2
	80	7.04	0.39	2
	81	7.05	0.6	2
	82	7.06	0.6	2
	83	7.06	0.6	2
	84	7.07	0.55	2
	85	7.09	0.73	2
	86	7.11	1.24	2
	87	7.11	0.92	2
	88	7.13	1.12	2
	89	7.15	1.32	2
	90	7.17	1.52	2
	91	7.21	1.61	2
	92	7.25	2.59	2
	93	7.3	2.91	2
	94	7.33	1.24	2
	95	7.34	1.33	2
	96	7.36	1.29	2
	97	7.54	4.32	2
	98	7.58	1.81	2
	99	7.59	0.65	2
	100	7.6	0.65	2
	101	7.64	1.87	2
	102	7.7	1.63	2
	103	7.76	1.33	2
	104	7.8	0.75	2
	105	7.88	2.14	2
	106	7.99	1.73	2
	107	8.01	0.28	2
	108	8.03	0.27	2
	109	8.05	0.3	2
	110	8.07	2.36	2.4
	111	8.31	0.47	2
	112	8.77	1.08	2
	113	9.92	0.28	2

