File:              	C:\Qtrac\Data\Daniel M Sørensen\MScan multicentre study\Data from centres\Copenhagen\Processed data\RHS01PER02.QZD
Name:              	DK.COP.NC.1.2
Protocol:          	MSCAN-R2
Date:              	5/10/20
Start time:        	14:51:23
Age:               	58
Sex:               	M
Temperature:       	37.2
S/R sites:         	TA
NC/disease:        	NC
Operator:          	CK
Comments:          	MScan2 CK
M-SCAN DATA (6.2-1.2m)
Scanpts: 19, 23, 517, 537
Stim. (mA)     	Amp. (mV)
MS.1           	36             	3.318
MS.2           	36             	3.354
MS.3           	36             	3.288
MS.4           	36             	3.284
MS.5           	36             	3.312
MS.6           	36             	3.314
MS.7           	36             	3.325
MS.8           	36             	3.288
MS.9           	36             	3.326
MS.10          	36             	3.295
MS.11          	36             	3.369
MS.12          	36             	3.339
MS.13          	36             	3.303
MS.14          	36             	3.376
MS.15          	36             	3.302
MS.16          	36             	3.336
MS.17          	36             	3.331
MS.18          	36             	3.328
MS.19          	36             	3.31
MS.20          	36             	3.335
MS.21          	36             	3.295
MS.22          	36             	3.276
MS.23          	36             	3.295
MS.24          	35.855         	3.307
MS.25          	35.785         	3.259
MS.26          	35.715         	3.29
MS.27          	35.64          	3.275
MS.28          	35.57          	3.255
MS.29          	35.5           	3.335
MS.30          	35.43          	3.303
MS.31          	35.36          	3.222
MS.32          	35.285         	3.289
MS.33          	35.215         	3.257
MS.34          	35.145         	3.225
MS.35          	35.075         	3.196
MS.36          	35.005         	3.227
MS.37          	34.935         	3.304
MS.38          	34.865         	3.232
MS.39          	34.795         	3.318
MS.40          	34.725         	3.198
MS.41          	34.66          	3.126
MS.42          	34.59          	3.265
MS.43          	34.52          	3.315
MS.44          	34.45          	3.17
MS.45          	34.38          	3.24
MS.46          	34.315         	3.157
MS.47          	34.245         	3.188
MS.48          	34.175         	3.101
MS.49          	34.105         	3.168
MS.50          	34.04          	3.158
MS.51          	33.97          	3.173
MS.52          	33.905         	3.145
MS.53          	33.835         	3.149
MS.54          	33.77          	3.125
MS.55          	33.7           	3.057
MS.56          	33.635         	3.134
MS.57          	33.565         	3.168
MS.58          	33.5           	3.126
MS.59          	33.43          	3.157
MS.60          	33.365         	3.14
MS.61          	33.3           	3.139
MS.62          	33.23          	3.079
MS.63          	33.165         	3.108
MS.64          	33.1           	3.075
MS.65          	33.035         	3.093
MS.66          	32.965         	3.099
MS.67          	32.9           	3.103
MS.68          	32.835         	3.107
MS.69          	32.77          	3.055
MS.70          	32.705         	3.109
MS.71          	32.64          	3.095
MS.72          	32.575         	3.043
MS.73          	32.51          	3.093
MS.74          	32.445         	3.071
MS.75          	32.38          	3.045
MS.76          	32.315         	3.089
MS.77          	32.25          	3.04
MS.78          	32.185         	3.035
MS.79          	32.12          	2.957
MS.80          	32.055         	2.975
MS.81          	31.995         	3.026
MS.82          	31.93          	2.983
MS.83          	31.865         	2.966
MS.84          	31.8           	3.031
MS.85          	31.74          	3.047
MS.86          	31.675         	2.983
MS.87          	31.61          	2.985
MS.88          	31.55          	2.989
MS.89          	31.485         	2.884
MS.90          	31.42          	2.846
MS.91          	31.36          	2.886
MS.92          	31.295         	2.836
MS.93          	31.235         	2.792
MS.94          	31.17          	2.829
MS.95          	31.11          	2.81
MS.96          	31.045         	2.819
MS.97          	30.985         	2.789
MS.98          	30.925         	2.768
MS.99          	30.86          	2.784
MS.100         	30.8           	2.748
MS.101         	30.74          	2.78
MS.102         	30.675         	2.692
MS.103         	30.615         	2.725
MS.104         	30.555         	2.756
MS.105         	30.495         	2.745
MS.106         	30.435         	2.696
MS.107         	30.37          	2.725
MS.108         	30.31          	2.712
MS.109         	30.25          	2.754
MS.110         	30.19          	2.636
MS.111         	30.13          	2.631
MS.112         	30.07          	2.603
MS.113         	30.01          	2.598
MS.114         	29.95          	2.608
MS.115         	29.89          	2.626
MS.116         	29.83          	2.597
MS.117         	29.77          	2.591
MS.118         	29.71          	2.648
MS.119         	29.65          	2.578
MS.120         	29.59          	2.567
MS.121         	29.535         	2.585
MS.122         	29.475         	2.601
MS.123         	29.415         	2.565
MS.124         	29.355         	2.576
MS.125         	29.3           	2.563
MS.126         	29.24          	2.537
MS.127         	29.18          	2.528
MS.128         	29.125         	2.523
MS.129         	29.065         	2.547
MS.130         	29.005         	2.53
MS.131         	28.95          	2.52
MS.132         	28.89          	2.499
MS.133         	28.835         	2.513
MS.134         	28.775         	2.538
MS.135         	28.72          	2.527
MS.136         	28.66          	2.507
MS.137         	28.605         	2.505
MS.138         	28.545         	2.465
MS.139         	28.49          	2.467
MS.140         	28.43          	2.485
MS.141         	28.375         	2.5
MS.142         	28.32          	2.456
MS.143         	28.26          	2.412
MS.144         	28.205         	2.474
MS.145         	28.15          	2.444
MS.146         	28.095         	2.414
MS.147         	28.035         	2.386
MS.148         	27.98          	2.439
MS.149         	27.925         	2.374
MS.150         	27.87          	2.399
MS.151         	27.815         	2.399
MS.152         	27.76          	2.383
MS.153         	27.7           	2.372
MS.154         	27.645         	2.333
MS.155         	27.59          	2.342
MS.156         	27.535         	2.36
MS.157         	27.48          	2.325
MS.158         	27.425         	2.326
MS.159         	27.37          	2.321
MS.160         	27.315         	2.313
MS.161         	27.265         	2.312
MS.162         	27.21          	2.277
MS.163         	27.155         	2.276
MS.164         	27.1           	2.3
MS.165         	27.045         	2.272
MS.166         	26.99          	2.271
MS.167         	26.935         	2.274
MS.168         	26.885         	2.261
MS.169         	26.83          	2.245
MS.170         	26.775         	2.293
MS.171         	26.725         	2.256
MS.172         	26.67          	2.261
MS.173         	26.615         	2.234
MS.174         	26.565         	2.217
MS.175         	26.51          	2.196
MS.176         	26.455         	2.164
MS.177         	26.405         	2.219
MS.178         	26.35          	2.231
MS.179         	26.3           	2.182
MS.180         	26.245         	2.184
MS.181         	26.195         	2.205
MS.182         	26.14          	2.179
MS.183         	26.09          	2.184
MS.184         	26.035         	2.147
MS.185         	25.985         	2.148
MS.186         	25.935         	2.17
MS.187         	25.88          	2.151
MS.188         	25.83          	2.084
MS.189         	25.78          	2.125
MS.190         	25.725         	2.079
MS.191         	25.675         	2.114
MS.192         	25.625         	2.061
MS.193         	25.57          	2.02
MS.194         	25.52          	2.027
MS.195         	25.47          	2.014
MS.196         	25.42          	2.052
MS.197         	25.37          	2.004
MS.198         	25.32          	1.992
MS.199         	25.265         	1.994
MS.200         	25.215         	2.011
MS.201         	25.165         	1.978
MS.202         	25.115         	1.988
MS.203         	25.065         	1.946
MS.204         	25.015         	1.987
MS.205         	24.965         	1.978
MS.206         	24.915         	1.96
MS.207         	24.865         	1.928
MS.208         	24.815         	1.931
MS.209         	24.765         	1.909
MS.210         	24.72          	1.871
MS.211         	24.67          	1.91
MS.212         	24.62          	1.945
MS.213         	24.57          	1.934
MS.214         	24.52          	1.898
MS.215         	24.47          	1.843
MS.216         	24.425         	1.869
MS.217         	24.375         	1.865
MS.218         	24.325         	1.88
MS.219         	24.275         	1.871
MS.220         	24.23          	1.89
MS.221         	24.18          	1.778
MS.222         	24.13          	1.838
MS.223         	24.085         	1.807
MS.224         	24.035         	1.801
MS.225         	23.985         	1.792
MS.226         	23.94          	1.698
MS.227         	23.89          	1.753
MS.228         	23.845         	1.678
MS.229         	23.795         	1.776
MS.230         	23.75          	1.638
MS.231         	23.7           	1.724
MS.232         	23.655         	1.761
MS.233         	23.605         	1.664
MS.234         	23.56          	1.563
MS.235         	23.51          	1.615
MS.236         	23.465         	1.536
MS.237         	23.42          	1.596
MS.238         	23.37          	1.563
MS.239         	23.325         	1.526
MS.240         	23.28          	1.713
MS.241         	23.23          	1.562
MS.242         	23.185         	1.576
MS.243         	23.14          	1.524
MS.244         	23.095         	1.492
MS.245         	23.045         	1.5
MS.246         	23             	1.498
MS.247         	22.955         	1.482
MS.248         	22.91          	1.491
MS.249         	22.865         	1.489
MS.250         	22.815         	1.453
MS.251         	22.77          	1.45
MS.252         	22.725         	1.432
MS.253         	22.68          	1.445
MS.254         	22.635         	1.416
MS.255         	22.59          	1.389
MS.256         	22.545         	1.375
MS.257         	22.5           	1.402
MS.258         	22.455         	1.371
MS.259         	22.41          	1.378
MS.260         	22.365         	1.378
MS.261         	22.32          	1.371
MS.262         	22.275         	1.336
MS.263         	22.23          	1.296
MS.264         	22.185         	1.339
MS.265         	22.145         	1.301
MS.266         	22.1           	1.316
MS.267         	22.055         	1.298
MS.268         	22.01          	1.295
MS.269         	21.965         	1.299
MS.270         	21.925         	1.27
MS.271         	21.88          	1.305
MS.272         	21.835         	1.32
MS.273         	21.79          	1.207
MS.274         	21.75          	1.227
MS.275         	21.705         	1.286
MS.276         	21.66          	1.321
MS.277         	21.62          	1.306
MS.278         	21.575         	1.172
MS.279         	21.53          	1.296
MS.280         	21.49          	1.208
MS.281         	21.445         	1.288
MS.282         	21.405         	1.201
MS.283         	21.36          	1.249
MS.284         	21.315         	1.232
MS.285         	21.275         	1.199
MS.286         	21.23          	1.264
MS.287         	21.19          	1.238
MS.288         	21.145         	1.189
MS.289         	21.105         	1.143
MS.290         	21.065         	1.197
MS.291         	21.02          	1.137
MS.292         	20.98          	1.167
MS.293         	20.935         	1.129
MS.294         	20.895         	1.171
MS.295         	20.855         	1.138
MS.296         	20.81          	1.119
MS.297         	20.77          	1.13
MS.298         	20.73          	1.123
MS.299         	20.685         	1.109
MS.300         	20.645         	1.044
MS.301         	20.605         	1.073
MS.302         	20.565         	1.08
MS.303         	20.52          	1.046
MS.304         	20.48          	1.048
MS.305         	20.44          	1.028
MS.306         	20.4           	1.026
MS.307         	20.36          	1.031
MS.308         	20.32          	0.981
MS.309         	20.28          	0.986
MS.310         	20.235         	1.014
MS.311         	20.195         	0.974
MS.312         	20.155         	0.977
MS.313         	20.115         	0.938
MS.314         	20.075         	0.987
MS.315         	20.035         	0.948
MS.316         	19.995         	0.939
MS.317         	19.955         	0.911
MS.318         	19.915         	0.915
MS.319         	19.875         	0.848
MS.320         	19.835         	0.885
MS.321         	19.795         	0.87
MS.322         	19.755         	0.883
MS.323         	19.72          	0.844
MS.324         	19.68          	0.817
MS.325         	19.64          	0.815
MS.326         	19.6           	0.84
MS.327         	19.56          	0.792
MS.328         	19.52          	0.774
MS.329         	19.48          	0.748
MS.330         	19.445         	0.782
MS.331         	19.405         	0.766
MS.332         	19.365         	0.717
MS.333         	19.325         	0.742
MS.334         	19.29          	0.726
MS.335         	19.25          	0.709
MS.336         	19.21          	0.715
MS.337         	19.175         	0.68
MS.338         	19.135         	0.676
MS.339         	19.095         	0.632
MS.340         	19.06          	0.662
MS.341         	19.02          	0.618
MS.342         	18.98          	0.621
MS.343         	18.945         	0.604
MS.344         	18.905         	0.591
MS.345         	18.87          	0.612
MS.346         	18.83          	0.599
MS.347         	18.795         	0.574
MS.348         	18.755         	0.582
MS.349         	18.72          	0.58
MS.350         	18.68          	0.524
MS.351         	18.645         	0.525
MS.352         	18.605         	0.457
MS.353         	18.57          	0.531
MS.354         	18.53          	0.522
MS.355         	18.495         	0.54
MS.356         	18.46          	0.478
MS.357         	18.42          	0.493
MS.358         	18.385         	0.462
MS.359         	18.35          	0.459
MS.360         	18.31          	0.439
MS.361         	18.275         	0.457
MS.362         	18.24          	0.439
MS.363         	18.2           	0.433
MS.364         	18.165         	0.455
MS.365         	18.13          	0.469
MS.366         	18.095         	0.457
MS.367         	18.055         	0.339
MS.368         	18.02          	0.389
MS.369         	17.985         	0.374
MS.370         	17.95          	0.37
MS.371         	17.915         	0.425
MS.372         	17.875         	0.35
MS.373         	17.84          	0.364
MS.374         	17.805         	0.319
MS.375         	17.77          	0.35
MS.376         	17.735         	0.317
MS.377         	17.7           	0.334
MS.378         	17.665         	0.37
MS.379         	17.63          	0.275
MS.380         	17.595         	0.302
MS.381         	17.56          	0.291
MS.382         	17.525         	0.299
MS.383         	17.49          	0.28
MS.384         	17.455         	0.264
MS.385         	17.42          	0.286
MS.386         	17.385         	0.262
MS.387         	17.35          	0.25
MS.388         	17.315         	0.258
MS.389         	17.28          	0.261
MS.390         	17.245         	0.24
MS.391         	17.21          	0.242
MS.392         	17.175         	0.254
MS.393         	17.14          	0.234
MS.394         	17.105         	0.228
MS.395         	17.075         	0.223
MS.396         	17.04          	0.217
MS.397         	17.005         	0.212
MS.398         	16.97          	0.214
MS.399         	16.935         	0.225
MS.400         	16.905         	0.211
MS.401         	16.87          	0.212
MS.402         	16.835         	0.227
MS.403         	16.8           	0.214
MS.404         	16.77          	0.204
MS.405         	16.735         	0.194
MS.406         	16.7           	0.194
MS.407         	16.67          	0.196
MS.408         	16.635         	0.178
MS.409         	16.6           	0.143
MS.410         	16.57          	0.139
MS.411         	16.535         	0.167
MS.412         	16.505         	0.062
MS.413         	16.47          	0.171
MS.414         	16.435         	0.056
MS.415         	16.405         	0.073
MS.416         	16.37          	0.134
MS.417         	16.34          	0.066
MS.418         	16.305         	0.136
MS.419         	16.275         	0.126
MS.420         	16.24          	0.056
MS.421         	16.21          	0.053
MS.422         	16.175         	0.054
MS.423         	16.145         	0.016
MS.424         	16.11          	0.043
MS.425         	16.08          	0.044
MS.426         	16.045         	0.042
MS.427         	16.015         	0.044
MS.428         	15.985         	0.039
MS.429         	15.95          	0.051
MS.430         	15.92          	0.056
MS.431         	15.885         	0.041
MS.432         	15.855         	0.041
MS.433         	15.825         	0.013
MS.434         	15.79          	0.017
MS.435         	15.76          	0.05
MS.436         	15.73          	0.035
MS.437         	15.7           	0.037
MS.438         	15.665         	0.005
MS.439         	15.635         	0.039
MS.440         	15.605         	0.034
MS.441         	15.575         	0.039
MS.442         	15.54          	0.013
MS.443         	15.51          	0.042
MS.444         	15.48          	0.012
MS.445         	15.45          	0.007
MS.446         	15.42          	0.061
MS.447         	15.385         	0.01
MS.448         	15.355         	0.012
MS.449         	15.325         	0.021
MS.450         	15.295         	0.024
MS.451         	15.265         	0.021
MS.452         	15.235         	0.007
MS.453         	15.205         	0.021
MS.454         	15.175         	0.015
MS.455         	15.145         	0.027
MS.456         	15.11          	0.024
MS.457         	15.08          	0.023
MS.458         	15.05          	0.019
MS.459         	15.02          	0.025
MS.460         	14.99          	0.062
MS.461         	14.96          	0.026
MS.462         	14.93          	0.018
MS.463         	14.9           	0.027
MS.464         	14.875         	0.031
MS.465         	14.845         	0.046
MS.466         	14.815         	0.045
MS.467         	14.785         	0.018
MS.468         	14.755         	0.016
MS.469         	14.725         	0.049
MS.470         	14.695         	0.001
MS.471         	14.665         	0.02
MS.472         	14.635         	0.049
MS.473         	14.605         	0.006
MS.474         	14.58          	0.052
MS.475         	14.55          	0.023
MS.476         	14.52          	0.044
MS.477         	14.49          	0.021
MS.478         	14.46          	0.024
MS.479         	14.435         	0.018
MS.480         	14.405         	0.021
MS.481         	14.375         	0.029
MS.482         	14.345         	0.051
MS.483         	14.32          	0.018
MS.484         	14.29          	0.021
MS.485         	14.26          	0.024
MS.486         	14.23          	0.022
MS.487         	14.205         	0.021
MS.488         	14.175         	0.001
MS.489         	14.145         	0.021
MS.490         	14.12          	0.02
MS.491         	14.09          	0.019
MS.492         	14.065         	0.024
MS.493         	14.035         	0.016
MS.494         	14.005         	0.016
MS.495         	13.98          	0.023
MS.496         	13.95          	0.023
MS.497         	13.925         	0.016
MS.498         	13.895         	0.019
MS.499         	13.865         	0.018
MS.500         	13.84          	0.015
MS.501         	13.81          	0.021
MS.502         	13.785         	0.022
MS.503         	13.755         	0.018
MS.504         	13.73          	0.021
MS.505         	13.7           	0.016
MS.506         	13.675         	0.018
MS.507         	13.645         	0.018
MS.508         	13.62          	0.021
MS.509         	13.59          	0.018
MS.510         	13.565         	0.018
MS.511         	13.54          	0.018
MS.512         	13.51          	0.017
MS.513         	13.485         	0.009
MS.514         	13.455         	0.021
MS.515         	13.43          	0.017
MS.516         	13.405         	0.02
MS.517         	13.375         	0.019
MS.518         	13.35          	0.016
MS.519         	13.325         	0.01
MS.520         	13.295         	0.011
MS.521         	13.27          	0.01
MS.522         	13.245         	0.013
MS.523         	13.215         	0.021
MS.524         	13.19          	0.021
MS.525         	13.165         	0.019
MS.526         	13.14          	0.01
MS.527         	13.11          	0.022
MS.528         	13.085         	0.011
MS.529         	13.06          	0.021
MS.530         	13.035         	0.018
MS.531         	13.005         	0.018
MS.532         	12.98          	0.019
MS.533         	12.955         	0.01
MS.534         	12.93          	0.015
MS.535         	12.905         	0.007
MS.536         	12.88          	0.016
MS.537         	12.85          	0.012
DERIVED EXCITABILITY VARIABLES
Program = QTracP 3/4/2020
Threshold method = 6 (optimised for CAP, using data for present condition only)
SR method = 1 (using actual data values)
6.                 	0.000               	Peak response\(mV)
9.                 	37.2                	Temperature ( C)
17.                	58                  	Age (years)
18.                	1                   	Sex (M=1, F=2)

EXTRA VARIABLES

MScPeak(mV) = 3.3
MScS5(mA) = 16.53
MScS50(mA) = 23.53
MScS95(mA) = 33.93
MScNSteps = 1
MScSteps(%) = 2.1
MScStepMax(%) = 2.1
MScD50 = 75
MScSlope = 2.67
Height = 196
MSFPeakAmp(mV) = 3.29
MSFNUnits = 167
MSFMeanUnitAmp(uV) = 19.7
MSFHuntTime(m) = 2.77
MSFError(%) = 1.1
MSFNLarge = 41.82
MSFMedianAmp(%) = 0.457
MSFMedianAmp(mV) = 0.015
MSFHalfAmpAmp(%) = 0.671
MSFHalfAmpAmp(mV) = 0.0221
MSFLargestAmp(%) = 3.22
MSFLargestAmp(mV) = 0.106
MSFMeanRS(%) = 2
MSFOpts = 10106121
MScDuration(min) = 5
MSFTraces = 519
MSFSizeLimit(uV) = 8.2
MSFLimitType = 1
MSFSmallestAmp(uV) = 8.38

EXTRA WAVEFORMS


!MScan Model
!167
	1	14.34	0.48	2
	2	16.07	0.61	2
	3	16.31	0.51	2
	4	16.38	1.56	2
	5	16.47	0.55	2
	6	16.57	0.8	2
	7	16.63	0.49	2
	8	16.69	0.4	2
	9	16.91	0.95	2
	10	17.18	0.51	2
	11	17.3	0.47	2
	12	17.39	0.41	2
	13	17.49	0.42	2
	14	17.58	0.57	2
	15	17.68	0.69	2
	16	17.79	0.7	2
	17	17.89	0.67	2
	18	18.02	1	2
	19	18.17	0.92	2
	20	18.3	0.96	2
	21	18.4	0.54	2
	22	18.5	0.62	2
	23	18.59	0.76	2
	24	18.68	0.72	2
	25	18.73	0.51	2
	26	18.83	0.5	2
	27	18.89	0.5	2
	28	18.93	0.35	2
	29	18.96	0.48	2
	30	19.02	0.44	2
	31	19.05	0.33	2
	32	19.09	0.37	2
	33	19.13	0.35	2
	34	19.18	0.35	2
	35	19.22	0.42	2
	36	19.25	0.26	2
	37	19.27	0.26	2
	38	19.3	0.27	2
	39	19.33	0.29	2
	40	19.38	0.49	2
	41	19.44	0.45	2
	42	19.47	0.29	2
	43	19.51	0.31	2
	44	19.55	0.32	2
	45	19.58	0.33	2
	46	19.62	0.29	2
	47	19.65	0.26	2
	48	19.67	0.26	2
	49	19.7	0.3	2
	50	19.73	0.33	2
	51	19.76	0.34	2
	52	19.79	0.28	2
	53	19.82	0.28	2
	54	19.85	0.33	2
	55	19.89	0.36	2
	56	19.93	0.32	2
	57	19.97	0.33	2
	58	20.01	0.34	2
	59	20.05	0.34	2
	60	20.09	0.33	2
	61	20.13	0.33	2
	62	20.17	0.3	2
	63	20.22	0.27	2
	64	20.26	0.28	2
	65	20.3	0.29	2
	66	20.34	0.29	2
	67	20.39	0.41	2
	68	20.48	0.53	2
	69	20.51	0.29	2
	70	20.54	0.27	2
	71	20.57	0.25	2
	72	20.64	0.49	2
	73	20.72	0.56	2
	74	20.82	0.6	2
	75	20.92	0.71	2
	76	21.03	0.79	2
	77	21.18	1.48	2
	78	21.96	2.44	2
	79	22.08	0.48	2
	80	22.15	0.29	2
	81	22.26	0.44	2
	82	22.31	0.29	2
	83	22.37	0.32	2
	84	22.43	0.41	2
	85	22.46	0.25	2
	86	22.49	0.25	2
	87	22.56	0.44	2
	88	22.6	0.29	2
	89	22.65	0.28	2
	90	22.74	0.5	2
	91	22.78	0.29	2
	92	22.85	0.46	2
	93	23.07	1.93	2
	94	23.49	3.22	2
	95	23.64	0.86	2
	96	23.8	1.62	2
	97	23.97	1.89	2
	98	24.07	0.75	2
	99	24.17	0.68	2
	100	24.38	1.51	2
	101	24.53	0.63	2
	102	24.65	0.58	2
	103	24.77	0.63	2
	104	24.88	0.44	2
	105	24.99	0.53	2
	106	25.1	0.52	2
	107	25.21	0.44	2
	108	25.27	0.26	2
	109	25.33	0.32	2
	110	25.39	0.35	2
	111	25.45	0.32	2
	112	25.49	0.29	2
	113	25.54	0.3	2
	114	25.59	0.29	2
	115	25.64	0.31	2
	116	25.69	0.37	2
	117	25.75	0.4	2
	118	25.81	0.46	2
	119	25.87	0.46	2
	120	25.93	0.36	2
	121	26.26	1.5	2
	122	26.44	0.81	2
	123	26.57	0.49	2
	124	26.69	0.3	2
	125	26.85	0.69	2
	126	27.01	0.57	2
	127	27.13	0.3	2
	128	27.54	0.34	2
	129	27.61	0.31	2
	130	27.68	0.33	2
	131	27.75	0.33	2
	132	27.82	0.35	2
	133	27.9	0.42	2
	134	28.02	0.55	2
	135	28.13	0.48	2
	136	28.22	0.39	2
	137	28.31	0.32	2
	138	28.4	0.45	2
	139	28.43	1.48	2
	140	28.55	0.65	2
	141	28.74	0.56	2
	142	28.96	0.59	2
	143	29.17	0.39	2
	144	29.28	0.34	2
	145	29.45	0.75	2
	146	29.74	0.88	2
	147	30.04	0.34	2.4
	148	30.12	0.49	2
	149	30.22	0.7	2
	150	30.4	0.78	2
	151	30.53	0.68	2
	152	30.64	0.59	2
	153	30.76	0.53	2
	154	30.89	0.52	2
	155	31.02	0.49	2
	156	31.06	0.79	2
	157	31.1	0.38	2
	158	31.18	0.54	2
	159	31.25	0.76	2
	160	31.33	0.78	2
	161	31.4	0.75	2
	162	31.67	1.59	2
	163	32.21	2.42	2
	164	32.8	1.76	2
	165	33.9	1.79	2
	166	35.3	2.17	2
	167	35.3	1.45	2

