File:              	C:\Qtrac\Data\CKMC00922B.QZD
Name:              	DK.COP.NC.1.1
Protocol:          	MSCAN-R2
Date:              	22/9/20
Start time:        	14:26:10
Age:               	58
Sex:               	M
Temperature:       	37.6
S/R sites:         	RUln Wr-ADQ
NC/disease:        	NC
Operator:          	CK
Comments:          	CK
M-SCAN DATA (6-1.1m)
Scanpts: 55, 62, 518, 538
Stim. (mA)     	Amp. (mV)
MS.1           	45             	7.21
MS.2           	45             	7.204
MS.3           	45             	7.184
MS.4           	45             	7.192
MS.5           	45             	7.231
MS.6           	45             	7.216
MS.7           	45             	7.206
MS.8           	45             	7.234
MS.9           	45             	7.206
MS.10          	45             	7.223
MS.11          	45             	7.245
MS.12          	45             	7.234
MS.13          	45             	7.227
MS.14          	45             	7.277
MS.15          	45             	7.243
MS.16          	45             	7.244
MS.17          	45             	7.234
MS.18          	45             	7.225
MS.19          	45             	7.241
MS.20          	45             	7.248
MS.21          	45             	7.255
MS.22          	45             	7.223
MS.23          	45             	7.204
MS.24          	44.82          	7.212
MS.25          	44.73          	7.216
MS.26          	44.64          	7.225
MS.27          	44.55          	7.221
MS.28          	44.465         	7.239
MS.29          	44.375         	7.255
MS.30          	44.285         	7.247
MS.31          	44.195         	7.245
MS.32          	44.11          	7.264
MS.33          	44.02          	7.242
MS.34          	43.935         	7.269
MS.35          	43.845         	7.271
MS.36          	43.755         	7.272
MS.37          	43.67          	7.325
MS.38          	43.585         	7.344
MS.39          	43.495         	7.34
MS.40          	43.41          	7.355
MS.41          	43.32          	7.339
MS.42          	43.235         	7.325
MS.43          	43.15          	7.367
MS.44          	43.065         	7.336
MS.45          	42.975         	7.369
MS.46          	42.89          	7.39
MS.47          	42.805         	7.366
MS.48          	42.72          	7.352
MS.49          	42.635         	7.396
MS.50          	42.55          	7.414
MS.51          	42.465         	7.386
MS.52          	42.38          	7.396
MS.53          	42.295         	7.379
MS.54          	42.21          	7.395
MS.55          	42.125         	7.41
MS.56          	42.04          	7.411
MS.57          	41.96          	7.386
MS.58          	41.875         	7.391
MS.59          	41.79          	7.4
MS.60          	41.705         	7.398
MS.61          	41.625         	7.375
MS.62          	41.54          	7.396
MS.63          	41.455         	7.407
MS.64          	41.375         	7.396
MS.65          	41.29          	7.38
MS.66          	41.21          	7.433
MS.67          	41.125         	7.394
MS.68          	41.045         	7.389
MS.69          	40.965         	7.422
MS.70          	40.88          	7.381
MS.71          	40.8           	7.392
MS.72          	40.72          	7.308
MS.73          	40.635         	7.383
MS.74          	40.555         	7.371
MS.75          	40.475         	7.393
MS.76          	40.395         	7.394
MS.77          	40.31          	7.37
MS.78          	40.23          	7.36
MS.79          	40.15          	7.384
MS.80          	40.07          	7.35
MS.81          	39.99          	7.399
MS.82          	39.91          	7.372
MS.83          	39.83          	7.428
MS.84          	39.75          	7.282
MS.85          	39.675         	7.386
MS.86          	39.595         	7.244
MS.87          	39.515         	7.264
MS.88          	39.435         	7.391
MS.89          	39.355         	7.284
MS.90          	39.28          	7.284
MS.91          	39.2           	7.183
MS.92          	39.12          	7.244
MS.93          	39.045         	7.178
MS.94          	38.965         	7.138
MS.95          	38.885         	7.292
MS.96          	38.81          	7.18
MS.97          	38.73          	7.137
MS.98          	38.655         	7.147
MS.99          	38.575         	7.294
MS.100         	38.5           	7.214
MS.101         	38.425         	7.234
MS.102         	38.345         	7.195
MS.103         	38.27          	7.103
MS.104         	38.195         	7.103
MS.105         	38.115         	7.206
MS.106         	38.04          	7.136
MS.107         	37.965         	7.045
MS.108         	37.89          	7.054
MS.109         	37.815         	7.072
MS.110         	37.74          	7.115
MS.111         	37.66          	7.136
MS.112         	37.585         	7.104
MS.113         	37.51          	6.927
MS.114         	37.435         	7.15
MS.115         	37.36          	7.085
MS.116         	37.29          	7.056
MS.117         	37.215         	7.073
MS.118         	37.14          	7.051
MS.119         	37.065         	6.987
MS.120         	36.99          	7.15
MS.121         	36.915         	6.922
MS.122         	36.845         	6.859
MS.123         	36.77          	6.938
MS.124         	36.695         	6.976
MS.125         	36.62          	6.874
MS.126         	36.55          	6.97
MS.127         	36.475         	6.855
MS.128         	36.405         	7.009
MS.129         	36.33          	7
MS.130         	36.26          	6.973
MS.131         	36.185         	6.87
MS.132         	36.115         	7.014
MS.133         	36.04          	6.835
MS.134         	35.97          	6.82
MS.135         	35.895         	6.95
MS.136         	35.825         	6.813
MS.137         	35.755         	6.841
MS.138         	35.68          	6.767
MS.139         	35.61          	6.769
MS.140         	35.54          	6.763
MS.141         	35.47          	6.768
MS.142         	35.4           	6.728
MS.143         	35.325         	6.704
MS.144         	35.255         	6.799
MS.145         	35.185         	6.738
MS.146         	35.115         	6.746
MS.147         	35.045         	6.779
MS.148         	34.975         	6.761
MS.149         	34.905         	6.757
MS.150         	34.835         	6.747
MS.151         	34.765         	6.729
MS.152         	34.695         	6.762
MS.153         	34.63          	6.68
MS.154         	34.56          	6.751
MS.155         	34.49          	6.734
MS.156         	34.42          	6.712
MS.157         	34.35          	6.705
MS.158         	34.285         	6.677
MS.159         	34.215         	6.71
MS.160         	34.145         	6.658
MS.161         	34.08          	6.627
MS.162         	34.01          	6.678
MS.163         	33.94          	6.642
MS.164         	33.875         	6.633
MS.165         	33.805         	6.621
MS.166         	33.74          	6.607
MS.167         	33.67          	6.619
MS.168         	33.605         	6.6
MS.169         	33.535         	6.554
MS.170         	33.47          	6.628
MS.171         	33.405         	6.584
MS.172         	33.335         	6.535
MS.173         	33.27          	6.678
MS.174         	33.205         	6.642
MS.175         	33.135         	6.458
MS.176         	33.07          	6.641
MS.177         	33.005         	6.609
MS.178         	32.94          	6.559
MS.179         	32.875         	6.565
MS.180         	32.81          	6.459
MS.181         	32.74          	6.527
MS.182         	32.675         	6.605
MS.183         	32.61          	6.578
MS.184         	32.545         	6.591
MS.185         	32.48          	6.748
MS.186         	32.415         	6.546
MS.187         	32.35          	6.541
MS.188         	32.285         	6.848
MS.189         	32.22          	6.716
MS.190         	32.16          	6.77
MS.191         	32.095         	6.706
MS.192         	32.03          	6.625
MS.193         	31.965         	6.686
MS.194         	31.9           	6.548
MS.195         	31.84          	6.678
MS.196         	31.775         	6.62
MS.197         	31.71          	6.617
MS.198         	31.645         	6.653
MS.199         	31.585         	6.652
MS.200         	31.52          	6.562
MS.201         	31.46          	6.719
MS.202         	31.395         	6.696
MS.203         	31.335         	6.616
MS.204         	31.27          	6.537
MS.205         	31.205         	6.605
MS.206         	31.145         	6.566
MS.207         	31.085         	6.572
MS.208         	31.02          	6.536
MS.209         	30.96          	6.58
MS.210         	30.895         	6.618
MS.211         	30.835         	6.64
MS.212         	30.775         	6.522
MS.213         	30.71          	6.54
MS.214         	30.65          	6.641
MS.215         	30.59          	6.541
MS.216         	30.53          	6.545
MS.217         	30.465         	6.346
MS.218         	30.405         	6.456
MS.219         	30.345         	6.434
MS.220         	30.285         	6.586
MS.221         	30.225         	6.382
MS.222         	30.165         	6.49
MS.223         	30.105         	6.473
MS.224         	30.045         	6.43
MS.225         	29.985         	6.525
MS.226         	29.925         	6.385
MS.227         	29.865         	6.402
MS.228         	29.805         	6.459
MS.229         	29.745         	6.505
MS.230         	29.685         	6.196
MS.231         	29.625         	6.34
MS.232         	29.565         	6.315
MS.233         	29.51          	6.271
MS.234         	29.45          	6.494
MS.235         	29.39          	6.118
MS.236         	29.33          	6.357
MS.237         	29.275         	6.123
MS.238         	29.215         	6.337
MS.239         	29.155         	6.104
MS.240         	29.1           	6.122
MS.241         	29.04          	6.008
MS.242         	28.98          	6.089
MS.243         	28.925         	6.149
MS.244         	28.865         	6.069
MS.245         	28.81          	6.055
MS.246         	28.75          	5.956
MS.247         	28.695         	6.041
MS.248         	28.635         	5.424
MS.249         	28.58          	5.832
MS.250         	28.52          	5.68
MS.251         	28.465         	5.978
MS.252         	28.41          	5.781
MS.253         	28.35          	5.803
MS.254         	28.295         	5.903
MS.255         	28.24          	5.397
MS.256         	28.18          	5.71
MS.257         	28.125         	5.064
MS.258         	28.07          	5.32
MS.259         	28.015         	5.174
MS.260         	27.955         	5.194
MS.261         	27.9           	5.056
MS.262         	27.845         	4.993
MS.263         	27.79          	4.883
MS.264         	27.735         	4.857
MS.265         	27.68          	4.933
MS.266         	27.625         	4.768
MS.267         	27.57          	5.45
MS.268         	27.515         	4.938
MS.269         	27.46          	4.384
MS.270         	27.405         	4.773
MS.271         	27.35          	4.923
MS.272         	27.295         	4.344
MS.273         	27.24          	4.426
MS.274         	27.185         	4.803
MS.275         	27.13          	4.632
MS.276         	27.075         	4.161
MS.277         	27.02          	4.24
MS.278         	26.97          	4.916
MS.279         	26.915         	4.601
MS.280         	26.86          	4.319
MS.281         	26.805         	4.31
MS.282         	26.755         	3.799
MS.283         	26.7           	4.011
MS.284         	26.645         	3.927
MS.285         	26.595         	4.524
MS.286         	26.54          	4.277
MS.287         	26.485         	4.574
MS.288         	26.435         	3.555
MS.289         	26.38          	3.435
MS.290         	26.33          	3.934
MS.291         	26.275         	3.47
MS.292         	26.225         	3.862
MS.293         	26.17          	3.682
MS.294         	26.12          	3.348
MS.295         	26.065         	3.531
MS.296         	26.015         	3.828
MS.297         	25.965         	3.594
MS.298         	25.91          	3.145
MS.299         	25.86          	3.156
MS.300         	25.805         	2.775
MS.301         	25.755         	2.836
MS.302         	25.705         	2.772
MS.303         	25.655         	2.784
MS.304         	25.6           	2.806
MS.305         	25.55          	2.774
MS.306         	25.5           	2.784
MS.307         	25.45          	2.776
MS.308         	25.4           	2.419
MS.309         	25.345         	2.617
MS.310         	25.295         	2.62
MS.311         	25.245         	2.798
MS.312         	25.195         	2.68
MS.313         	25.145         	2.354
MS.314         	25.095         	2.534
MS.315         	25.045         	2.339
MS.316         	24.995         	2.635
MS.317         	24.945         	2.448
MS.318         	24.895         	2.224
MS.319         	24.845         	2.379
MS.320         	24.795         	2.312
MS.321         	24.745         	2.387
MS.322         	24.695         	2.167
MS.323         	24.645         	2.154
MS.324         	24.6           	2.686
MS.325         	24.55          	2.04
MS.326         	24.5           	1.871
MS.327         	24.45          	2.003
MS.328         	24.4           	1.559
MS.329         	24.355         	1.635
MS.330         	24.305         	1.733
MS.331         	24.255         	2.066
MS.332         	24.205         	1.693
MS.333         	24.16          	1.479
MS.334         	24.11          	1.528
MS.335         	24.065         	1.486
MS.336         	24.015         	1.404
MS.337         	23.965         	1.351
MS.338         	23.92          	1.414
MS.339         	23.87          	1.396
MS.340         	23.825         	1.356
MS.341         	23.775         	1.311
MS.342         	23.73          	1.683
MS.343         	23.68          	1.039
MS.344         	23.635         	1.119
MS.345         	23.585         	1.367
MS.346         	23.54          	1.42
MS.347         	23.49          	1.055
MS.348         	23.445         	0.884
MS.349         	23.4           	1.321
MS.350         	23.35          	1.301
MS.351         	23.305         	1.147
MS.352         	23.26          	1.276
MS.353         	23.21          	0.829
MS.354         	23.165         	0.903
MS.355         	23.12          	1.207
MS.356         	23.075         	0.834
MS.357         	23.025         	0.997
MS.358         	22.98          	1.137
MS.359         	22.935         	0.95
MS.360         	22.89          	0.883
MS.361         	22.845         	0.939
MS.362         	22.8           	0.876
MS.363         	22.75          	1.107
MS.364         	22.705         	0.816
MS.365         	22.66          	0.917
MS.366         	22.615         	0.856
MS.367         	22.57          	0.943
MS.368         	22.525         	0.679
MS.369         	22.48          	0.786
MS.370         	22.435         	0.749
MS.371         	22.39          	0.77
MS.372         	22.345         	0.632
MS.373         	22.3           	0.701
MS.374         	22.255         	0.673
MS.375         	22.215         	0.776
MS.376         	22.17          	0.587
MS.377         	22.125         	0.602
MS.378         	22.08          	0.587
MS.379         	22.035         	0.611
MS.380         	21.99          	0.564
MS.381         	21.95          	0.831
MS.382         	21.905         	0.662
MS.383         	21.86          	0.65
MS.384         	21.815         	0.542
MS.385         	21.775         	0.607
MS.386         	21.73          	0.588
MS.387         	21.685         	0.57
MS.388         	21.64          	0.444
MS.389         	21.6           	0.341
MS.390         	21.555         	0.424
MS.391         	21.515         	0.459
MS.392         	21.47          	0.351
MS.393         	21.425         	0.458
MS.394         	21.385         	0.452
MS.395         	21.34          	0.418
MS.396         	21.3           	0.43
MS.397         	21.255         	0.421
MS.398         	21.215         	0.436
MS.399         	21.17          	0.407
MS.400         	21.13          	0.415
MS.401         	21.085         	0.176
MS.402         	21.045         	0.419
MS.403         	21.005         	0.233
MS.404         	20.96          	0.416
MS.405         	20.92          	0.443
MS.406         	20.875         	0.422
MS.407         	20.835         	0.275
MS.408         	20.795         	0.311
MS.409         	20.75          	0.23
MS.410         	20.71          	0.429
MS.411         	20.67          	0.318
MS.412         	20.63          	0.308
MS.413         	20.585         	0.277
MS.414         	20.545         	0.172
MS.415         	20.505         	0.215
MS.416         	20.465         	0.175
MS.417         	20.425         	0.122
MS.418         	20.38          	0.21
MS.419         	20.34          	0.115
MS.420         	20.3           	0.273
MS.421         	20.26          	0.126
MS.422         	20.22          	0.323
MS.423         	20.18          	0.159
MS.424         	20.14          	0.117
MS.425         	20.1           	0.164
MS.426         	20.06          	0.177
MS.427         	20.02          	0.131
MS.428         	19.98          	0.115
MS.429         	19.94          	0.114
MS.430         	19.9           	0.119
MS.431         	19.86          	0.117
MS.432         	19.82          	0.087
MS.433         	19.78          	0.096
MS.434         	19.74          	0.118
MS.435         	19.7           	0.125
MS.436         	19.66          	0.096
MS.437         	19.62          	0.087
MS.438         	19.585         	0.125
MS.439         	19.545         	0.087
MS.440         	19.505         	0.069
MS.441         	19.465         	0.073
MS.442         	19.425         	0.073
MS.443         	19.39          	0.082
MS.444         	19.35          	0.089
MS.445         	19.31          	0.075
MS.446         	19.27          	0.071
MS.447         	19.235         	0.092
MS.448         	19.195         	0.08
MS.449         	19.155         	0.065
MS.450         	19.12          	0.074
MS.451         	19.08          	0.061
MS.452         	19.04          	0.079
MS.453         	19.005         	0.068
MS.454         	18.965         	0.065
MS.455         	18.93          	0.066
MS.456         	18.89          	0.07
MS.457         	18.855         	0.069
MS.458         	18.815         	0.075
MS.459         	18.775         	0.081
MS.460         	18.74          	0.065
MS.461         	18.705         	0.069
MS.462         	18.665         	0.067
MS.463         	18.63          	0.063
MS.464         	18.59          	0.065
MS.465         	18.555         	0.073
MS.466         	18.515         	0.066
MS.467         	18.48          	0.069
MS.468         	18.445         	0.067
MS.469         	18.405         	0.067
MS.470         	18.37          	0.065
MS.471         	18.33          	0.068
MS.472         	18.295         	0.064
MS.473         	18.26          	0.063
MS.474         	18.225         	0.06
MS.475         	18.185         	0.068
MS.476         	18.15          	0.069
MS.477         	18.115         	0.071
MS.478         	18.075         	0.07
MS.479         	18.04          	0.064
MS.480         	18.005         	0.063
MS.481         	17.97          	0.067
MS.482         	17.935         	0.062
MS.483         	17.895         	0.07
MS.484         	17.86          	0.068
MS.485         	17.825         	0.065
MS.486         	17.79          	0.07
MS.487         	17.755         	0.067
MS.488         	17.72          	0.068
MS.489         	17.685         	0.069
MS.490         	17.65          	0.067
MS.491         	17.615         	0.067
MS.492         	17.58          	0.07
MS.493         	17.545         	0.067
MS.494         	17.51          	0.072
MS.495         	17.475         	0.063
MS.496         	17.44          	0.07
MS.497         	17.405         	0.068
MS.498         	17.37          	0.067
MS.499         	17.335         	0.066
MS.500         	17.3           	0.067
MS.501         	17.265         	0.067
MS.502         	17.23          	0.07
MS.503         	17.195         	0.067
MS.504         	17.16          	0.065
MS.505         	17.125         	0.068
MS.506         	17.095         	0.069
MS.507         	17.06          	0.076
MS.508         	17.025         	0.07
MS.509         	16.99          	0.069
MS.510         	16.955         	0.063
MS.511         	16.925         	0.07
MS.512         	16.89          	0.06
MS.513         	16.855         	0.072
MS.514         	16.82          	0.068
MS.515         	16.79          	0.07
MS.516         	16.755         	0.067
MS.517         	16.72          	0.063
MS.518         	16.685         	0.063
MS.519         	16.655         	0.07
MS.520         	16.62          	0.065
MS.521         	16.59          	0.06
MS.522         	16.555         	0.072
MS.523         	16.52          	0.063
MS.524         	16.49          	0.064
MS.525         	16.455         	0.066
MS.526         	16.425         	0.067
MS.527         	16.39          	0.07
MS.528         	16.355         	0.07
MS.529         	16.325         	0.067
MS.530         	16.29          	0.068
MS.531         	16.26          	0.067
MS.532         	16.225         	0.072
MS.533         	16.195         	0.065
MS.534         	16.16          	0.062
MS.535         	16.13          	0.068
MS.536         	16.095         	0.067
MS.537         	16.065         	0.068
MS.538         	16.035         	0.063
DERIVED EXCITABILITY VARIABLES
Program = QTracP 6/7/2018
Threshold method = 6 (optimised for CAP, using data for present condition only)
SR method = 1 (using actual data values)
6.                 	0.000               	Peak response\(mV)
9.                 	37.6                	Temperature ( C)
17.                	58                  	Age (years)
18.                	1                   	Sex (M=1, F=2)

EXTRA VARIABLES

MScPeak(mV) = 7.16
MScS5(mA) = 21.14
MScS50(mA) = 26.22
MScS95(mA) = 33.42
MScNSteps = 3
MScSteps(%) = 9.6
MScStepMax(%) = 4.3
MSFPeakAmp(mV) = 7.33
MSFNUnits = 52
MSFMeanUnitAmp(uV) = 140.9
MSFHuntTime(m) = 1.86
MSFError(%) = 5.83
MSFNLarge = 16.2
MSFMedianAmp(%) = 1.75
MSFMedianAmp(mV) = 0.128
MSFHalfAmpAmp(%) = 2.11
MSFHalfAmpAmp(mV) = 0.155
MSFLargestAmp(%) = 4.66
MSFLargestAmp(mV) = 0.341
MSFMeanRS(%) = 2.02
MSFOpts = 10106121
Height = 196
MScDuration(min) = 4.9
MSFTraces = 484
MSFSizeLimit(uV) = 28.7
MSFLimitType = 3
MSFSmallestAmp(uV) = 43.1

EXTRA WAVEFORMS


!MScan Model
!52
	1	19.75	0.61	2
	2	20.27	1.08	2
	3	20.72	1.36	2
	4	21.31	1.76	2
	5	21.6	1.22	2
	6	21.88	0.98	2
	7	22.15	1.33	2
	8	22.43	1.37	2
	9	22.67	1.19	2
	10	23.05	2.17	2
	11	23.56	3.02	2
	12	23.86	2.52	2
	13	24.05	2.11	2
	14	24.19	1.63	2
	15	24.32	1.68	2
	16	24.44	1.37	2
	17	24.45	1.7	2
	18	24.59	2.06	2
	19	24.74	1.86	2
	20	24.96	2.37	2
	21	25.32	3.75	2
	22	25.68	4.47	2.64
	23	25.88	1.88	1.8
	24	26.03	2.68	2
	25	26.19	2.43	2
	26	26.42	4.17	2
	27	26.81	4.66	2
	28	27.2	2.79	2
	29	27.2	1.86	2
	30	27.53	4.11	2
	31	27.73	2.3	2
	32	27.92	2.48	2
	33	27.96	2	2
	34	28.1	2.05	2
	35	28.24	1.73	2
	36	28.37	1.37	2
	37	28.81	3.19	2
	38	29.16	2.46	2
	39	29.45	1.71	2
	40	29.89	1.78	2
	41	30.7	1.95	2
	42	33.42	0.94	2
	43	34.41	0.68	2
	44	34.6	0.59	2
	45	35.55	0.62	2
	46	36.09	1.02	2
	47	36.44	0.8	2
	48	36.79	1.53	2
	49	37.62	1.28	2
	50	38.55	1.36	2
	51	39.17	1.14	2
	52	39.82	0.81	2

