File:              	C:\Qtrac\Data\CKMC01118E.QZD
Name:              	DK.COP.NC.7.2
Protocol:          	MSCAN-R2
Date:              	18/11/20
Start time:        	10:30:46
Age:               	73
Sex:               	M
Temperature:       	36.0
S/R sites:         	RPer FH-AT
NC/disease:        	NC
Operator:          	CK
Comments:          	CG
M-SCAN DATA (7.9-1.8m)
Scanpts: 1, 23, 636, 656
Stim. (mA)     	Amp. (mV)
MS.1           	31             	4.388
MS.2           	31             	4.377
MS.3           	31             	4.378
MS.4           	31             	4.364
MS.5           	31             	4.367
MS.6           	31             	4.36
MS.7           	31             	4.352
MS.8           	31             	4.337
MS.9           	31             	4.351
MS.10          	31             	4.357
MS.11          	31             	4.365
MS.12          	31             	4.354
MS.13          	31             	4.363
MS.14          	31             	4.354
MS.15          	31             	4.349
MS.16          	31             	4.361
MS.17          	31             	4.392
MS.18          	31             	4.369
MS.19          	31             	4.379
MS.20          	31             	4.379
MS.21          	31             	4.37
MS.22          	31             	4.363
MS.23          	31             	4.376
MS.24          	30.875         	4.394
MS.25          	30.815         	4.368
MS.26          	30.755         	4.382
MS.27          	30.69          	4.351
MS.28          	30.63          	4.376
MS.29          	30.57          	4.362
MS.30          	30.51          	4.366
MS.31          	30.445         	4.356
MS.32          	30.385         	4.338
MS.33          	30.325         	4.337
MS.34          	30.265         	4.362
MS.35          	30.205         	4.385
MS.36          	30.145         	4.351
MS.37          	30.085         	4.323
MS.38          	30.025         	4.321
MS.39          	29.965         	4.357
MS.40          	29.905         	4.326
MS.41          	29.845         	4.31
MS.42          	29.785         	4.349
MS.43          	29.725         	4.324
MS.44          	29.665         	4.299
MS.45          	29.605         	4.319
MS.46          	29.545         	4.345
MS.47          	29.49          	4.303
MS.48          	29.43          	4.335
MS.49          	29.37          	4.349
MS.50          	29.31          	4.31
MS.51          	29.255         	4.278
MS.52          	29.195         	4.35
MS.53          	29.135         	4.316
MS.54          	29.08          	4.329
MS.55          	29.02          	4.363
MS.56          	28.96          	4.332
MS.57          	28.905         	4.36
MS.58          	28.845         	4.315
MS.59          	28.79          	4.339
MS.60          	28.73          	4.337
MS.61          	28.675         	4.276
MS.62          	28.615         	4.308
MS.63          	28.56          	4.304
MS.64          	28.5           	4.265
MS.65          	28.445         	4.313
MS.66          	28.39          	4.298
MS.67          	28.33          	4.277
MS.68          	28.275         	4.28
MS.69          	28.22          	4.293
MS.70          	28.16          	4.29
MS.71          	28.105         	4.271
MS.72          	28.05          	4.271
MS.73          	27.995         	4.246
MS.74          	27.94          	4.236
MS.75          	27.88          	4.276
MS.76          	27.825         	4.282
MS.77          	27.77          	4.263
MS.78          	27.715         	4.268
MS.79          	27.66          	4.271
MS.80          	27.605         	4.265
MS.81          	27.55          	4.273
MS.82          	27.495         	4.266
MS.83          	27.44          	4.271
MS.84          	27.385         	4.277
MS.85          	27.33          	4.268
MS.86          	27.275         	4.258
MS.87          	27.22          	4.279
MS.88          	27.165         	4.272
MS.89          	27.11          	4.257
MS.90          	27.06          	4.241
MS.91          	27.005         	4.262
MS.92          	26.95          	4.275
MS.93          	26.895         	4.243
MS.94          	26.84          	4.207
MS.95          	26.79          	4.25
MS.96          	26.735         	4.242
MS.97          	26.68          	4.253
MS.98          	26.63          	4.236
MS.99          	26.575         	4.236
MS.100         	26.52          	4.241
MS.101         	26.47          	4.233
MS.102         	26.415         	4.224
MS.103         	26.365         	4.247
MS.104         	26.31          	4.216
MS.105         	26.26          	4.25
MS.106         	26.205         	4.267
MS.107         	26.155         	4.244
MS.108         	26.1           	4.252
MS.109         	26.05          	4.261
MS.110         	25.995         	4.239
MS.111         	25.945         	4.25
MS.112         	25.895         	4.225
MS.113         	25.84          	4.245
MS.114         	25.79          	4.218
MS.115         	25.74          	4.24
MS.116         	25.685         	4.219
MS.117         	25.635         	4.237
MS.118         	25.585         	4.241
MS.119         	25.535         	4.213
MS.120         	25.48          	4.199
MS.121         	25.43          	4.208
MS.122         	25.38          	4.234
MS.123         	25.33          	4.248
MS.124         	25.28          	4.205
MS.125         	25.23          	4.225
MS.126         	25.18          	4.212
MS.127         	25.13          	4.221
MS.128         	25.08          	4.199
MS.129         	25.03          	4.215
MS.130         	24.98          	4.204
MS.131         	24.93          	4.215
MS.132         	24.88          	4.202
MS.133         	24.83          	4.201
MS.134         	24.78          	4.203
MS.135         	24.73          	4.194
MS.136         	24.68          	4.212
MS.137         	24.63          	4.212
MS.138         	24.58          	4.207
MS.139         	24.53          	4.202
MS.140         	24.485         	4.203
MS.141         	24.435         	4.198
MS.142         	24.385         	4.2
MS.143         	24.335         	4.194
MS.144         	24.29          	4.197
MS.145         	24.24          	4.18
MS.146         	24.19          	4.187
MS.147         	24.145         	4.219
MS.148         	24.095         	4.199
MS.149         	24.045         	4.187
MS.150         	24             	4.18
MS.151         	23.95          	4.158
MS.152         	23.9           	4.188
MS.153         	23.855         	4.152
MS.154         	23.805         	4.175
MS.155         	23.76          	4.13
MS.156         	23.71          	4.127
MS.157         	23.665         	4.156
MS.158         	23.615         	4.138
MS.159         	23.57          	4.127
MS.160         	23.525         	4.151
MS.161         	23.475         	4.115
MS.162         	23.43          	4.137
MS.163         	23.38          	4.089
MS.164         	23.335         	4.109
MS.165         	23.29          	4.067
MS.166         	23.245         	4.108
MS.167         	23.195         	4.081
MS.168         	23.15          	4.067
MS.169         	23.105         	4.1
MS.170         	23.055         	4.097
MS.171         	23.01          	4.113
MS.172         	22.965         	4.144
MS.173         	22.92          	4.086
MS.174         	22.875         	4.078
MS.175         	22.83          	4.163
MS.176         	22.78          	4.068
MS.177         	22.735         	4.044
MS.178         	22.69          	4.048
MS.179         	22.645         	4.036
MS.180         	22.6           	4.067
MS.181         	22.555         	4.119
MS.182         	22.51          	4.094
MS.183         	22.465         	4.095
MS.184         	22.42          	4.064
MS.185         	22.375         	4.131
MS.186         	22.33          	4.124
MS.187         	22.285         	4.106
MS.188         	22.24          	4.085
MS.189         	22.2           	4.002
MS.190         	22.155         	4.068
MS.191         	22.11          	4.158
MS.192         	22.065         	4.144
MS.193         	22.02          	4.088
MS.194         	21.975         	4.128
MS.195         	21.935         	4.119
MS.196         	21.89          	4.143
MS.197         	21.845         	4.129
MS.198         	21.8           	4.066
MS.199         	21.76          	4.083
MS.200         	21.715         	4.152
MS.201         	21.67          	4.147
MS.202         	21.63          	4.161
MS.203         	21.585         	4.142
MS.204         	21.54          	4.138
MS.205         	21.5           	4.164
MS.206         	21.455         	4.031
MS.207         	21.415         	4.138
MS.208         	21.37          	4.125
MS.209         	21.325         	4.09
MS.210         	21.285         	4.125
MS.211         	21.24          	4.127
MS.212         	21.2           	4.097
MS.213         	21.155         	4.112
MS.214         	21.115         	4.103
MS.215         	21.075         	4.094
MS.216         	21.03          	4.075
MS.217         	20.99          	4.061
MS.218         	20.945         	4.047
MS.219         	20.905         	4.078
MS.220         	20.865         	4.066
MS.221         	20.82          	4.068
MS.222         	20.78          	4.063
MS.223         	20.74          	4.062
MS.224         	20.695         	4.042
MS.225         	20.655         	4.035
MS.226         	20.615         	4.047
MS.227         	20.575         	3.993
MS.228         	20.53          	4.01
MS.229         	20.49          	3.939
MS.230         	20.45          	3.992
MS.231         	20.41          	4.002
MS.232         	20.37          	3.998
MS.233         	20.33          	3.956
MS.234         	20.285         	3.945
MS.235         	20.245         	3.96
MS.236         	20.205         	4.041
MS.237         	20.165         	3.947
MS.238         	20.125         	3.988
MS.239         	20.085         	3.963
MS.240         	20.045         	3.965
MS.241         	20.005         	3.986
MS.242         	19.965         	3.966
MS.243         	19.925         	3.971
MS.244         	19.885         	3.884
MS.245         	19.845         	3.938
MS.246         	19.805         	3.915
MS.247         	19.765         	3.893
MS.248         	19.725         	3.865
MS.249         	19.685         	3.938
MS.250         	19.65          	3.912
MS.251         	19.61          	3.855
MS.252         	19.57          	3.737
MS.253         	19.53          	3.851
MS.254         	19.49          	3.801
MS.255         	19.455         	3.793
MS.256         	19.415         	3.783
MS.257         	19.375         	3.732
MS.258         	19.335         	3.693
MS.259         	19.3           	3.674
MS.260         	19.26          	3.648
MS.261         	19.22          	3.563
MS.262         	19.18          	3.665
MS.263         	19.145         	3.525
MS.264         	19.105         	3.445
MS.265         	19.065         	3.564
MS.266         	19.03          	3.638
MS.267         	18.99          	3.424
MS.268         	18.955         	3.493
MS.269         	18.915         	3.495
MS.270         	18.88          	3.378
MS.271         	18.84          	3.421
MS.272         	18.8           	3.487
MS.273         	18.765         	3.434
MS.274         	18.725         	3.316
MS.275         	18.69          	3.359
MS.276         	18.655         	3.461
MS.277         	18.615         	3.259
MS.278         	18.58          	3.278
MS.279         	18.54          	3.452
MS.280         	18.505         	3.202
MS.281         	18.465         	3.386
MS.282         	18.43          	3.16
MS.283         	18.395         	3.201
MS.284         	18.355         	3.38
MS.285         	18.32          	3.305
MS.286         	18.285         	3.317
MS.287         	18.245         	3.312
MS.288         	18.21          	3.337
MS.289         	18.175         	3.255
MS.290         	18.14          	3.246
MS.291         	18.1           	3.204
MS.292         	18.065         	3.156
MS.293         	18.03          	3.212
MS.294         	17.995         	3.174
MS.295         	17.955         	3.156
MS.296         	17.92          	3.14
MS.297         	17.885         	3.146
MS.298         	17.85          	3.062
MS.299         	17.815         	3.055
MS.300         	17.78          	3.21
MS.301         	17.745         	3.088
MS.302         	17.705         	3.022
MS.303         	17.67          	2.924
MS.304         	17.635         	3.002
MS.305         	17.6           	2.908
MS.306         	17.565         	2.952
MS.307         	17.53          	3.095
MS.308         	17.495         	2.792
MS.309         	17.46          	2.771
MS.310         	17.425         	2.874
MS.311         	17.39          	2.792
MS.312         	17.355         	2.8
MS.313         	17.32          	2.817
MS.314         	17.285         	2.784
MS.315         	17.255         	2.802
MS.316         	17.22          	2.805
MS.317         	17.185         	2.747
MS.318         	17.15          	2.755
MS.319         	17.115         	2.744
MS.320         	17.08          	2.822
MS.321         	17.045         	2.726
MS.322         	17.015         	2.75
MS.323         	16.98          	2.678
MS.324         	16.945         	2.743
MS.325         	16.91          	2.647
MS.326         	16.88          	2.661
MS.327         	16.845         	2.631
MS.328         	16.81          	2.635
MS.329         	16.775         	2.606
MS.330         	16.745         	2.645
MS.331         	16.71          	2.564
MS.332         	16.675         	2.65
MS.333         	16.645         	2.593
MS.334         	16.61          	2.588
MS.335         	16.575         	2.578
MS.336         	16.545         	2.515
MS.337         	16.51          	2.56
MS.338         	16.475         	2.477
MS.339         	16.445         	2.439
MS.340         	16.41          	2.465
MS.341         	16.38          	2.345
MS.342         	16.345         	2.54
MS.343         	16.315         	2.488
MS.344         	16.28          	2.446
MS.345         	16.25          	2.451
MS.346         	16.215         	2.455
MS.347         	16.185         	2.394
MS.348         	16.15          	2.375
MS.349         	16.12          	2.327
MS.350         	16.085         	2.372
MS.351         	16.055         	2.308
MS.352         	16.02          	2.208
MS.353         	15.99          	2.311
MS.354         	15.96          	1.954
MS.355         	15.925         	2.154
MS.356         	15.895         	2.203
MS.357         	15.865         	2.117
MS.358         	15.83          	1.976
MS.359         	15.8           	1.824
MS.360         	15.77          	1.935
MS.361         	15.735         	2.048
MS.362         	15.705         	1.809
MS.363         	15.675         	2.029
MS.364         	15.64          	1.935
MS.365         	15.61          	1.975
MS.366         	15.58          	1.784
MS.367         	15.55          	1.702
MS.368         	15.52          	1.716
MS.369         	15.485         	1.824
MS.370         	15.455         	1.605
MS.371         	15.425         	1.667
MS.372         	15.395         	1.658
MS.373         	15.365         	1.654
MS.374         	15.335         	1.612
MS.375         	15.3           	1.821
MS.376         	15.27          	1.415
MS.377         	15.24          	1.553
MS.378         	15.21          	1.374
MS.379         	15.18          	1.437
MS.380         	15.15          	1.443
MS.381         	15.12          	1.13
MS.382         	15.09          	1.294
MS.383         	15.06          	1.285
MS.384         	15.03          	1.257
MS.385         	15             	1.119
MS.386         	14.97          	1.31
MS.387         	14.94          	1.139
MS.388         	14.91          	1.035
MS.389         	14.88          	1.083
MS.390         	14.85          	1.066
MS.391         	14.82          	1.013
MS.392         	14.79          	0.959
MS.393         	14.76          	0.975
MS.394         	14.73          	0.87
MS.395         	14.7           	1.01
MS.396         	14.675         	0.916
MS.397         	14.645         	0.898
MS.398         	14.615         	0.927
MS.399         	14.585         	0.927
MS.400         	14.555         	0.85
MS.401         	14.525         	0.757
MS.402         	14.5           	0.822
MS.403         	14.47          	0.789
MS.404         	14.44          	0.856
MS.405         	14.41          	0.796
MS.406         	14.38          	0.79
MS.407         	14.355         	0.747
MS.408         	14.325         	0.735
MS.409         	14.295         	0.749
MS.410         	14.265         	0.728
MS.411         	14.24          	0.776
MS.412         	14.21          	0.765
MS.413         	14.18          	0.729
MS.414         	14.155         	0.736
MS.415         	14.125         	0.706
MS.416         	14.095         	0.676
MS.417         	14.07          	0.74
MS.418         	14.04          	0.693
MS.419         	14.015         	0.69
MS.420         	13.985         	0.713
MS.421         	13.955         	0.629
MS.422         	13.93          	0.643
MS.423         	13.9           	0.648
MS.424         	13.875         	0.615
MS.425         	13.845         	0.604
MS.426         	13.82          	0.687
MS.427         	13.79          	0.618
MS.428         	13.765         	0.542
MS.429         	13.735         	0.639
MS.430         	13.71          	0.579
MS.431         	13.68          	0.553
MS.432         	13.655         	0.555
MS.433         	13.625         	0.574
MS.434         	13.6           	0.564
MS.435         	13.57          	0.501
MS.436         	13.545         	0.549
MS.437         	13.515         	0.495
MS.438         	13.49          	0.573
MS.439         	13.465         	0.47
MS.440         	13.435         	0.422
MS.441         	13.41          	0.562
MS.442         	13.385         	0.496
MS.443         	13.355         	0.432
MS.444         	13.33          	0.519
MS.445         	13.305         	0.45
MS.446         	13.275         	0.432
MS.447         	13.25          	0.376
MS.448         	13.225         	0.491
MS.449         	13.195         	0.352
MS.450         	13.17          	0.381
MS.451         	13.145         	0.355
MS.452         	13.12          	0.367
MS.453         	13.09          	0.354
MS.454         	13.065         	0.345
MS.455         	13.04          	0.332
MS.456         	13.015         	0.354
MS.457         	12.985         	0.393
MS.458         	12.96          	0.329
MS.459         	12.935         	0.418
MS.460         	12.91          	0.343
MS.461         	12.885         	0.384
MS.462         	12.86          	0.372
MS.463         	12.835         	0.352
MS.464         	12.805         	0.358
MS.465         	12.78          	0.337
MS.466         	12.755         	0.361
MS.467         	12.73          	0.388
MS.468         	12.705         	0.303
MS.469         	12.68          	0.314
MS.470         	12.655         	0.374
MS.471         	12.63          	0.383
MS.472         	12.605         	0.394
MS.473         	12.58          	0.374
MS.474         	12.555         	0.389
MS.475         	12.53          	0.395
MS.476         	12.505         	0.428
MS.477         	12.48          	0.411
MS.478         	12.455         	0.41
MS.479         	12.43          	0.422
MS.480         	12.405         	0.403
MS.481         	12.38          	0.422
MS.482         	12.355         	0.409
MS.483         	12.33          	0.433
MS.484         	12.305         	0.385
MS.485         	12.28          	0.39
MS.486         	12.255         	0.411
MS.487         	12.23          	0.388
MS.488         	12.205         	0.409
MS.489         	12.18          	0.394
MS.490         	12.16          	0.378
MS.491         	12.135         	0.335
MS.492         	12.11          	0.328
MS.493         	12.085         	0.391
MS.494         	12.06          	0.336
MS.495         	12.035         	0.367
MS.496         	12.015         	0.362
MS.497         	11.99          	0.356
MS.498         	11.965         	0.354
MS.499         	11.94          	0.313
MS.500         	11.915         	0.308
MS.501         	11.895         	0.333
MS.502         	11.87          	0.325
MS.503         	11.845         	0.32
MS.504         	11.82          	0.269
MS.505         	11.8           	0.308
MS.506         	11.775         	0.309
MS.507         	11.75          	0.281
MS.508         	11.73          	0.281
MS.509         	11.705         	0.26
MS.510         	11.68          	0.294
MS.511         	11.66          	0.224
MS.512         	11.635         	0.223
MS.513         	11.61          	0.261
MS.514         	11.59          	0.227
MS.515         	11.565         	0.261
MS.516         	11.54          	0.219
MS.517         	11.52          	0.235
MS.518         	11.495         	0.25
MS.519         	11.475         	0.232
MS.520         	11.45          	0.226
MS.521         	11.425         	0.261
MS.522         	11.405         	0.252
MS.523         	11.38          	0.206
MS.524         	11.36          	0.193
MS.525         	11.335         	0.259
MS.526         	11.315         	0.249
MS.527         	11.29          	0.233
MS.528         	11.27          	0.228
MS.529         	11.245         	0.234
MS.530         	11.225         	0.198
MS.531         	11.2           	0.229
MS.532         	11.18          	0.197
MS.533         	11.155         	0.229
MS.534         	11.135         	0.215
MS.535         	11.11          	0.209
MS.536         	11.09          	0.208
MS.537         	11.065         	0.226
MS.538         	11.045         	0.212
MS.539         	11.025         	0.219
MS.540         	11             	0.22
MS.541         	10.98          	0.228
MS.542         	10.955         	0.236
MS.543         	10.935         	0.203
MS.544         	10.915         	0.201
MS.545         	10.89          	0.223
MS.546         	10.87          	0.217
MS.547         	10.85          	0.23
MS.548         	10.825         	0.233
MS.549         	10.805         	0.2
MS.550         	10.785         	0.215
MS.551         	10.76          	0.194
MS.552         	10.74          	0.206
MS.553         	10.72          	0.206
MS.554         	10.695         	0.192
MS.555         	10.675         	0.196
MS.556         	10.655         	0.172
MS.557         	10.635         	0.173
MS.558         	10.61          	0.197
MS.559         	10.59          	0.182
MS.560         	10.57          	0.19
MS.561         	10.55          	0.188
MS.562         	10.525         	0.187
MS.563         	10.505         	0.165
MS.564         	10.485         	0.164
MS.565         	10.465         	0.197
MS.566         	10.445         	0.209
MS.567         	10.425         	0.201
MS.568         	10.4           	0.184
MS.569         	10.38          	0.192
MS.570         	10.36          	0.168
MS.571         	10.34          	0.165
MS.572         	10.32          	0.15
MS.573         	10.3           	0.167
MS.574         	10.28          	0.193
MS.575         	10.255         	0.179
MS.576         	10.235         	0.19
MS.577         	10.215         	0.15
MS.578         	10.195         	0.182
MS.579         	10.175         	0.185
MS.580         	10.155         	0.199
MS.581         	10.135         	0.184
MS.582         	10.115         	0.197
MS.583         	10.095         	0.181
MS.584         	10.075         	0.177
MS.585         	10.055         	0.173
MS.586         	10.035         	0.204
MS.587         	10.015         	0.178
MS.588         	9.995          	0.191
MS.589         	9.975          	0.177
MS.590         	9.955          	0.171
MS.591         	9.935          	0.182
MS.592         	9.915          	0.19
MS.593         	9.895          	0.184
MS.594         	9.875          	0.2
MS.595         	9.855          	0.192
MS.596         	9.835          	0.178
MS.597         	9.815          	0.183
MS.598         	9.795          	0.154
MS.599         	9.775          	0.163
MS.600         	9.755          	0.16
MS.601         	9.735          	0.155
MS.602         	9.72           	0.2
MS.603         	9.7            	0.199
MS.604         	9.68           	0.151
MS.605         	9.66           	0.181
MS.606         	9.64           	0.159
MS.607         	9.62           	0.191
MS.608         	9.6            	0.174
MS.609         	9.585          	0.178
MS.610         	9.565          	0.186
MS.611         	9.545          	0.18
MS.612         	9.525          	0.201
MS.613         	9.505          	0.189
MS.614         	9.49           	0.186
MS.615         	9.47           	0.18
MS.616         	9.45           	0.204
MS.617         	9.43           	0.17
MS.618         	9.41           	0.153
MS.619         	9.395          	0.17
MS.620         	9.375          	0.183
MS.621         	9.355          	0.177
MS.622         	9.335          	0.193
MS.623         	9.32           	0.193
MS.624         	9.3            	0.19
MS.625         	9.28           	0.189
MS.626         	9.265          	0.189
MS.627         	9.245          	0.189
MS.628         	9.225          	0.206
MS.629         	9.205          	0.208
MS.630         	9.19           	0.206
MS.631         	9.17           	0.209
MS.632         	9.15           	0.208
MS.633         	9.135          	0.214
MS.634         	9.115          	0.206
MS.635         	9.095          	0.219
MS.636         	9.08           	0.225
MS.637         	9.06           	0.201
MS.638         	9.045          	0.201
MS.639         	9.025          	0.194
MS.640         	9.005          	0.204
MS.641         	8.99           	0.212
MS.642         	8.97           	0.215
MS.643         	8.955          	0.182
MS.644         	8.935          	0.203
MS.645         	8.915          	0.206
MS.646         	8.9            	0.2
MS.647         	8.88           	0.203
MS.648         	8.865          	0.193
MS.649         	8.845          	0.196
MS.650         	8.83           	0.202
MS.651         	8.81           	0.189
MS.652         	8.795          	0.202
MS.653         	8.775          	0.213
MS.654         	8.76           	0.211
MS.655         	8.74           	0.211
MS.656         	8.725          	0.214
DERIVED EXCITABILITY VARIABLES
Program = QTracP 20/9/2019
Threshold method = 6 (optimised for CAP, using data for present condition only)
SR method = 1 (using actual data values)
6.                 	0.000               	Peak response\(mV)
9.                 	36                  	Temperature ( C)
17.                	73                  	Age (years)
18.                	1                   	Sex (M=1, F=2)

EXTRA VARIABLES

MScPeak(mV) = 4.16
MScS5(mA) = 10.27
MScS50(mA) = 15.92
MScS95(mA) = 20.26
MScNSteps = 4
MScSteps(%) = 10.6
MScStepMax(%) = 2.8
MScD50 = 48
Height = 174
MSFPeakAmp(mV) = 4.16
MSFNUnits = 114
MSFMeanUnitAmp(uV) = 36.5
MSFHuntTime(m) = 2.35
MSFError(%) = 2.34
MSFNLarge = 32.21
MSFMedianAmp(%) = 0.719
MSFMedianAmp(mV) = 0.0299
MSFHalfAmpAmp(%) = 1.03
MSFHalfAmpAmp(mV) = 0.0429
MSFLargestAmp(%) = 3.08
MSFLargestAmp(mV) = 0.128
MSFMeanRS(%) = 1.99
MSFOpts = 10106121
MScDuration(min) = 6.1
MSFTraces = 656
MSFSizeLimit(uV) = 10.4
MSFLimitType = 1
MSFSmallestAmp(uV) = 10.9

EXTRA WAVEFORMS


!MScan Model
!114
	1	11.18	0.46	2
	2	11.58	0.72	2
	3	11.67	0.38	2
	4	11.76	0.4	2
	5	11.83	0.45	2
	6	11.91	0.41	2
	7	11.98	0.51	2
	8	12.06	0.4	2
	9	12.16	0.44	2
	10	13.18	0.87	2
	11	13.27	0.45	2
	12	13.37	0.91	2
	13	13.48	1.02	2
	14	13.6	0.98	2
	15	13.7	0.67	2
	16	13.76	0.53	2
	17	13.83	0.52	2
	18	13.88	0.43	2
	19	13.94	0.45	2
	20	14.01	0.6	2
	21	14.09	0.48	2
	22	14.22	0.89	2
	23	14.29	0.4	2
	24	14.34	0.57	2
	25	14.4	0.51	2
	26	14.46	0.48	2
	27	14.52	0.63	2
	28	14.56	0.51	2
	29	14.6	0.59	2
	30	14.65	0.85	2
	31	14.69	0.73	2
	32	14.75	0.79	2
	33	14.81	1.03	2
	34	14.86	0.79	2
	35	14.9	0.84	2
	36	14.94	1.08	2
	37	14.98	0.88	2
	38	15.02	1.02	2
	39	15.06	1.24	2
	40	15.1	1.3	2
	41	15.15	1.52	2
	42	15.22	1.47	2
	43	15.28	1.51	2
	44	15.34	1.68	2
	45	15.41	1.77	2
	46	15.5	2.33	2
	47	15.59	1.99	2
	48	15.66	1.35	2
	49	15.74	1.54	2
	50	15.8	1.55	2
	51	15.87	1.82	2
	52	15.93	1.46	2
	53	15.99	1	2
	54	16.06	1.28	2
	55	16.16	2.15	2
	56	16.27	1.72	2
	57	16.39	1.68	2
	58	16.51	1.22	2
	59	16.58	0.79	2
	60	16.69	0.61	2
	61	16.75	0.6	2
	62	16.8	0.68	2
	63	16.86	0.55	2
	64	16.91	0.54	2
	65	16.98	0.37	2
	66	17.04	0.45	2
	67	17.2	1.55	2
	68	17.33	1.12	2
	69	17.43	1.07	2
	70	17.51	0.91	2
	71	17.59	1.15	2
	72	17.67	0.87	2
	73	17.75	1.02	2
	74	17.8	0.72	2
	75	17.85	0.74	2
	76	17.9	0.68	2
	77	18.05	1.8	2
	78	18.49	3.08	2
	79	18.74	1.84	2
	80	18.88	1.27	2
	81	18.96	0.96	2
	82	19.03	0.97	2
	83	19.08	0.58	2
	84	19.13	0.44	2
	85	19.18	0.58	2
	86	19.22	0.67	2
	87	19.27	0.72	2
	88	19.32	0.73	2
	89	19.37	0.68	2
	90	19.42	0.63	2
	91	19.46	0.5	2
	92	19.5	0.45	2
	93	19.54	0.4	2
	94	19.58	0.39	2
	95	19.63	0.55	2
	96	19.73	1.11	2
	97	20.08	1.99	1.6
	98	20.51	0.82	2
	99	20.65	0.44	2
	100	20.73	0.26	2
	101	20.82	0.3	1.6
	102	21.18	1.1	2
	103	23.52	0.72	2
	104	23.63	0.26	2
	105	23.74	0.33	2
	106	24.02	0.58	2
	107	24.21	0.28	2
	108	24.65	0.36	2
	109	25.39	0.47	2
	110	26.77	0.66	2
	111	27.58	0.41	2
	112	28.28	0.49	2
	113	29.63	1.04	2
	114	30.21	0.47	2

