File:              	C:\Qtrac\Data\Daniel M Sørensen\MScan multicentre study\Data from centres\Newcastle\Processed data\SMC00207C.QZD
Name:              	UK.NEW.NC.1.1
Protocol:          	MSCAN-R2
Date:              	7/2/20
Start time:        	11:05:19
Age:               	31
Sex:               	F
Temperature:       	29.7
S/R sites:         	ADM
NC/disease:        	NC
Operator:          	SM
Comments:
M-SCAN DATA (7.4-2.8m)
Scanpts: 43, 53, 485, 506
Stim. (mA)     	Amp. (mV)
MS.1           	19.5           	12.799
MS.2           	19.5           	12.793
MS.3           	19.5           	12.769
MS.4           	19.5           	12.811
MS.5           	19.5           	12.823
MS.6           	19.5           	12.848
MS.7           	19.5           	12.836
MS.8           	19.5           	12.848
MS.9           	19.5           	12.848
MS.10          	19.5           	12.866
MS.11          	19.5           	12.83
MS.12          	19.5           	12.885
MS.13          	19.5           	12.842
MS.14          	19.5           	12.854
MS.15          	19.5           	12.811
MS.16          	19.5           	12.86
MS.17          	19.5           	12.866
MS.18          	19.5           	12.872
MS.19          	19.5           	12.921
MS.20          	19.5           	12.891
MS.21          	19.5           	12.933
MS.22          	19.5           	12.891
MS.23          	19.5           	12.903
MS.24          	19.422         	12.964
MS.25          	19.382         	12.903
MS.26          	19.345         	12.866
MS.27          	19.305         	12.897
MS.28          	19.267         	12.878
MS.29          	19.23          	12.909
MS.30          	19.19          	12.909
MS.31          	19.153         	12.891
MS.32          	19.115         	12.897
MS.33          	19.075         	12.903
MS.34          	19.038         	12.83
MS.35          	19             	12.885
MS.36          	18.962         	12.903
MS.37          	18.922         	12.885
MS.38          	18.885         	12.86
MS.39          	18.847         	12.939
MS.40          	18.81          	12.891
MS.41          	18.772         	12.909
MS.42          	18.735         	12.891
MS.43          	18.698         	12.915
MS.44          	18.66          	12.915
MS.45          	18.622         	12.909
MS.46          	18.585         	12.909
MS.47          	18.55          	12.897
MS.48          	18.512         	12.921
MS.49          	18.475         	12.952
MS.50          	18.438         	12.939
MS.51          	18.4           	12.958
MS.52          	18.365         	12.933
MS.53          	18.327         	12.933
MS.54          	18.29          	12.909
MS.55          	18.255         	12.921
MS.56          	18.217         	12.897
MS.57          	18.182         	12.897
MS.58          	18.145         	12.775
MS.59          	18.11          	12.897
MS.60          	18.073         	12.872
MS.61          	18.038         	12.915
MS.62          	18             	12.787
MS.63          	17.965         	12.793
MS.64          	17.93          	12.805
MS.65          	17.892         	12.872
MS.66          	17.858         	12.823
MS.67          	17.823         	12.897
MS.68          	17.785         	12.799
MS.69          	17.75          	12.933
MS.70          	17.715         	12.793
MS.71          	17.68          	12.787
MS.72          	17.645         	12.86
MS.73          	17.61          	12.695
MS.74          	17.575         	12.872
MS.75          	17.538         	12.866
MS.76          	17.503         	12.872
MS.77          	17.467         	12.854
MS.78          	17.435         	12.72
MS.79          	17.4           	12.744
MS.80          	17.365         	12.714
MS.81          	17.33          	12.744
MS.82          	17.295         	12.909
MS.83          	17.26          	12.781
MS.84          	17.225         	12.738
MS.85          	17.192         	12.769
MS.86          	17.157         	12.738
MS.87          	17.122         	12.781
MS.88          	17.087         	12.732
MS.89          	17.055         	12.744
MS.90          	17.02          	12.75
MS.91          	16.987         	12.72
MS.92          	16.952         	12.665
MS.93          	16.917         	12.683
MS.94          	16.885         	12.683
MS.95          	16.85          	12.671
MS.96          	16.817         	12.543
MS.97          	16.782         	12.689
MS.98          	16.75          	12.689
MS.99          	16.717         	12.665
MS.100         	16.682         	12.494
MS.101         	16.65          	12.366
MS.102         	16.618         	12.524
MS.103         	16.583         	12.677
MS.104         	16.55          	12.555
MS.105         	16.517         	12.714
MS.106         	16.485         	12.701
MS.107         	16.452         	12.524
MS.108         	16.417         	12.408
MS.109         	16.385         	12.524
MS.110         	16.352         	12.677
MS.111         	16.32          	12.506
MS.112         	16.288         	12.457
MS.113         	16.255         	12.231
MS.114         	16.222         	12.433
MS.115         	16.19          	12.305
MS.116         	16.157         	12.402
MS.117         	16.125         	12.103
MS.118         	16.092         	12.207
MS.119         	16.062         	11.987
MS.120         	16.03          	11.945
MS.121         	15.997         	11.945
MS.122         	15.965         	12.158
MS.123         	15.932         	11.957
MS.124         	15.902         	11.89
MS.125         	15.87          	11.871
MS.126         	15.837         	12.146
MS.127         	15.807         	11.682
MS.128         	15.775         	11.841
MS.129         	15.742         	11.774
MS.130         	15.712         	11.871
MS.131         	15.68          	11.755
MS.132         	15.65          	11.78
MS.133         	15.617         	11.7
MS.134         	15.587         	11.737
MS.135         	15.555         	11.646
MS.136         	15.525         	11.621
MS.137         	15.492         	11.578
MS.138         	15.462         	11.639
MS.139         	15.432         	11.609
MS.140         	15.4           	11.688
MS.141         	15.37          	11.505
MS.142         	15.34          	11.188
MS.143         	15.307         	11.499
MS.144         	15.277         	11.267
MS.145         	15.247         	11.456
MS.146         	15.217         	11.353
MS.147         	15.188         	11.31
MS.148         	15.155         	11.121
MS.149         	15.125         	11.145
MS.150         	15.095         	11.267
MS.151         	15.065         	11.298
MS.152         	15.035         	11.096
MS.153         	15.005         	11.249
MS.154         	14.975         	10.999
MS.155         	14.945         	11.145
MS.156         	14.915         	11.102
MS.157         	14.885         	10.809
MS.158         	14.855         	11.133
MS.159         	14.827         	11.108
MS.160         	14.797         	10.791
MS.161         	14.767         	10.663
MS.162         	14.737         	10.834
MS.163         	14.707         	10.724
MS.164         	14.68          	10.742
MS.165         	14.65          	10.809
MS.166         	14.62          	10.388
MS.167         	14.59          	10.919
MS.168         	14.562         	10.278
MS.169         	14.532         	10.535
MS.170         	14.505         	10.663
MS.171         	14.475         	10.474
MS.172         	14.445         	10.486
MS.173         	14.417         	10.211
MS.174         	14.387         	10.156
MS.175         	14.36          	10.413
MS.176         	14.33          	10.26
MS.177         	14.302         	10.01
MS.178         	14.273         	10.089
MS.179         	14.245         	10.065
MS.180         	14.217         	10.242
MS.181         	14.188         	10.077
MS.182         	14.16          	10.028
MS.183         	14.132         	10.004
MS.184         	14.102         	10.26
MS.185         	14.075         	10.059
MS.186         	14.047         	9.851
MS.187         	14.02          	10.022
MS.188         	13.99          	10.065
MS.189         	13.962         	9.875
MS.190         	13.935         	10.016
MS.191         	13.907         	9.839
MS.192         	13.88          	10.016
MS.193         	13.852         	9.985
MS.194         	13.825         	9.906
MS.195         	13.797         	9.839
MS.196         	13.77          	9.784
MS.197         	13.742         	9.814
MS.198         	13.715         	9.833
MS.199         	13.688         	9.814
MS.200         	13.66          	9.692
MS.201         	13.632         	9.546
MS.202         	13.605         	9.625
MS.203         	13.577         	9.723
MS.204         	13.55          	9.631
MS.205         	13.523         	9.662
MS.206         	13.495         	9.418
MS.207         	13.47          	9.32
MS.208         	13.443         	9.344
MS.209         	13.415         	9.338
MS.210         	13.387         	9.302
MS.211         	13.362         	9.613
MS.212         	13.335         	9.399
MS.213         	13.307         	9.088
MS.214         	13.282         	9.155
MS.215         	13.255         	9.351
MS.216         	13.23          	9.253
MS.217         	13.202         	8.734
MS.218         	13.175         	8.966
MS.219         	13.15          	9.076
MS.220         	13.122         	8.875
MS.221         	13.097         	9.039
MS.222         	13.07          	8.734
MS.223         	13.045         	8.667
MS.224         	13.02          	8.777
MS.225         	12.992         	8.612
MS.226         	12.967         	8.447
MS.227         	12.94          	8.545
MS.228         	12.915         	8.392
MS.229         	12.89          	8.582
MS.230         	12.862         	8.331
MS.231         	12.837         	8.313
MS.232         	12.812         	8.289
MS.233         	12.787         	8.276
MS.234         	12.76          	8.044
MS.235         	12.735         	7.861
MS.236         	12.71          	8.203
MS.237         	12.685         	8.081
MS.238         	12.66          	8.319
MS.239         	12.635         	7.928
MS.240         	12.61          	8.112
MS.241         	12.585         	7.825
MS.242         	12.557         	7.861
MS.243         	12.532         	7.764
MS.244         	12.507         	7.819
MS.245         	12.483         	7.806
MS.246         	12.457         	7.703
MS.247         	12.432         	7.666
MS.248         	12.41          	7.617
MS.249         	12.385         	7.367
MS.250         	12.36          	7.251
MS.251         	12.335         	7.648
MS.252         	12.31          	7.202
MS.253         	12.285         	7.379
MS.254         	12.26          	7.532
MS.255         	12.238         	7.074
MS.256         	12.212         	7.098
MS.257         	12.188         	7.172
MS.258         	12.162         	7.147
MS.259         	12.14          	6.757
MS.260         	12.115         	7.123
MS.261         	12.09          	6.75
MS.262         	12.065         	6.842
MS.263         	12.042         	6.873
MS.264         	12.017         	6.83
MS.265         	11.995         	6.787
MS.266         	11.97          	6.488
MS.267         	11.945         	6.256
MS.268         	11.922         	6.561
MS.269         	11.898         	6.598
MS.270         	11.875         	5.957
MS.271         	11.85          	6.335
MS.272         	11.827         	6.268
MS.273         	11.802         	6.268
MS.274         	11.78          	6.287
MS.275         	11.757         	5.878
MS.276         	11.733         	6.042
MS.277         	11.71          	5.969
MS.278         	11.685         	5.695
MS.279         	11.662         	5.762
MS.280         	11.64          	5.548
MS.281         	11.617         	5.768
MS.282         	11.592         	5.774
MS.283         	11.57          	5.878
MS.284         	11.547         	5.695
MS.285         	11.525         	5.469
MS.286         	11.5           	5.511
MS.287         	11.477         	5.188
MS.288         	11.455         	5.334
MS.289         	11.432         	5.56
MS.290         	11.41          	5.255
MS.291         	11.387         	5.695
MS.292         	11.363         	4.956
MS.293         	11.34          	4.736
MS.294         	11.318         	4.95
MS.295         	11.295         	5.103
MS.296         	11.273         	4.767
MS.297         	11.25          	4.718
MS.298         	11.227         	4.596
MS.299         	11.205         	4.73
MS.300         	11.182         	4.541
MS.301         	11.16          	4.456
MS.302         	11.137         	4.419
MS.303         	11.117         	4.169
MS.304         	11.095         	3.9
MS.305         	11.073         	3.888
MS.306         	11.05          	3.601
MS.307         	11.028         	3.717
MS.308         	11.005         	3.754
MS.309         	10.983         	3.638
MS.310         	10.962         	3.815
MS.311         	10.94          	3.595
MS.312         	10.917         	3.375
MS.313         	10.895         	3.54
MS.314         	10.875         	3.455
MS.315         	10.852         	3.595
MS.316         	10.83          	3.027
MS.317         	10.81          	3.247
MS.318         	10.787         	2.899
MS.319         	10.765         	2.924
MS.320         	10.745         	2.637
MS.321         	10.722         	2.576
MS.322         	10.702         	2.765
MS.323         	10.68          	2.533
MS.324         	10.66          	2.417
MS.325         	10.637         	2.142
MS.326         	10.617         	2.38
MS.327         	10.595         	2.222
MS.328         	10.575         	2.112
MS.329         	10.552         	2.197
MS.330         	10.532         	1.831
MS.331         	10.51          	2.1
MS.332         	10.49          	2.112
MS.333         	10.47          	1.849
MS.334         	10.448         	2.045
MS.335         	10.427         	1.91
MS.336         	10.407         	1.807
MS.337         	10.385         	1.709
MS.338         	10.365         	1.642
MS.339         	10.345         	1.855
MS.340         	10.323         	1.569
MS.341         	10.302         	1.392
MS.342         	10.282         	1.654
MS.343         	10.262         	1.654
MS.344         	10.24          	1.617
MS.345         	10.22          	1.526
MS.346         	10.2           	1.434
MS.347         	10.18          	1.324
MS.348         	10.16          	1.312
MS.349         	10.14          	1.038
MS.350         	10.12          	1.215
MS.351         	10.097         	1.184
MS.352         	10.077         	1.05
MS.353         	10.057         	0.916
MS.354         	10.037         	1.086
MS.355         	10.017         	1.062
MS.356         	9.997          	0.909
MS.357         	9.977          	1.007
MS.358         	9.957          	0.836
MS.359         	9.938          	0.934
MS.360         	9.917          	0.897
MS.361         	9.9            	0.922
MS.362         	9.88           	0.812
MS.363         	9.86           	0.891
MS.364         	9.84           	0.763
MS.365         	9.82           	0.879
MS.366         	9.8            	0.812
MS.367         	9.78           	0.726
MS.368         	9.76           	0.763
MS.369         	9.742          	0.903
MS.370         	9.722          	0.873
MS.371         	9.702          	0.775
MS.372         	9.682          	0.812
MS.373         	9.665          	0.769
MS.374         	9.645          	0.806
MS.375         	9.625          	0.812
MS.376         	9.605          	0.934
MS.377         	9.587          	0.83
MS.378         	9.568          	0.806
MS.379         	9.55           	0.903
MS.380         	9.53           	0.775
MS.381         	9.51           	0.769
MS.382         	9.492          	0.806
MS.383         	9.472          	0.763
MS.384         	9.452          	0.854
MS.385         	9.435          	0.818
MS.386         	9.415          	0.83
MS.387         	9.398          	0.726
MS.388         	9.377          	0.714
MS.389         	9.36           	0.8
MS.390         	9.34           	0.763
MS.391         	9.323          	0.836
MS.392         	9.302          	0.854
MS.393         	9.285          	0.671
MS.394         	9.267          	0.684
MS.395         	9.247          	0.726
MS.396         	9.23           	0.812
MS.397         	9.21           	0.714
MS.398         	9.193          	0.616
MS.399         	9.175          	0.714
MS.400         	9.155          	0.696
MS.401         	9.137          	0.629
MS.402         	9.12           	0.684
MS.403         	9.1            	0.708
MS.404         	9.082          	0.641
MS.405         	9.065          	0.702
MS.406         	9.047          	0.69
MS.407         	9.028          	0.684
MS.408         	9.01           	0.696
MS.409         	8.992          	0.458
MS.410         	8.975          	0.336
MS.411         	8.957          	0.476
MS.412         	8.94           	0.537
MS.413         	8.92           	0.348
MS.414         	8.903          	0.287
MS.415         	8.885          	0.464
MS.416         	8.867          	0.336
MS.417         	8.85           	0.476
MS.418         	8.832          	0.287
MS.419         	8.815          	0.269
MS.420         	8.797          	0.311
MS.421         	8.78           	0.281
MS.422         	8.762          	0.287
MS.423         	8.745          	0.287
MS.424         	8.727          	0.275
MS.425         	8.71           	0.287
MS.426         	8.693          	0.244
MS.427         	8.675          	0.256
MS.428         	8.658          	0.269
MS.429         	8.64           	0.256
MS.430         	8.622          	0.25
MS.431         	8.605          	0.238
MS.432         	8.587          	0.25
MS.433         	8.57           	0.244
MS.434         	8.555          	0.232
MS.435         	8.537          	0.25
MS.436         	8.52           	0.232
MS.437         	8.502          	0.232
MS.438         	8.485          	0.165
MS.439         	8.47           	0.244
MS.440         	8.452          	0.22
MS.441         	8.435          	0.226
MS.442         	8.417          	0.256
MS.443         	8.403          	0.165
MS.444         	8.385          	0.201
MS.445         	8.367          	0.244
MS.446         	8.35           	0.22
MS.447         	8.335          	0.153
MS.448         	8.318          	0.055
MS.449         	8.302          	0.153
MS.450         	8.285          	0.171
MS.451         	8.267          	0.11
MS.452         	8.252          	0.116
MS.453         	8.235          	0.159
MS.454         	8.217          	0.037
MS.455         	8.202          	0.085
MS.456         	8.185          	0.092
MS.457         	8.17           	0.14
MS.458         	8.153          	0.134
MS.459         	8.137          	0.043
MS.460         	8.12           	0.067
MS.461         	8.105          	0.031
MS.462         	8.087          	0.043
MS.463         	8.073          	0.104
MS.464         	8.055          	0.043
MS.465         	8.04           	0.037
MS.466         	8.025          	0.061
MS.467         	8.007          	0.031
MS.468         	7.992          	0.037
MS.469         	7.975          	0.049
MS.470         	7.96           	0.043
MS.471         	7.945          	0.031
MS.472         	7.927          	0.024
MS.473         	7.912          	0.031
MS.474         	7.898          	0.024
MS.475         	7.88           	0.031
MS.476         	7.865          	0.024
MS.477         	7.85           	0.043
MS.478         	7.832          	0.031
MS.479         	7.817          	0.049
MS.480         	7.802          	0.043
MS.481         	7.787          	0.024
MS.482         	7.77           	0.024
MS.483         	7.755          	0.037
MS.484         	7.74           	0.031
MS.485         	7.725          	0.037
MS.486         	7.71           	0.043
MS.487         	7.695          	0.031
MS.488         	7.677          	0.024
MS.489         	7.662          	0.031
MS.490         	7.648          	0.024
MS.491         	7.632          	0.031
MS.492         	7.617          	0.024
MS.493         	7.602          	0.024
MS.494         	7.587          	0.018
MS.495         	7.572          	0.018
MS.496         	7.557          	0.037
MS.497         	7.543          	0.024
MS.498         	7.527          	0.018
MS.499         	7.512          	0.024
MS.500         	7.497          	0.024
MS.501         	7.482          	0.018
MS.502         	7.467          	0.024
MS.503         	7.452          	0.031
MS.504         	7.438          	0.024
MS.505         	7.422          	0.031
MS.506         	7.407          	0.024
DERIVED EXCITABILITY VARIABLES
Program = QTracP 9/10/2021
Threshold method = 6 (optimised for CAP, using data for present condition only)
SR method = 1 (using actual data values)
6.                 	0.000               	Peak response\(mV)
9.                 	29.7                	Temperature ( C)
17.                	31                  	Age (years)
18.                	2                   	Sex (M=1, F=2)

EXTRA VARIABLES

MScPeak(mV) = 12.82
MScS5(mA) = 9.12
MScS50(mA) = 11.93
MScS95(mA) = 16.11
MScNSteps = 0
MScSteps(%) = 0.0
MScStepMax(%) = 0.0
MScD50 = 55
MScSlope = 4.3
MScDuration(min) = 4.6
MSFTraces = 464
MSFPeakAmp(mV) = 12.9
MSFNUnits = 159
MSFMeanUnitAmp(uV) = 81.1
MSFHuntTime(m) = 2.99
MSFError(%) = 4.96
MSFNLarge = 45.35
MSFMedianAmp(%) = 0.498
MSFMedianAmp(mV) = 0.0642
MSFHalfAmpAmp(%) = 0.705
MSFHalfAmpAmp(mV) = 0.0909
MSFLargestAmp(%) = 2.9
MSFLargestAmp(mV) = 0.375
MSFMeanRS(%) = 2
MSFSizeLimit(uV) = 32.2
MSFLimitType = 1
MSFSmallestAmp(uV) = 32.7
MSFOpts = 10106121

EXTRA WAVEFORMS


!MScan Model
!159
	1	8.09	0.41	2
	2	8.3	0.68	2
	3	8.59	0.63	2
	4	8.75	0.32	2
	5	8.85	0.46	2
	6	8.91	0.4	2
	7	8.94	0.4	2
	8	8.98	0.73	2
	9	9.04	0.6	2
	10	9.17	0.65	2
	11	9.33	0.64	2
	12	9.82	0.47	2
	13	9.89	0.31	2
	14	9.93	0.29	2
	15	9.99	0.41	2
	16	10.04	0.42	2
	17	10.07	0.4	2
	18	10.08	0.29	2
	19	10.1	0.29	2
	20	10.11	0.29	2
	21	10.13	0.29	2
	22	10.14	0.33	2
	23	10.17	0.48	2
	24	10.2	0.39	2
	25	10.23	0.6	2
	26	10.28	0.94	2
	27	10.33	0.8	2
	28	10.37	0.58	2
	29	10.41	0.46	2
	30	10.45	0.65	2
	31	10.49	0.83	2
	32	10.54	0.75	2
	33	10.57	0.47	2
	34	10.59	0.26	2
	35	10.61	0.5	2
	36	10.63	0.32	2
	37	10.64	0.36	2
	38	10.65	0.27	2
	39	10.66	0.27	2
	40	10.67	0.27	2
	41	10.67	0.27	2
	42	10.68	0.27	2
	43	10.69	0.27	2
	44	10.7	0.27	2
	45	10.71	0.3	2
	46	10.72	0.3	2
	47	10.73	0.37	2
	48	10.74	0.38	2
	49	10.75	0.38	2
	50	10.76	0.38	2
	51	10.77	0.43	2
	52	10.78	0.55	2
	53	10.8	0.42	2
	54	10.81	0.36	2
	55	10.82	0.41	2
	56	10.84	0.42	2
	57	10.85	0.44	2
	58	10.95	2.9	2
	59	11.01	0.87	2
	60	11.02	0.36	2
	61	11.03	0.37	2
	62	11.05	0.38	2
	63	11.06	0.38	2
	64	11.07	0.38	2
	65	11.08	0.32	2
	66	11.09	0.6	2
	67	11.11	0.72	2
	68	11.13	0.55	2
	69	11.14	0.4	2
	70	11.16	0.38	2
	71	11.17	0.59	2
	72	11.19	0.6	2
	73	11.21	0.75	2
	74	11.25	1.02	2
	75	11.28	0.94	2
	76	11.33	1.56	2
	77	11.4	1.41	2
	78	11.47	1.32	2
	79	11.53	1.06	2
	80	11.59	0.97	2
	81	11.65	0.97	2
	82	11.69	0.6	2
	83	11.72	0.35	2
	84	11.75	0.62	2
	85	11.8	1.06	2
	86	11.84	0.97	2
	87	11.89	0.95	2
	88	11.94	0.86	2
	89	11.99	0.77	2
	90	12.04	1.16	2
	91	12.1	1.46	2
	92	12.16	1.03	2
	93	12.25	1.24	2
	94	12.29	0.71	2
	95	12.34	0.96	2
	96	12.39	0.75	2
	97	12.41	0.34	2
	98	12.47	0.62	2
	99	12.53	1.05	2
	100	12.67	1.81	2
	101	12.74	1.22	2
	102	12.77	0.26	2
	103	12.84	0.43	2
	104	12.86	0.45	2
	105	12.88	0.45	2
	106	12.9	0.36	2
	107	12.92	0.32	2
	108	12.94	0.31	2
	109	12.95	0.29	2
	110	12.97	0.29	2
	111	12.99	0.31	2
	112	13.03	0.67	2
	113	13.07	0.68	2
	114	13.11	0.6	2
	115	13.16	0.69	2
	116	13.22	0.86	2
	117	13.3	1.2	2
	118	13.42	1.25	2
	119	13.45	0.25	2
	120	13.5	0.37	2
	121	13.55	0.56	2
	122	13.62	1.01	2
	123	13.7	0.59	2
	124	13.77	0.64	2
	125	13.91	0.84	2
	126	14.17	1.21	2
	127	14.28	0.5	2
	128	14.32	0.41	2
	129	14.38	0.64	2
	130	14.49	1.26	2
	131	14.63	1.55	2
	132	14.7	0.62	2
	133	14.75	0.53	2
	134	14.8	0.54	2
	135	15.01	1.96	2
	136	15.08	0.49	2
	137	15.15	0.51	2
	138	15.2	0.37	2
	139	15.26	0.32	2
	140	15.32	0.65	2
	141	15.38	0.44	2
	142	15.44	0.42	2
	143	15.48	0.41	2
	144	15.53	0.47	2
	145	15.63	0.59	2
	146	15.78	0.87	2
	147	15.92	0.83	2
	148	15.98	0.39	2
	149	16.02	0.44	2
	150	16.07	0.48	2
	151	16.12	0.48	2
	152	16.17	0.54	2
	153	16.21	0.51	2
	154	16.27	0.59	2
	155	16.52	1.28	2
	156	16.85	0.84	2
	157	17.04	0.42	2
	158	18.02	0.94	2
	159	18.15	0.34	2

