File:              	C:\Qtrac\Data\Daniel M Sørensen\MScan multicentre study\Data from centres\Newcastle\Processed data\SMC00304C.QZD
Name:              	UK.NEW.NC.7.2
Protocol:          	MSCAN-R2
Date:              	4/3/20
Start time:        	10:33:56
Age:               	56
Sex:               	M
Temperature:       	32
S/R sites:         	TA
NC/disease:        	NC
Operator:          	SM
Comments:
M-SCAN DATA (2-0.0m)
Scanpts: 47, 68, 734, 751
Stim. (mA)     	Amp. (mV)
MS.1           	26.5           	8.053
MS.2           	26.5           	8.045
MS.3           	26.395         	8.049
MS.4           	26.342         	8.022
MS.5           	26.287         	7.998
MS.6           	26.235         	8.057
MS.7           	26.185         	8.041
MS.8           	26.132         	8.045
MS.9           	26.08          	8.022
MS.10          	26.028         	8.03
MS.11          	25.975         	8.065
MS.12          	25.922         	8.026
MS.13          	25.872         	8.028
MS.14          	25.82          	8.034
MS.15          	25.767         	8.061
MS.16          	25.717         	8.069
MS.17          	25.665         	8.026
MS.18          	25.615         	8.018
MS.19          	25.562         	8.002
MS.20          	25.512         	8.028
MS.21          	25.46          	8.049
MS.22          	25.41          	8.039
MS.23          	25.36          	8.067
MS.24          	25.307         	8.053
MS.25          	25.257         	8.014
MS.26          	25.207         	8.032
MS.27          	25.157         	8.053
MS.28          	25.108         	8.059
MS.29          	25.057         	8
MS.30          	25.007         	8.085
MS.31          	24.957         	8.032
MS.32          	24.907         	8.018
MS.33          	24.858         	7.96
MS.34          	24.807         	8.047
MS.35          	24.757         	8.002
MS.36          	24.707         	8
MS.37          	24.66          	7.986
MS.38          	24.61          	8.01
MS.39          	24.56          	8.01
MS.40          	24.512         	7.996
MS.41          	24.462         	8.02
MS.42          	24.413         	8.043
MS.43          	24.365         	8.008
MS.44          	24.315         	8.053
MS.45          	24.267         	8.045
MS.46          	24.22          	8.034
MS.47          	24.17          	8.041
MS.48          	24.122         	8.057
MS.49          	24.075         	8.014
MS.50          	24.025         	8.004
MS.51          	23.977         	8.047
MS.52          	23.93          	8.01
MS.53          	23.882         	8.036
MS.54          	23.835         	8
MS.55          	23.788         	8.02
MS.56          	23.74          	8.059
MS.57          	23.692         	8.039
MS.58          	23.645         	8.034
MS.59          	23.597         	7.998
MS.60          	23.55          	8.01
MS.61          	23.502         	8.022
MS.62          	23.457         	8.047
MS.63          	23.41          	7.978
MS.64          	23.362         	8.02
MS.65          	23.315         	8.008
MS.66          	23.27          	8.047
MS.67          	23.222         	8.073
MS.68          	23.177         	8.014
MS.69          	23.13          	8.01
MS.70          	23.085         	8.053
MS.71          	23.038         	8.057
MS.72          	22.993         	7.998
MS.73          	22.945         	8
MS.74          	22.9           	8.018
MS.75          	22.855         	8.014
MS.76          	22.807         	8.022
MS.77          	22.762         	7.924
MS.78          	22.717         	7.974
MS.79          	22.672         	7.978
MS.80          	22.627         	7.928
MS.81          	22.582         	8.006
MS.82          	22.538         	8.002
MS.83          	22.493         	7.97
MS.84          	22.448         	8.065
MS.85          	22.403         	8.036
MS.86          	22.358         	8.02
MS.87          	22.312         	7.938
MS.88          	22.267         	7.966
MS.89          	22.222         	8.006
MS.90          	22.18          	7.902
MS.91          	22.135         	7.976
MS.92          	22.09          	7.986
MS.93          	22.045         	8.014
MS.94          	22.002         	7.96
MS.95          	21.958         	7.934
MS.96          	21.915         	7.968
MS.97          	21.87          	7.893
MS.98          	21.827         	7.93
MS.99          	21.782         	7.974
MS.100         	21.74          	7.928
MS.101         	21.698         	7.944
MS.102         	21.653         	7.926
MS.103         	21.61          	7.908
MS.104         	21.567         	7.885
MS.105         	21.522         	7.914
MS.106         	21.48          	7.906
MS.107         	21.438         	7.928
MS.108         	21.395         	7.948
MS.109         	21.352         	7.908
MS.110         	21.31          	7.863
MS.111         	21.267         	7.865
MS.112         	21.225         	7.914
MS.113         	21.182         	7.96
MS.114         	21.14          	7.904
MS.115         	21.097         	7.831
MS.116         	21.055         	7.889
MS.117         	21.012         	7.904
MS.118         	20.97          	7.887
MS.119         	20.93          	7.873
MS.120         	20.887         	7.914
MS.121         	20.845         	7.879
MS.122         	20.805         	7.859
MS.123         	20.762         	7.837
MS.124         	20.72          	7.835
MS.125         	20.68          	7.849
MS.126         	20.637         	7.92
MS.127         	20.597         	7.853
MS.128         	20.555         	7.845
MS.129         	20.515         	7.829
MS.130         	20.472         	7.904
MS.131         	20.432         	7.881
MS.132         	20.392         	7.871
MS.133         	20.35          	7.857
MS.134         	20.31          	7.825
MS.135         	20.27          	7.942
MS.136         	20.23          	7.887
MS.137         	20.19          	7.839
MS.138         	20.147         	7.869
MS.139         	20.108         	7.879
MS.140         	20.067         	7.942
MS.141         	20.028         	7.861
MS.142         	19.987         	7.881
MS.143         	19.948         	7.825
MS.144         	19.907         	7.887
MS.145         	19.868         	7.887
MS.146         	19.83          	7.906
MS.147         	19.79          	7.807
MS.148         	19.75          	7.829
MS.149         	19.71          	7.906
MS.150         	19.67          	7.93
MS.151         	19.632         	7.936
MS.152         	19.592         	7.908
MS.153         	19.552         	7.942
MS.154         	19.515         	7.791
MS.155         	19.475         	7.93
MS.156         	19.438         	7.859
MS.157         	19.397         	7.926
MS.158         	19.358         	7.873
MS.159         	19.32          	7.823
MS.160         	19.282         	7.908
MS.161         	19.243         	7.889
MS.162         	19.205         	7.829
MS.163         	19.165         	7.918
MS.164         	19.127         	7.873
MS.165         	19.09          	7.883
MS.166         	19.052         	7.869
MS.167         	19.012         	7.877
MS.168         	18.975         	7.924
MS.169         	18.938         	7.833
MS.170         	18.9           	7.821
MS.171         	18.862         	7.954
MS.172         	18.825         	7.893
MS.173         	18.788         	7.861
MS.174         	18.75          	7.926
MS.175         	18.712         	7.875
MS.176         	18.675         	7.839
MS.177         	18.637         	7.972
MS.178         	18.6           	7.924
MS.179         	18.562         	7.908
MS.180         	18.525         	7.783
MS.181         	18.487         	7.877
MS.182         	18.452         	7.879
MS.183         	18.415         	7.837
MS.184         	18.378         	7.877
MS.185         	18.34          	7.893
MS.186         	18.305         	7.877
MS.187         	18.267         	7.781
MS.188         	18.233         	7.853
MS.189         	18.195         	7.847
MS.190         	18.157         	7.817
MS.191         	18.122         	7.821
MS.192         	18.085         	7.736
MS.193         	18.05          	7.922
MS.194         	18.015         	7.883
MS.195         	17.977         	7.746
MS.196         	17.942         	7.819
MS.197         	17.905         	7.728
MS.198         	17.87          	7.771
MS.199         	17.835         	7.906
MS.200         	17.8           	7.755
MS.201         	17.762         	7.835
MS.202         	17.727         	7.722
MS.203         	17.692         	7.871
MS.204         	17.657         	7.734
MS.205         	17.622         	7.724
MS.206         	17.587         	7.755
MS.207         	17.552         	7.805
MS.208         	17.517         	7.813
MS.209         	17.483         	7.765
MS.210         	17.448         	7.777
MS.211         	17.413         	7.799
MS.212         	17.378         	7.724
MS.213         	17.342         	7.716
MS.214         	17.307         	7.736
MS.215         	17.272         	7.722
MS.216         	17.237         	7.712
MS.217         	17.205         	7.706
MS.218         	17.17          	7.686
MS.219         	17.135         	7.811
MS.220         	17.1           	7.775
MS.221         	17.067         	7.771
MS.222         	17.032         	7.783
MS.223         	17             	7.767
MS.224         	16.965         	7.712
MS.225         	16.93          	7.682
MS.226         	16.897         	7.686
MS.227         	16.862         	7.765
MS.228         	16.83          	7.71
MS.229         	16.795         	7.753
MS.230         	16.762         	7.698
MS.231         	16.73          	7.73
MS.232         	16.695         	7.728
MS.233         	16.663         	7.69
MS.234         	16.63          	7.736
MS.235         	16.595         	7.706
MS.236         	16.562         	7.71
MS.237         	16.53          	7.781
MS.238         	16.497         	7.763
MS.239         	16.462         	7.765
MS.240         	16.43          	7.718
MS.241         	16.397         	7.748
MS.242         	16.365         	7.664
MS.243         	16.333         	7.759
MS.244         	16.3           	7.746
MS.245         	16.267         	7.69
MS.246         	16.235         	7.605
MS.247         	16.202         	7.728
MS.248         	16.17          	7.64
MS.249         	16.137         	7.67
MS.250         	16.105         	7.716
MS.251         	16.073         	7.626
MS.252         	16.04          	7.662
MS.253         	16.01          	7.74
MS.254         	15.977         	7.698
MS.255         	15.945         	7.658
MS.256         	15.912         	7.692
MS.257         	15.882         	7.668
MS.258         	15.85          	7.62
MS.259         	15.818         	7.662
MS.260         	15.787         	7.72
MS.261         	15.755         	7.688
MS.262         	15.722         	7.612
MS.263         	15.693         	7.595
MS.264         	15.66          	7.628
MS.265         	15.63          	7.628
MS.266         	15.597         	7.646
MS.267         	15.568         	7.601
MS.268         	15.535         	7.684
MS.269         	15.505         	7.765
MS.270         	15.472         	7.593
MS.271         	15.443         	7.628
MS.272         	15.412         	7.569
MS.273         	15.38          	7.587
MS.274         	15.35          	7.587
MS.275         	15.32          	7.573
MS.276         	15.29          	7.595
MS.277         	15.257         	7.672
MS.278         	15.227         	7.638
MS.279         	15.197         	7.626
MS.280         	15.167         	7.565
MS.281         	15.137         	7.605
MS.282         	15.108         	7.571
MS.283         	15.077         	7.545
MS.284         	15.047         	7.575
MS.285         	15.017         	7.561
MS.286         	14.987         	7.531
MS.287         	14.957         	7.581
MS.288         	14.927         	7.555
MS.289         	14.898         	7.464
MS.290         	14.867         	7.575
MS.291         	14.837         	7.505
MS.292         	14.807         	7.587
MS.293         	14.777         	7.541
MS.294         	14.747         	7.41
MS.295         	14.72          	7.523
MS.296         	14.69          	7.531
MS.297         	14.66          	7.426
MS.298         	14.63          	7.487
MS.299         	14.602         	7.535
MS.300         	14.572         	7.477
MS.301         	14.542         	7.487
MS.302         	14.515         	7.519
MS.303         	14.485         	7.501
MS.304         	14.457         	7.426
MS.305         	14.427         	7.342
MS.306         	14.398         	7.456
MS.307         	14.37          	7.313
MS.308         	14.342         	7.398
MS.309         	14.312         	7.432
MS.310         	14.285         	7.368
MS.311         	14.255         	7.35
MS.312         	14.227         	7.352
MS.313         	14.197         	7.323
MS.314         	14.17          	7.243
MS.315         	14.142         	7.321
MS.316         	14.112         	7.36
MS.317         	14.085         	7.317
MS.318         	14.057         	7.311
MS.319         	14.03          	7.289
MS.320         	14             	7.17
MS.321         	13.972         	7.277
MS.322         	13.945         	7.291
MS.323         	13.917         	7.225
MS.324         	13.89          	7.162
MS.325         	13.862         	7.241
MS.326         	13.835         	7.201
MS.327         	13.807         	7.17
MS.328         	13.78          	7.18
MS.329         	13.752         	7.221
MS.330         	13.725         	7.14
MS.331         	13.697         	7.178
MS.332         	13.67          	7.17
MS.333         	13.642         	7.16
MS.334         	13.615         	7.16
MS.335         	13.587         	7.182
MS.336         	13.56          	7.156
MS.337         	13.532         	7.088
MS.338         	13.505         	7.114
MS.339         	13.48          	7.142
MS.340         	13.452         	7.015
MS.341         	13.425         	7.09
MS.342         	13.398         	7.07
MS.343         	13.372         	7.037
MS.344         	13.345         	7.046
MS.345         	13.318         	6.955
MS.346         	13.292         	7.027
MS.347         	13.265         	7.048
MS.348         	13.237         	6.981
MS.349         	13.212         	6.961
MS.350         	13.185         	7.005
MS.351         	13.16          	6.941
MS.352         	13.132         	6.898
MS.353         	13.108         	6.911
MS.354         	13.08          	6.852
MS.355         	13.055         	6.741
MS.356         	13.028         	6.778
MS.357         	13.002         	6.719
MS.358         	12.977         	6.794
MS.359         	12.95          	6.623
MS.360         	12.925         	6.645
MS.361         	12.9           	6.806
MS.362         	12.872         	6.629
MS.363         	12.847         	6.667
MS.364         	12.822         	6.619
MS.365         	12.795         	6.328
MS.366         	12.77          	6.556
MS.367         	12.745         	6.415
MS.368         	12.72          	6.6
MS.369         	12.695         	6.459
MS.370         	12.67          	6.512
MS.371         	12.642         	6.433
MS.372         	12.617         	6.345
MS.373         	12.592         	6.463
MS.374         	12.568         	6.322
MS.375         	12.542         	6.175
MS.376         	12.517         	6.302
MS.377         	12.492         	5.988
MS.378         	12.467         	6.053
MS.379         	12.443         	6.27
MS.380         	12.417         	6.083
MS.381         	12.392         	6.03
MS.382         	12.367         	6.097
MS.383         	12.342         	6.034
MS.384         	12.32          	5.893
MS.385         	12.295         	5.754
MS.386         	12.27          	5.908
MS.387         	12.245         	5.847
MS.388         	12.22          	5.908
MS.389         	12.197         	5.795
MS.390         	12.172         	5.662
MS.391         	12.148         	5.736
MS.392         	12.122         	5.771
MS.393         	12.1           	5.644
MS.394         	12.075         	5.718
MS.395         	12.05          	5.716
MS.396         	12.028         	5.752
MS.397         	12.002         	5.654
MS.398         	11.98          	5.648
MS.399         	11.955         	5.571
MS.400         	11.93          	5.579
MS.401         	11.907         	5.569
MS.402         	11.882         	5.523
MS.403         	11.86          	5.543
MS.404         	11.835         	5.535
MS.405         	11.812         	5.539
MS.406         	11.787         	5.547
MS.407         	11.765         	5.529
MS.408         	11.742         	5.547
MS.409         	11.717         	5.537
MS.410         	11.695         	5.615
MS.411         	11.672         	5.432
MS.412         	11.648         	5.559
MS.413         	11.625         	5.454
MS.414         	11.602         	5.434
MS.415         	11.577         	5.39
MS.416         	11.555         	5.352
MS.417         	11.532         	5.07
MS.418         	11.51          	5.213
MS.419         	11.485         	5.317
MS.420         	11.462         	5.019
MS.421         	11.44          	5.269
MS.422         	11.417         	5.168
MS.423         	11.395         	5.108
MS.424         	11.372         	5.17
MS.425         	11.35          	4.969
MS.426         	11.327         	4.983
MS.427         	11.305         	4.83
MS.428         	11.28          	5.07
MS.429         	11.257         	4.911
MS.430         	11.235         	4.9
MS.431         	11.215         	4.574
MS.432         	11.193         	4.477
MS.433         	11.17          	4.653
MS.434         	11.148         	4.629
MS.435         	11.125         	4.725
MS.436         	11.102         	4.576
MS.437         	11.08          	4.645
MS.438         	11.057         	4.687
MS.439         	11.035         	4.598
MS.440         	11.012         	4.488
MS.441         	10.992         	4.411
MS.442         	10.97          	4.383
MS.443         	10.948         	4.395
MS.444         	10.925         	4.308
MS.445         	10.905         	4.351
MS.446         	10.882         	4.312
MS.447         	10.86          	4.405
MS.448         	10.84          	4.345
MS.449         	10.818         	4.226
MS.450         	10.795         	4.222
MS.451         	10.775         	4.284
MS.452         	10.752         	4.115
MS.453         	10.73          	4.02
MS.454         	10.71          	4.185
MS.455         	10.688         	4.175
MS.456         	10.667         	3.952
MS.457         	10.645         	4.181
MS.458         	10.625         	4.008
MS.459         	10.602         	4.095
MS.460         	10.582         	3.932
MS.461         	10.56          	3.94
MS.462         	10.54          	3.964
MS.463         	10.517         	4.087
MS.464         	10.497         	3.891
MS.465         	10.477         	3.928
MS.466         	10.455         	3.684
MS.467         	10.435         	3.883
MS.468         	10.415         	3.811
MS.469         	10.392         	3.636
MS.470         	10.372         	3.73
MS.471         	10.352         	3.775
MS.472         	10.33          	3.754
MS.473         	10.31          	3.686
MS.474         	10.29          	3.76
MS.475         	10.27          	3.694
MS.476         	10.247         	3.617
MS.477         	10.227         	3.644
MS.478         	10.207         	3.752
MS.479         	10.188         	3.666
MS.480         	10.167         	3.553
MS.481         	10.148         	3.513
MS.482         	10.127         	3.468
MS.483         	10.105         	3.563
MS.484         	10.085         	3.448
MS.485         	10.065         	3.533
MS.486         	10.045         	3.531
MS.487         	10.025         	3.509
MS.488         	10.005         	3.414
MS.489         	9.985          	3.317
MS.490         	9.965          	3.396
MS.491         	9.945          	3.416
MS.492         	9.925          	3.293
MS.493         	9.905          	3.291
MS.494         	9.885          	3.295
MS.495         	9.867          	3.253
MS.496         	9.847          	3.158
MS.497         	9.827          	3.209
MS.498         	9.807          	3.094
MS.499         	9.787          	3.001
MS.500         	9.767          	3.039
MS.501         	9.75           	2.949
MS.502         	9.73           	2.923
MS.503         	9.71           	2.786
MS.504         	9.69           	2.904
MS.505         	9.67           	2.78
MS.506         	9.653          	2.717
MS.507         	9.632          	2.751
MS.508         	9.613          	2.721
MS.509         	9.595          	2.584
MS.510         	9.575          	2.562
MS.511         	9.555          	2.316
MS.512         	9.537          	2.635
MS.513         	9.517          	2.61
MS.514         	9.497          	2.467
MS.515         	9.48           	2.393
MS.516         	9.46           	2.455
MS.517         	9.443          	2.181
MS.518         	9.422          	2.085
MS.519         	9.405          	2.171
MS.520         	9.385          	2.169
MS.521         	9.367          	2.151
MS.522         	9.347          	1.978
MS.523         	9.33           	2.05
MS.524         	9.31           	2.141
MS.525         	9.292          	1.934
MS.526         	9.273          	1.851
MS.527         	9.255          	1.988
MS.528         	9.238          	1.865
MS.529         	9.217          	1.855
MS.530         	9.2            	1.783
MS.531         	9.18           	1.712
MS.532         	9.162          	1.71
MS.533         	9.145          	1.581
MS.534         	9.125          	1.595
MS.535         	9.108          	1.458
MS.536         	9.09           	1.631
MS.537         	9.073          	1.561
MS.538         	9.052          	1.509
MS.539         	9.035          	1.503
MS.540         	9.017          	1.376
MS.541         	9              	1.438
MS.542         	8.983          	1.406
MS.543         	8.962          	1.412
MS.544         	8.945          	1.541
MS.545         	8.927          	1.299
MS.546         	8.91           	1.301
MS.547         	8.892          	1.358
MS.548         	8.875          	1.263
MS.549         	8.858          	1.251
MS.550         	8.837          	1.362
MS.551         	8.82           	1.269
MS.552         	8.802          	1.275
MS.553         	8.785          	1.269
MS.554         	8.767          	1.235
MS.555         	8.75           	1.271
MS.556         	8.733          	1.277
MS.557         	8.715          	1.237
MS.558         	8.698          	1.221
MS.559         	8.68           	1.196
MS.560         	8.662          	1.202
MS.561         	8.648          	1.156
MS.562         	8.63           	1.172
MS.563         	8.613          	1.158
MS.564         	8.595          	1.156
MS.565         	8.577          	1.12
MS.566         	8.56           	1.092
MS.567         	8.542          	0.999
MS.568         	8.525          	1.122
MS.569         	8.51           	1.068
MS.570         	8.492          	1.068
MS.571         	8.475          	1.08
MS.572         	8.457          	1.059
MS.573         	8.443          	1.005
MS.574         	8.425          	0.997
MS.575         	8.408          	0.828
MS.576         	8.39           	0.906
MS.577         	8.375          	0.912
MS.578         	8.358          	0.945
MS.579         	8.34           	0.929
MS.580         	8.325          	0.955
MS.581         	8.307          	0.878
MS.582         	8.29           	0.933
MS.583         	8.275          	0.864
MS.584         	8.257          	0.854
MS.585         	8.24           	0.888
MS.586         	8.225          	0.842
MS.587         	8.207          	0.779
MS.588         	8.193          	0.832
MS.589         	8.175          	0.693
MS.590         	8.16           	0.645
MS.591         	8.142          	0.701
MS.592         	8.127          	0.661
MS.593         	8.11           	0.62
MS.594         	8.095          	0.697
MS.595         	8.077          	0.719
MS.596         	8.062          	0.606
MS.597         	8.045          	0.661
MS.598         	8.03           	0.626
MS.599         	8.012          	0.624
MS.600         	7.997          	0.624
MS.601         	7.982          	0.552
MS.602         	7.965          	0.562
MS.603         	7.95           	0.626
MS.604         	7.935          	0.562
MS.605         	7.918          	0.506
MS.606         	7.902          	0.516
MS.607         	7.887          	0.564
MS.608         	7.87           	0.586
MS.609         	7.855          	0.544
MS.610         	7.84           	0.489
MS.611         	7.822          	0.457
MS.612         	7.807          	0.431
MS.613         	7.793          	0.473
MS.614         	7.777          	0.465
MS.615         	7.76           	0.435
MS.616         	7.745          	0.453
MS.617         	7.73           	0.417
MS.618         	7.715          	0.459
MS.619         	7.7            	0.413
MS.620         	7.685          	0.369
MS.621         	7.668          	0.437
MS.622         	7.652          	0.445
MS.623         	7.637          	0.35
MS.624         	7.622          	0.371
MS.625         	7.607          	0.403
MS.626         	7.592          	0.383
MS.627         	7.577          	0.344
MS.628         	7.562          	0.324
MS.629         	7.547          	0.332
MS.630         	7.532          	0.292
MS.631         	7.517          	0.258
MS.632         	7.503          	0.292
MS.633         	7.487          	0.294
MS.634         	7.472          	0.292
MS.635         	7.457          	0.25
MS.636         	7.442          	0.214
MS.637         	7.427          	0.181
MS.638         	7.412          	0.226
MS.639         	7.398          	0.183
MS.640         	7.382          	0.203
MS.641         	7.367          	0.205
MS.642         	7.352          	0.157
MS.643         	7.337          	0.254
MS.644         	7.325          	0.232
MS.645         	7.31           	0.177
MS.646         	7.295          	0.226
MS.647         	7.28           	0.137
MS.648         	7.265          	0.157
MS.649         	7.25           	0.171
MS.650         	7.237          	0.141
MS.651         	7.222          	0.151
MS.652         	7.207          	0.171
MS.653         	7.192          	0.153
MS.654         	7.18           	0.119
MS.655         	7.165          	0.06
MS.656         	7.15           	0.135
MS.657         	7.135          	0.137
MS.658         	7.122          	0.155
MS.659         	7.108          	0.153
MS.660         	7.092          	0.115
MS.661         	7.08           	0.121
MS.662         	7.065          	0.073
MS.663         	7.05           	0.119
MS.664         	7.037          	0.06
MS.665         	7.023          	0.093
MS.666         	7.007          	0.062
MS.667         	6.995          	0.137
MS.668         	6.98           	0.068
MS.669         	6.967          	0.123
MS.670         	6.952          	0.068
MS.671         	6.94           	0.105
MS.672         	6.925          	0.054
MS.673         	6.91           	0.056
MS.674         	6.898          	0.109
MS.675         	6.882          	0.113
MS.676         	6.87           	0.111
MS.677         	6.855          	0.107
MS.678         	6.842          	0.044
MS.679         	6.827          	0.054
MS.680         	6.815          	0.099
MS.681         	6.802          	0.095
MS.682         	6.787          	0.04
MS.683         	6.775          	0.024
MS.684         	6.76           	0.034
MS.685         	6.747          	0.036
MS.686         	6.735          	0.058
MS.687         	6.72           	0.024
MS.688         	6.707          	0.06
MS.689         	6.692          	0.044
MS.690         	6.68           	0.02
MS.691         	6.668          	0.048
MS.692         	6.652          	0.058
MS.693         	6.64           	0.044
MS.694         	6.628          	0.026
MS.695         	6.612          	0.03
MS.696         	6.6            	0.044
MS.697         	6.587          	0.046
MS.698         	6.575          	0.024
MS.699         	6.56           	0.014
MS.700         	6.547          	0.022
MS.701         	6.535          	0.016
MS.702         	6.523          	0.032
MS.703         	6.507          	-0.002
MS.704         	6.495          	0.002
MS.705         	6.483          	0.028
MS.706         	6.47           	0.002
MS.707         	6.457          	0.000
MS.708         	6.445          	0.008
MS.709         	6.43           	0.024
MS.710         	6.418          	0.012
MS.711         	6.405          	0.008
MS.712         	6.392          	0.018
MS.713         	6.38           	0.000
MS.714         	6.367          	0.016
MS.715         	6.355          	0.000
MS.716         	6.342          	0.012
MS.717         	6.33           	-0.004
MS.718         	6.317          	0.012
MS.719         	6.302          	0.002
MS.720         	6.29           	0.002
MS.721         	6.277          	-0.008
MS.722         	6.265          	-0.004
MS.723         	6.253          	0.000
MS.724         	6.24           	0.000
MS.725         	6.227          	0.002
MS.726         	6.215          	0.012
MS.727         	6.202          	0.002
MS.728         	6.192          	-0.002
MS.729         	6.18           	0.006
MS.730         	6.168          	-0.004
MS.731         	6.155          	0.000
MS.732         	6.142          	-0.006
MS.733         	6.13           	-0.002
MS.734         	6.117          	0.000
MS.735         	6.105          	0.000
MS.736         	6.092          	-0.002
MS.737         	6.08           	-0.002
MS.738         	6.067          	-0.002
MS.739         	6.057          	-0.002
MS.740         	6.045          	0.000
MS.741         	6.032          	-0.002
MS.742         	6.02           	-0.004
MS.743         	6.007          	0.000
MS.744         	5.997          	0.000
MS.745         	5.985          	-0.004
MS.746         	5.972          	0.000
MS.747         	5.96           	0.000
MS.748         	5.947          	-0.004
MS.749         	5.938          	0.000
MS.750         	5.925          	0.000
MS.751         	5.912          	0.004
MS.752         	5.9            	0.000
MS.753         	5.89           	-0.002
MS.754         	5.878          	0.000
MS.755         	5.865          	-0.014
MS.756         	5.855          	-0.002
MS.757         	5.842          	0.000
DERIVED EXCITABILITY VARIABLES
Program = QTracP 9/10/2021
Threshold method = 6 (optimised for CAP, using data for present condition only)
SR method = 1 (using actual data values)
6.                 	0.000               	Peak response\(mV)
9.                 	32                  	Temperature ( C)
17.                	56                  	Age (years)
18.                	1                   	Sex (M=1, F=2)

EXTRA VARIABLES

MScPeak(mV) = 8.03
MScS5(mA) = 6.12
MScS50(mA) = 6.09
MScS95(mA) = 6.09
MScNSteps = 0
MScSteps(%) = 0.0
MScStepMax(%) = 0.0
MScD50 = 70
MScSlope = -425.01
MScDuration(min) = 2
MSFTraces = 705
MSFPeakAmp(mV) = 8.03
MSFNUnits = 187
MSFMeanUnitAmp(uV) = 42.9
MSFHuntTime(m) = 5.08
MSFError(%) = 1.9
MSFNLarge = 64.43
MSFMedianAmp(%) = 0.478
MSFMedianAmp(mV) = 0.0384
MSFHalfAmpAmp(%) = 0.553
MSFHalfAmpAmp(mV) = 0.0444
MSFLargestAmp(%) = 1.72
MSFLargestAmp(mV) = 0.138
MSFMeanRS(%) = 1.99
MSFSizeLimit(uV) = 20.1
MSFLimitType = 1
MSFSmallestAmp(uV) = 20.3
MSFOpts = 10106121

EXTRA WAVEFORMS


!MScan Model
!187
	1	6.54	0.31	2
	2	6.79	0.48	2
	3	7.12	0.76	2
	4	7.25	0.54	2
	5	7.32	0.32	2
	6	7.37	0.28	2
	7	7.41	0.28	2
	8	7.45	0.29	2
	9	7.48	0.27	2
	10	7.54	0.55	2
	11	7.62	0.65	2
	12	7.68	0.38	2
	13	7.71	0.28	2
	14	7.76	0.36	2
	15	7.82	0.56	2
	16	7.89	0.4	2
	17	7.93	0.3	2
	18	7.98	0.44	2
	19	8.02	0.4	2
	20	8.05	0.28	2
	21	8.08	0.37	2
	22	8.11	0.33	2
	23	8.13	0.27	2
	24	8.16	0.29	2
	25	8.19	0.39	2
	26	8.23	0.38	2
	27	8.27	0.47	2
	28	8.32	0.55	2
	29	8.36	0.52	2
	30	8.4	0.58	2
	31	8.44	0.38	2
	32	8.47	0.26	2
	33	8.5	0.29	2
	34	8.53	0.3	2
	35	8.56	0.27	2
	36	8.58	0.28	2
	37	8.62	0.35	2
	38	8.65	0.37	2
	39	8.69	0.31	2
	40	8.74	0.47	1.8
	41	8.79	0.46	2
	42	8.84	0.49	2
	43	8.94	0.65	2
	44	8.97	0.25	2
	45	9	0.45	2
	46	9.02	0.51	2
	47	9.05	0.43	2
	48	9.07	0.35	2
	49	9.09	0.37	2
	50	9.11	0.43	2
	51	9.13	0.44	2
	52	9.15	0.39	2
	53	9.16	0.35	2
	54	9.18	0.37	2
	55	9.2	0.4	2
	56	9.22	0.43	2
	57	9.24	0.39	2
	58	9.24	0.52	2
	59	9.25	0.42	2
	60	9.27	0.47	2
	61	9.29	0.51	2
	62	9.3	0.5	2
	63	9.32	0.52	2
	64	9.34	0.53	2
	65	9.36	0.55	2
	66	9.38	0.49	2
	67	9.4	0.49	2
	68	9.41	0.5	2
	69	9.43	0.47	2
	70	9.45	0.46	2
	71	9.47	0.46	2
	72	9.49	0.48	2
	73	9.5	0.48	2
	74	9.52	0.44	2
	75	9.53	0.44	2
	76	9.55	0.45	2
	77	9.57	0.45	2
	78	9.58	0.45	2
	79	9.6	0.45	2
	80	9.61	0.45	2
	81	9.63	0.49	2
	82	9.65	0.47	2
	83	9.66	0.46	2
	84	9.68	0.44	2
	85	9.69	0.39	2
	86	9.7	0.27	2
	87	9.71	0.26	2
	88	9.73	0.57	2
	89	9.77	0.58	2
	90	9.78	0.28	2
	91	9.79	0.29	2
	92	9.8	0.32	2
	93	9.81	0.31	2
	94	9.82	0.31	2
	95	9.83	0.28	2
	96	9.85	0.27	2
	97	9.87	0.6	2
	98	9.9	0.51	2
	99	9.92	0.46	2
	100	9.94	0.43	2
	101	9.96	0.38	1.6
	102	9.98	0.35	2
	103	10	0.44	2
	104	10.03	0.53	2
	105	10.06	0.44	2
	106	10.1	0.47	2
	107	10.15	0.69	2
	108	10.2	0.61	2
	109	10.26	0.78	2
	110	10.32	0.7	2
	111	10.38	0.71	2
	112	10.44	0.71	2
	113	10.5	0.69	2
	114	10.55	0.63	2
	115	10.6	0.73	2
	116	10.64	0.73	2
	117	10.69	0.65	2
	118	10.73	0.49	2
	119	10.76	0.44	2
	120	10.79	0.48	2
	121	10.82	0.49	2
	122	10.87	0.69	2
	123	10.92	0.66	2
	124	10.98	0.94	2
	125	11.03	1.02	2
	126	11.07	0.58	2
	127	11.11	0.64	2
	128	11.14	0.74	2
	129	11.2	1.02	2
	130	11.23	1.49	1.6
	131	11.25	0.98	2
	132	11.3	0.79	2
	133	11.34	0.82	2
	134	11.38	0.94	2
	135	11.43	1.04	2
	136	11.48	0.91	2
	137	11.54	1.07	2
	138	11.6	0.79	2
	139	11.93	0.57	2
	140	11.99	0.46	2
	141	12.04	0.4	2
	142	12.09	0.53	2
	143	12.15	0.62	2
	144	12.2	0.69	2
	145	12.25	0.56	2
	146	12.29	0.69	2
	147	12.3	1.08	2
	148	12.33	0.64	2
	149	12.37	0.49	2
	150	12.4	0.54	2
	151	12.44	0.61	2
	152	12.48	0.76	2
	153	12.53	0.7	2
	154	12.58	0.75	2
	155	12.63	0.92	2
	156	12.69	0.82	2
	157	12.75	0.9	2
	158	12.8	0.83	2
	159	12.86	0.67	2
	160	12.91	0.67	2
	161	12.95	0.64	2
	162	13	0.49	2
	163	13.04	0.43	2
	164	13.09	0.48	2
	165	13.13	0.53	2
	166	13.18	0.43	2
	167	13.22	0.39	2
	168	13.26	0.39	2
	169	13.3	0.35	2
	170	13.35	0.31	2
	171	13.43	0.6	2
	172	13.5	0.38	2
	173	13.57	0.3	2
	174	13.66	0.38	2
	175	13.76	0.47	2
	176	14	0.29	2
	177	14.1	0.46	2
	178	14.2	0.53	2
	179	14.32	0.51	2
	180	14.45	0.61	2
	181	14.47	0.64	2
	182	14.75	0.63	2
	183	15.1	1.14	2
	184	16.04	1.36	2
	185	18.02	1.72	2
	186	21.42	0.95	2
	187	22.39	0.76	2

