File:              	C:\Qtrac\Data\Daniel M Sørensen\MScan multicentre study\Data from centres\Oslo\Processed data\SZC00429B.QZD
Name:              	NO.OSL.NC.1.2
Protocol:          	MSCAN-R2
Date:              	29/4/20
Start time:        	09:15:21
Age:               	57
Sex:               	F
Temperature:       	31.2
S/R sites:         	ADM
NC/disease:        	NC1
Operator:          	SZ
Comments:          	test2
M-SCAN DATA (8.3-4.2m)
Scanpts: 11, 18, 256, 261
Stim. (mA)     	Amp. (mV)
MS.1           	27.5           	11.1
MS.2           	27.5           	10.993
MS.3           	27.5           	10.981
MS.4           	27.5           	10.905
MS.5           	27.5           	11.062
MS.6           	27.5           	11.003
MS.7           	27.5           	11.03
MS.8           	27.5           	11.013
MS.9           	27.5           	10.971
MS.10          	27.5           	10.935
MS.11          	27.5           	11.108
MS.12          	27.5           	10.967
MS.13          	27.5           	10.975
MS.14          	27.5           	10.957
MS.15          	27.5           	10.939
MS.16          	27.5           	11.034
MS.17          	27.5           	10.961
MS.18          	27.5           	10.973
MS.19          	27.5           	11.038
MS.20          	27.5           	11.021
MS.21          	27.5           	10.961
MS.22          	27.5           	10.991
MS.23          	27.5           	10.997
MS.24          	27.335         	10.834
MS.25          	27.28          	10.889
MS.26          	27.227         	10.915
MS.27          	27.172         	10.953
MS.28          	27.118         	10.78
MS.29          	27.062         	10.816
MS.30          	27.01          	10.804
MS.31          	26.955         	10.889
MS.32          	26.903         	10.792
MS.33          	26.847         	10.631
MS.34          	26.795         	10.715
MS.35          	26.74          	10.639
MS.36          	26.688         	10.711
MS.37          	26.635         	10.711
MS.38          	26.58          	10.605
MS.39          	26.528         	10.723
MS.40          	26.475         	10.574
MS.41          	26.422         	10.605
MS.42          	26.37          	10.443
MS.43          	26.315         	10.526
MS.44          	26.262         	10.447
MS.45          	26.21          	10.653
MS.46          	26.157         	10.617
MS.47          	26.108         	10.629
MS.48          	26.055         	10.609
MS.49          	26.002         	10.576
MS.50          	25.95          	10.603
MS.51          	25.897         	10.51
MS.52          	25.847         	10.464
MS.53          	25.795         	10.56
MS.54          	25.743         	10.635
MS.55          	25.692         	10.504
MS.56          	25.64          	10.613
MS.57          	25.59          	10.466
MS.58          	25.538         	10.627
MS.59          	25.487         	10.47
MS.60          	25.438         	10.544
MS.61          	25.385         	10.52
MS.62          	25.335         	10.482
MS.63          	25.285         	10.51
MS.64          	25.233         	10.617
MS.65          	25.182         	10.441
MS.66          	25.132         	10.538
MS.67          	25.082         	10.476
MS.68          	25.032         	10.584
MS.69          	24.983         	10.625
MS.70          	24.932         	10.419
MS.71          	24.882         	10.528
MS.72          	24.832         	10.544
MS.73          	24.782         	10.393
MS.74          	24.735         	10.548
MS.75          	24.685         	10.409
MS.76          	24.635         	10.621
MS.77          	24.585         	10.371
MS.78          	24.538         	10.435
MS.79          	24.487         	10.242
MS.80          	24.44          	10.266
MS.81          	24.39          	10.061
MS.82          	24.342         	10.184
MS.83          	24.292         	10.101
MS.84          	24.245         	10.333
MS.85          	24.195         	10.101
MS.86          	24.147         	9.994
MS.87          	24.1           	9.996
MS.88          	24.05          	9.948
MS.89          	24.002         	9.706
MS.90          	23.955         	9.994
MS.91          	23.907         	9.98
MS.92          	23.86          	10.012
MS.93          	23.812         	10.051
MS.94          	23.765         	10.033
MS.95          	23.717         	9.787
MS.96          	23.67          	9.946
MS.97          	23.622         	9.902
MS.98          	23.575         	9.837
MS.99          	23.528         	9.591
MS.100         	23.48          	9.521
MS.101         	23.435         	9.39
MS.102         	23.387         	9.495
MS.103         	23.34          	9.515
MS.104         	23.292         	9.146
MS.105         	23.247         	9.038
MS.106         	23.2           	9.311
MS.107         	23.155         	9.257
MS.108         	23.108         	9.289
MS.109         	23.062         	9.104
MS.110         	23.015         	9.084
MS.111         	22.97          	8.983
MS.112         	22.925         	9.33
MS.113         	22.877         	8.808
MS.114         	22.832         	8.697
MS.115         	22.788         	9.277
MS.116         	22.743         	8.758
MS.117         	22.695         	8.886
MS.118         	22.65          	8.455
MS.119         	22.605         	8.723
MS.120         	22.56          	8.55
MS.121         	22.515         	8.371
MS.122         	22.47          	8.486
MS.123         	22.425         	8.439
MS.124         	22.38          	8.182
MS.125         	22.335         	7.978
MS.126         	22.29          	8.097
MS.127         	22.247         	8.051
MS.128         	22.202         	7.96
MS.129         	22.157         	8.016
MS.130         	22.112         	7.789
MS.131         	22.07          	8.153
MS.132         	22.025         	8.047
MS.133         	21.98          	8.282
MS.134         	21.938         	8.59
MS.135         	21.892         	8.76
MS.136         	21.85          	8.665
MS.137         	21.805         	8.649
MS.138         	21.762         	8.695
MS.139         	21.72          	7.664
MS.140         	21.675         	7.491
MS.141         	21.632         	7.191
MS.142         	21.59          	7.158
MS.143         	21.545         	7.031
MS.144         	21.502         	7.307
MS.145         	21.46          	6.981
MS.146         	21.417         	6.949
MS.147         	21.375         	6.82
MS.148         	21.333         	6.87
MS.149         	21.29          	6.755
MS.150         	21.247         	6.594
MS.151         	21.205         	6.989
MS.152         	21.163         	6.866
MS.153         	21.12          	6.735
MS.154         	21.077         	6.61
MS.155         	21.035         	6.812
MS.156         	20.993         	6.558
MS.157         	20.95          	6.471
MS.158         	20.91          	6.431
MS.159         	20.868         	6.566
MS.160         	20.825         	6.333
MS.161         	20.785         	6.232
MS.162         	20.743         	6.113
MS.163         	20.7           	6.224
MS.164         	20.66          	6.234
MS.165         	20.618         	6.109
MS.166         	20.577         	6.083
MS.167         	20.535         	6.123
MS.168         	20.495         	6.131
MS.169         	20.455         	6.314
MS.170         	20.413         	5.914
MS.171         	20.372         	5.323
MS.172         	20.333         	5.031
MS.173         	20.29          	4.961
MS.174         	20.25          	4.713
MS.175         	20.21          	5.027
MS.176         	20.17          	4.558
MS.177         	20.13          	4.403
MS.178         	20.09          	4.371
MS.179         	20.05          	4.28
MS.180         	20.01          	4.292
MS.181         	19.97          	4.191
MS.182         	19.93          	4.482
MS.183         	19.89          	4.248
MS.184         	19.85          	4.274
MS.185         	19.81          	3.99
MS.186         	19.77          	4.014
MS.187         	19.73          	3.976
MS.188         	19.692         	3.972
MS.189         	19.653         	4.008
MS.190         	19.612         	3.35
MS.191         	19.573         	3.307
MS.192         	19.535         	2.981
MS.193         	19.495         	3.543
MS.194         	19.458         	3.227
MS.195         	19.417         	3.19
MS.196         	19.38          	3.231
MS.197         	19.34          	2.773
MS.198         	19.302         	2.858
MS.199         	19.262         	2.405
MS.200         	19.225         	2.346
MS.201         	19.185         	1.853
MS.202         	19.147         	2.123
MS.203         	19.11          	1.789
MS.204         	19.07          	1.877
MS.205         	19.032         	1.928
MS.206         	18.995         	1.952
MS.207         	18.958         	1.831
MS.208         	18.92          	1.71
MS.209         	18.882         	1.825
MS.210         	18.845         	1.648
MS.211         	18.805         	1.754
MS.212         	18.767         	1.611
MS.213         	18.73          	1.509
MS.214         	18.692         	1.635
MS.215         	18.657         	1.329
MS.216         	18.62          	1.47
MS.217         	18.583         	1.545
MS.218         	18.545         	1.291
MS.219         	18.507         	1.303
MS.220         	18.47          	1.339
MS.221         	18.432         	1.265
MS.222         	18.397         	1.241
MS.223         	18.36          	1.287
MS.224         	18.323         	1.275
MS.225         	18.288         	1.031
MS.226         	18.25          	0.991
MS.227         	18.215         	1.146
MS.228         	18.177         	1.146
MS.229         	18.14          	1.277
MS.230         	18.105         	1.047
MS.231         	18.067         	0.898
MS.232         	18.032         	0.991
MS.233         	17.997         	0.739
MS.234         	17.96          	0.902
MS.235         	17.925         	0.775
MS.236         	17.89          	0.632
MS.237         	17.852         	0.765
MS.238         	17.817         	0.526
MS.239         	17.782         	0.58
MS.240         	17.747         	0.489
MS.241         	17.71          	0.63
MS.242         	17.675         	0.56
MS.243         	17.64          	0.592
MS.244         	17.605         	0.361
MS.245         	17.57          	0.282
MS.246         	17.535         	0.409
MS.247         	17.5           	0.28
MS.248         	17.465         	0.381
MS.249         	17.43          	0.157
MS.250         	17.395         	0.284
MS.251         	17.36          	0.205
MS.252         	17.325         	0.359
MS.253         	17.29          	0.155
MS.254         	17.257         	0.187
MS.255         	17.222         	0.145
MS.256         	17.188         	0.151
MS.257         	17.153         	0.125
MS.258         	17.12          	0.147
MS.259         	17.085         	0.147
MS.260         	17.05          	0.137
MS.261         	17.017         	0.105
MS.262         	16.983         	0.201
MS.263         	16.948         	0.199
MS.264         	16.915         	0.119
MS.265         	16.88          	0.189
MS.266         	16.847         	0.139
MS.267         	16.812         	0.161
MS.268         	16.78          	0.129
MS.269         	16.747         	0.127
MS.270         	16.712         	0.173
MS.271         	16.68          	0.189
MS.272         	16.645         	0.179
MS.273         	16.612         	0.224
MS.274         	16.58          	0.226
MS.275         	16.547         	0.179
MS.276         	16.512         	0.177
MS.277         	16.48          	0.135
MS.278         	16.448         	0.216
MS.279         	16.415         	0.207
MS.280         	16.382         	0.222
MS.281         	16.35          	0.228
MS.282         	16.317         	0.228
MS.283         	16.285         	0.228
MS.284         	16.253         	0.218
MS.285         	16.22          	0.175
MS.286         	16.188         	0.226
MS.287         	16.155         	0.266
MS.288         	16.122         	0.248
MS.289         	16.09          	0.266
MS.290         	16.057         	0.244
MS.291         	16.025         	0.254
MS.292         	15.992         	0.26
MS.293         	15.962         	0.268
MS.294         	15.93          	0.248
MS.295         	15.898         	0.254
MS.296         	15.865         	0.268
MS.297         	15.835         	0.268
MS.298         	15.802         	0.278
MS.299         	15.77          	0.278
MS.300         	15.74          	0.282
MS.301         	15.707         	0.274
MS.302         	15.677         	0.3
MS.303         	15.645         	0.304
MS.304         	15.615         	0.28
MS.305         	15.582         	0.274
MS.306         	15.552         	0.28
MS.307         	15.52          	0.272
MS.308         	15.49          	0.28
MS.309         	15.46          	0.286
MS.310         	15.427         	0.294
MS.311         	15.398         	0.286
MS.312         	15.367         	0.286
MS.313         	15.335         	0.324
MS.314         	15.305         	0.276
MS.315         	15.275         	0.292
MS.316         	15.245         	0.3
MS.317         	15.212         	0.324
MS.318         	15.182         	0.282
MS.319         	15.152         	0.322
MS.320         	15.122         	0.29
MS.321         	15.092         	0.322
MS.322         	15.062         	0.29
MS.323         	15.032         	0.312
MS.324         	15.002         	0.361
MS.325         	14.972         	0.35
MS.326         	14.943         	0.336
MS.327         	14.912         	0.326
MS.328         	14.882         	0.348
MS.329         	14.852         	0.35
MS.330         	14.822         	0.316
MS.331         	14.792         	0.33
MS.332         	14.765         	0.328
MS.333         	14.735         	0.352
MS.334         	14.705         	0.336
MS.335         	14.675         	0.342
MS.336         	14.645         	0.377
MS.337         	14.617         	0.371
MS.338         	14.587         	0.35
MS.339         	14.557         	0.375
MS.340         	14.53          	0.373
MS.341         	14.5           	0.352
MS.342         	14.472         	0.357
MS.343         	14.443         	0.3
MS.344         	14.412         	0.328
MS.345         	14.385         	0.306
MS.346         	14.355         	0.318
MS.347         	14.327         	0.336
MS.348         	14.3           	0.352
MS.349         	14.27          	0.306
MS.350         	14.242         	0.334
MS.351         	14.212         	0.326
MS.352         	14.185         	0.3
MS.353         	14.157         	0.336
MS.354         	14.127         	0.338
MS.355         	14.1           	0.332
MS.356         	14.072         	0.33
MS.357         	14.045         	0.328
MS.358         	14.015         	0.338
MS.359         	13.987         	0.338
MS.360         	13.96          	0.338
MS.361         	13.932         	0.326
MS.362         	13.905         	0.316
MS.363         	13.877         	0.318
MS.364         	13.847         	0.314
MS.365         	13.82          	0.322
MS.366         	13.792         	0.3
MS.367         	13.765         	0.29
MS.368         	13.737         	0.282
MS.369         	13.71          	0.296
MS.370         	13.682         	0.308
MS.371         	13.655         	0.304
MS.372         	13.63          	0.28
MS.373         	13.602         	0.3
MS.374         	13.575         	0.274
MS.375         	13.547         	0.278
MS.376         	13.52          	0.276
MS.377         	13.492         	0.268
MS.378         	13.465         	0.274
MS.379         	13.44          	0.278
MS.380         	13.412         	0.286
MS.381         	13.385         	0.266
MS.382         	13.36          	0.26
MS.383         	13.332         	0.28
MS.384         	13.305         	0.256
MS.385         	13.28          	0.264
MS.386         	13.252         	0.264
MS.387         	13.225         	0.252
MS.388         	13.2           	0.25
MS.389         	13.172         	0.25
MS.390         	13.148         	0.224
MS.391         	13.12          	0.262
MS.392         	13.095         	0.238
MS.393         	13.068         	0.232
MS.394         	13.042         	0.26
MS.395         	13.015         	0.242
MS.396         	12.99          	0.228
MS.397         	12.965         	0.232
MS.398         	12.938         	0.246
MS.399         	12.912         	0.214
MS.400         	12.887         	0.22
MS.401         	12.86          	0.216
MS.402         	12.835         	0.222
MS.403         	12.81          	0.203
MS.404         	12.785         	0.205
MS.405         	12.757         	0.171
MS.406         	12.733         	0.203
MS.407         	12.707         	0.189
MS.408         	12.682         	0.191
MS.409         	12.657         	0.193
MS.410         	12.632         	0.197
MS.411         	12.605         	0.199
MS.412         	12.58          	0.185
MS.413         	12.555         	0.201
MS.414         	12.53          	0.173
MS.415         	12.505         	0.181
MS.416         	12.48          	0.185
MS.417         	12.455         	0.183
MS.418         	12.43          	0.195
MS.419         	12.405         	0.167
MS.420         	12.38          	0.169
MS.421         	12.358         	0.167
MS.422         	12.332         	0.167
MS.423         	12.307         	0.147
MS.424         	12.282         	0.167
MS.425         	12.257         	0.147
MS.426         	12.233         	0.145
MS.427         	12.21          	0.135
MS.428         	12.185         	0.141
MS.429         	12.16          	0.151
MS.430         	12.135         	0.137
MS.431         	12.113         	0.125
MS.432         	12.087         	0.135
MS.433         	12.062         	0.117
MS.434         	12.04          	0.119
MS.435         	12.015         	0.125
MS.436         	11.992         	0.117
MS.437         	11.967         	0.101
MS.438         	11.943         	0.113
MS.439         	11.92          	0.129
MS.440         	11.895         	0.105
MS.441         	11.872         	0.117
MS.442         	11.847         	0.119
MS.443         	11.825         	0.091
MS.444         	11.8           	0.107
MS.445         	11.778         	0.103
MS.446         	11.755         	0.101
MS.447         	11.73          	0.099
MS.448         	11.707         	0.095
MS.449         	11.682         	0.091
MS.450         	11.66          	0.105
MS.451         	11.637         	0.087
MS.452         	11.613         	0.079
MS.453         	11.59          	0.077
MS.454         	11.568         	0.073
MS.455         	11.545         	0.066
MS.456         	11.52          	0.075
MS.457         	11.497         	0.068
MS.458         	11.475         	0.062
DERIVED EXCITABILITY VARIABLES
Program = QTracP 3/4/2020
Threshold method = 6 (optimised for CAP, using data for present condition only)
SR method = 1 (using actual data values)
6.                 	0.000               	Peak response\(mV)
9.                 	31.2                	Temperature ( C)
17.                	57                  	Age (years)
18.                	2                   	Sex (M=1, F=2)

EXTRA VARIABLES

MScPeak(mV) = 10.9
MScS5(mA) = 17.75
MScS50(mA) = 20.38
MScS95(mA) = 24.52
MScNSteps = 1
MScSteps(%) = 5.4
MScStepMax(%) = 5.4
MScD50 = 31
MScSlope = 7.41
MSFPeakAmp(mV) = 10.9
MSFNUnits = 110
MSFMeanUnitAmp(uV) = 98.7
MSFHuntTime(m) = 1.47
MSFError(%) = 13.7
MSFNLarge = 29.79
MSFMedianAmp(%) = 0.743
MSFMedianAmp(mV) = 0.0807
MSFHalfAmpAmp(%) = 1.06
MSFHalfAmpAmp(mV) = 0.115
MSFLargestAmp(%) = 5.23
MSFLargestAmp(mV) = 0.567
MSFMeanRS(%) = 2
MSFOpts = 10106121
MScDuration(min) = 4.1
MSFTraces = 251
MSFSizeLimit(uV) = 27.1
MSFLimitType = 1
MSFSmallestAmp(uV) = 28.3

EXTRA WAVEFORMS


!MScan Model
!110
	1	17.32	0.86	2
	2	17.38	0.36	2
	3	17.44	0.44	2
	4	17.49	0.37	2
	5	17.59	0.52	2
	6	17.63	0.42	2
	7	17.67	0.32	2
	8	17.7	0.29	2
	9	17.73	0.4	2
	10	17.77	0.37	2
	11	17.8	0.34	2
	12	17.85	0.45	2
	13	17.9	0.53	2
	14	17.95	0.52	2
	15	18	0.55	2
	16	18.06	0.57	2
	17	18.11	0.62	2
	18	18.16	0.51	2
	19	18.27	0.98	2
	20	18.37	0.77	2
	21	18.41	0.26	2
	22	18.48	0.51	2
	23	18.52	0.37	2
	24	18.55	0.33	2
	25	18.58	0.26	2
	26	18.61	0.27	2
	27	18.63	0.26	2
	28	18.66	0.26	2
	29	18.69	0.28	2
	30	18.72	0.28	2
	31	18.8	0.91	2
	32	18.93	1.11	2
	33	18.97	0.48	2
	34	19.01	0.73	2
	35	19.05	1.26	2
	36	19.09	0.82	2
	37	19.13	0.89	2
	38	19.17	0.97	2
	39	19.25	1.12	2
	40	19.28	1.11	2
	41	19.32	0.67	2
	42	19.32	0.96	2
	43	19.35	0.88	2
	44	19.38	0.89	2
	45	19.42	1.12	2
	46	19.45	0.89	2
	47	19.48	0.91	2
	48	19.52	1.22	2
	49	19.57	1.34	2
	50	19.62	1.57	2
	51	19.68	1	2
	52	19.73	1.12	2
	53	19.79	1.07	2
	54	19.81	4.85	2
	55	19.85	0.95	2
	56	19.9	0.93	2
	57	19.99	0.72	2
	58	20.04	1.02	2
	59	20.09	0.96	2
	60	20.15	0.72	2
	61	20.18	0.69	2
	62	20.22	0.68	2
	63	20.25	1.06	2
	64	20.28	1.07	2
	65	20.32	1.52	2
	66	20.38	1.79	2
	67	20.43	0.57	2
	68	20.48	0.92	2
	69	20.74	1.12	2
	70	20.75	1.09	2
	71	20.79	0.65	2
	72	20.85	0.43	2
	73	20.91	0.66	2
	74	21.01	1.1	2
	75	21.13	0.94	2
	76	21.35	2.39	2
	77	21.44	1.47	2
	78	21.52	1.63	2
	79	21.69	3.57	2
	80	22.33	5.23	2
	81	22.41	0.99	2
	82	22.48	0.76	2
	83	22.54	0.69	2
	84	22.6	0.92	2
	85	22.69	1.18	2
	86	22.77	1.01	2
	87	22.89	1.37	2
	88	23.09	1.73	2
	89	23.17	0.72	2
	90	23.25	1.07	2
	91	23.32	0.67	2
	92	23.37	0.58	2
	93	23.47	0.72	2
	94	23.53	0.63	2
	95	23.69	1.35	2
	96	24.03	2.22	2
	97	24.14	0.46	2
	98	24.26	0.75	2
	99	24.34	0.62	2
	100	24.43	0.39	2
	101	24.53	0.71	2
	102	24.69	1.02	2
	103	26.28	1.38	2
	104	26.55	0.52	2
	105	26.75	0.52	2
	106	26.84	0.38	2
	107	26.93	0.32	2
	108	27.02	0.3	2
	109	27.15	0.42	2
	110	27.3	0.53	2

