File:              	C:\Qtrac\Data\Daniel M Sørensen\MScan multicentre study\Data from centres\Oslo\Processed data\SZC00506A.QZD
Name:              	NO.OSL.NC.3.2
Protocol:          	MSCAN-R2
Date:              	6/5/20
Start time:        	16:08:08
Age:               	37
Sex:               	M
Temperature:       	34.8
S/R sites:         	APB
NC/disease:        	NC3
Operator:          	SZ
Comments:          	Test2
M-SCAN DATA (6.4-2.6m)
Scanpts: 28, 32, 350, 362
Stim. (mA)     	Amp. (mV)
MS.1           	10             	10.079
MS.2           	10             	10.109
MS.3           	10             	10.127
MS.4           	10             	10.075
MS.5           	10             	10.079
MS.6           	10             	10.085
MS.7           	10             	10.081
MS.8           	10             	10.067
MS.9           	10             	10.043
MS.10          	10             	10.091
MS.11          	10             	10.083
MS.12          	10             	10.053
MS.13          	10             	10.065
MS.14          	10             	10.079
MS.15          	10             	10.051
MS.16          	10             	10.077
MS.17          	10             	10.061
MS.18          	10             	10.073
MS.19          	10             	10.095
MS.20          	10             	10.057
MS.21          	10             	10.097
MS.22          	10             	10.091
MS.23          	10             	10.119
MS.24          	9.96           	10.065
MS.25          	9.94           	10.077
MS.26          	9.92           	10.067
MS.27          	9.9            	10.079
MS.28          	9.88           	10.071
MS.29          	9.86           	10.101
MS.30          	9.84           	10.073
MS.31          	9.823          	10.083
MS.32          	9.802          	10.079
MS.33          	9.782          	10.093
MS.34          	9.762          	10.089
MS.35          	9.742          	10.067
MS.36          	9.725          	10.063
MS.37          	9.705          	10.083
MS.38          	9.685          	10.073
MS.39          	9.665          	10.063
MS.40          	9.648          	10.091
MS.41          	9.627          	10.083
MS.42          	9.608          	10.085
MS.43          	9.587          	10.077
MS.44          	9.57           	10.065
MS.45          	9.55           	10.079
MS.46          	9.532          	10.085
MS.47          	9.512          	10.081
MS.48          	9.492          	10.077
MS.49          	9.475          	10.043
MS.50          	9.455          	10.065
MS.51          	9.438          	10.071
MS.52          	9.417          	10.026
MS.53          	9.4            	10.047
MS.54          	9.38           	10.059
MS.55          	9.363          	9.829
MS.56          	9.342          	9.426
MS.57          	9.325          	9.845
MS.58          	9.305          	10.022
MS.59          	9.287          	9.9
MS.60          	9.267          	10.016
MS.61          	9.25           	9.535
MS.62          	9.23           	9.857
MS.63          	9.212          	9.998
MS.64          	9.195          	9.763
MS.65          	9.175          	9.589
MS.66          	9.158          	9.338
MS.67          	9.14           	9.537
MS.68          	9.12           	9.408
MS.69          	9.102          	9.374
MS.70          	9.085          	9.354
MS.71          	9.068          	9.233
MS.72          	9.047          	9.052
MS.73          	9.03           	9.189
MS.74          	9.012          	9.094
MS.75          	8.995          	9.108
MS.76          	8.975          	9.219
MS.77          	8.957          	9.11
MS.78          	8.94           	9.07
MS.79          	8.922          	8.909
MS.80          	8.905          	9.305
MS.81          	8.887          	8.911
MS.82          	8.87           	8.905
MS.83          	8.852          	8.741
MS.84          	8.835          	8.679
MS.85          	8.815          	8.558
MS.86          	8.797          	8.713
MS.87          	8.78           	8.796
MS.88          	8.762          	8.679
MS.89          	8.745          	8.538
MS.90          	8.727          	8.562
MS.91          	8.71           	8.304
MS.92          	8.693          	8.115
MS.93          	8.675          	8.343
MS.94          	8.66           	8.25
MS.95          	8.642          	8.2
MS.96          	8.625          	8.208
MS.97          	8.608          	8.21
MS.98          	8.59           	8.169
MS.99          	8.573          	7.978
MS.100         	8.555          	7.996
MS.101         	8.537          	7.956
MS.102         	8.523          	8.077
MS.103         	8.505          	7.644
MS.104         	8.488          	7.332
MS.105         	8.47           	7.406
MS.106         	8.452          	7.505
MS.107         	8.438          	7.263
MS.108         	8.42           	7.195
MS.109         	8.403          	7.414
MS.110         	8.385          	7.328
MS.111         	8.37           	7.418
MS.112         	8.352          	7.392
MS.113         	8.335          	7.207
MS.114         	8.32           	7.36
MS.115         	8.302          	6.864
MS.116         	8.285          	7.074
MS.117         	8.27           	6.933
MS.118         	8.252          	6.661
MS.119         	8.238          	7.136
MS.120         	8.22           	6.578
MS.121         	8.202          	6.433
MS.122         	8.188          	6.447
MS.123         	8.17           	6.747
MS.124         	8.155          	6.526
MS.125         	8.137          	6.214
MS.126         	8.122          	6.347
MS.127         	8.105          	6.427
MS.128         	8.09           	6.131
MS.129         	8.073          	6.576
MS.130         	8.057          	6.071
MS.131         	8.04           	5.948
MS.132         	8.025          	6.028
MS.133         	8.01           	6.181
MS.134         	7.992          	5.835
MS.135         	7.977          	6.042
MS.136         	7.96           	6.133
MS.137         	7.945          	6.099
MS.138         	7.93           	5.807
MS.139         	7.912          	5.823
MS.140         	7.898          	5.867
MS.141         	7.882          	5.615
MS.142         	7.865          	5.765
MS.143         	7.85           	5.726
MS.144         	7.835          	5.575
MS.145         	7.82           	5.628
MS.146         	7.802          	5.384
MS.147         	7.787          	5.344
MS.148         	7.773          	5.309
MS.149         	7.757          	4.915
MS.150         	7.742          	5.438
MS.151         	7.725          	5.362
MS.152         	7.71           	5.336
MS.153         	7.695          	5.033
MS.154         	7.68           	5.029
MS.155         	7.665          	5.227
MS.156         	7.65           	5.15
MS.157         	7.635          	4.9
MS.158         	7.617          	4.751
MS.159         	7.602          	4.739
MS.160         	7.587          	4.923
MS.161         	7.572          	4.794
MS.162         	7.557          	4.653
MS.163         	7.543          	4.882
MS.164         	7.527          	4.369
MS.165         	7.512          	4.332
MS.166         	7.497          	4.061
MS.167         	7.482          	3.968
MS.168         	7.467          	3.873
MS.169         	7.452          	3.922
MS.170         	7.438          	4.298
MS.171         	7.422          	3.916
MS.172         	7.407          	4.437
MS.173         	7.392          	3.704
MS.174         	7.378          	3.559
MS.175         	7.365          	3.779
MS.176         	7.35           	3.718
MS.177         	7.335          	3.762
MS.178         	7.32           	3.793
MS.179         	7.305          	3.474
MS.180         	7.29           	3.418
MS.181         	7.275          	3.339
MS.182         	7.262          	3.368
MS.183         	7.247          	3.295
MS.184         	7.233          	3.48
MS.185         	7.217          	3.156
MS.186         	7.202          	3.412
MS.187         	7.19           	3.321
MS.188         	7.175          	3.092
MS.189         	7.16           	3.394
MS.190         	7.145          	2.949
MS.191         	7.132          	2.973
MS.192         	7.117          	2.705
MS.193         	7.102          	2.89
MS.194         	7.09           	2.89
MS.195         	7.075          	2.798
MS.196         	7.06           	2.681
MS.197         	7.047          	2.683
MS.198         	7.032          	2.784
MS.199         	7.017          	2.637
MS.200         	7.005          	2.677
MS.201         	6.99           	2.437
MS.202         	6.977          	2.322
MS.203         	6.962          	2.534
MS.204         	6.95           	2.419
MS.205         	6.935          	2.278
MS.206         	6.92           	2.459
MS.207         	6.907          	2.421
MS.208         	6.892          	2.042
MS.209         	6.88           	2.185
MS.210         	6.865          	2.389
MS.211         	6.852          	2.133
MS.212         	6.837          	2.052
MS.213         	6.825          	1.942
MS.214         	6.812          	1.998
MS.215         	6.797          	2.02
MS.216         	6.785          	1.98
MS.217         	6.77           	2.131
MS.218         	6.757          	2.024
MS.219         	6.742          	1.859
MS.220         	6.73           	1.779
MS.221         	6.717          	1.642
MS.222         	6.702          	1.549
MS.223         	6.69           	1.638
MS.224         	6.677          	1.809
MS.225         	6.662          	1.609
MS.226         	6.65           	1.519
MS.227         	6.637          	1.45
MS.228         	6.622          	1.378
MS.229         	6.61           	1.444
MS.230         	6.597          	1.396
MS.231         	6.582          	1.382
MS.232         	6.57           	1.275
MS.233         	6.557          	1.263
MS.234         	6.545          	1.088
MS.235         	6.53           	1.027
MS.236         	6.517          	1.07
MS.237         	6.505          	1.158
MS.238         	6.492          	1.15
MS.239         	6.48           	0.995
MS.240         	6.465          	0.914
MS.241         	6.452          	0.977
MS.242         	6.44           	0.987
MS.243         	6.427          	1.051
MS.244         	6.415          	0.977
MS.245         	6.402          	0.844
MS.246         	6.39           	0.939
MS.247         	6.378          	0.916
MS.248         	6.362          	0.669
MS.249         	6.35           	0.707
MS.250         	6.338          	0.753
MS.251         	6.325          	0.798
MS.252         	6.312          	0.779
MS.253         	6.3            	0.818
MS.254         	6.287          	0.733
MS.255         	6.275          	0.709
MS.256         	6.262          	0.622
MS.257         	6.25           	0.608
MS.258         	6.237          	0.584
MS.259         	6.225          	0.634
MS.260         	6.213          	0.643
MS.261         	6.2            	0.61
MS.262         	6.188          	0.538
MS.263         	6.175          	0.6
MS.264         	6.162          	0.6
MS.265         	6.15           	0.602
MS.266         	6.137          	0.584
MS.267         	6.125          	0.566
MS.268         	6.115          	0.562
MS.269         	6.102          	0.626
MS.270         	6.09           	0.59
MS.271         	6.077          	0.483
MS.272         	6.065          	0.528
MS.273         	6.052          	0.373
MS.274         	6.04           	0.338
MS.275         	6.03           	0.445
MS.276         	6.017          	0.435
MS.277         	6.005          	0.445
MS.278         	5.992          	0.399
MS.279         	5.98           	0.415
MS.280         	5.97           	0.379
MS.281         	5.957          	0.342
MS.282         	5.945          	0.314
MS.283         	5.932          	0.332
MS.284         	5.922          	0.395
MS.285         	5.91           	0.336
MS.286         	5.898          	0.252
MS.287         	5.885          	0.304
MS.288         	5.875          	0.415
MS.289         	5.862          	0.377
MS.290         	5.85           	0.348
MS.291         	5.84           	0.328
MS.292         	5.827          	0.354
MS.293         	5.815          	0.326
MS.294         	5.805          	0.151
MS.295         	5.793          	0.211
MS.296         	5.78           	0.224
MS.297         	5.77           	0.127
MS.298         	5.757          	0.26
MS.299         	5.747          	0.189
MS.300         	5.735          	0.147
MS.301         	5.722          	0.123
MS.302         	5.713          	0.228
MS.303         	5.7            	0.121
MS.304         	5.69           	0.185
MS.305         	5.677          	0.177
MS.306         	5.668          	0.266
MS.307         	5.655          	0.121
MS.308         	5.645          	0.119
MS.309         	5.632          	0.133
MS.310         	5.622          	0.205
MS.311         	5.61           	0.173
MS.312         	5.6            	0.06
MS.313         	5.588          	0.135
MS.314         	5.577          	0.087
MS.315         	5.565          	0.036
MS.316         	5.555          	0.034
MS.317         	5.543          	0.062
MS.318         	5.532          	0.095
MS.319         	5.52           	0.105
MS.320         	5.51           	0.044
MS.321         	5.5            	0.062
MS.322         	5.487          	0.014
MS.323         	5.477          	0.028
MS.324         	5.465          	0.077
MS.325         	5.455          	0.012
MS.326         	5.445          	0.068
MS.327         	5.432          	0.014
MS.328         	5.422          	0.018
MS.329         	5.412          	0.036
MS.330         	5.4            	0.046
MS.331         	5.39           	0.02
MS.332         	5.38           	0.022
MS.333         	5.367          	0.028
MS.334         	5.358          	0.01
MS.335         	5.347          	0.01
MS.336         	5.338          	0.016
MS.337         	5.325          	0.016
MS.338         	5.315          	0.008
MS.339         	5.305          	0.008
MS.340         	5.295          	0.004
MS.341         	5.282          	0.002
MS.342         	5.273          	0.01
MS.343         	5.262          	0.016
MS.344         	5.253          	0.014
MS.345         	5.242          	0.002
MS.346         	5.23           	0.004
MS.347         	5.22           	0.008
MS.348         	5.21           	0.006
MS.349         	5.2            	0.012
MS.350         	5.19           	0.016
MS.351         	5.18           	0.012
MS.352         	5.168          	0.006
MS.353         	5.157          	0.006
MS.354         	5.148          	0.004
MS.355         	5.137          	0.000
MS.356         	5.128          	0.01
MS.357         	5.117          	0.01
MS.358         	5.108          	0.004
MS.359         	5.097          	0.004
MS.360         	5.088          	0.004
MS.361         	5.077          	0.002
MS.362         	5.065          	0.008
MS.363         	5.055          	0.004
MS.364         	5.045          	0.002
MS.365         	5.035          	0.002
MS.366         	5.025          	0.006
MS.367         	5.015          	0.000
MS.368         	5.005          	0.008
MS.369         	4.995          	0.002
MS.370         	4.985          	0.002
MS.371         	4.975          	0.002
MS.372         	4.965          	0.006
MS.373         	4.955          	0.002
MS.374         	4.945          	0.075
MS.375         	4.935          	0.002
MS.376         	4.927          	0.002
MS.377         	4.918          	0.008
MS.378         	4.907          	0.004
MS.379         	4.898          	0.000
MS.380         	4.887          	0.000
MS.381         	4.878          	-0.002
MS.382         	4.867          	0.004
MS.383         	4.858          	0.000
MS.384         	4.847          	0.000
MS.385         	4.838          	0.002
MS.386         	4.827          	0.004
MS.387         	4.82           	0.000
MS.388         	4.81           	-0.002
MS.389         	4.8            	0.006
MS.390         	4.79           	0.002
MS.391         	4.78           	0.000
MS.392         	4.77           	0.002
MS.393         	4.762          	0.004
MS.394         	4.753          	0.006
MS.395         	4.742          	0.004
MS.396         	4.733          	0.002
MS.397         	4.722          	0.000
MS.398         	4.715          	0.000
MS.399         	4.705          	0.002
MS.400         	4.695          	0.000
MS.401         	4.685          	0.002
MS.402         	4.677          	0.002
MS.403         	4.668          	0.002
MS.404         	4.657          	0.002
MS.405         	4.648          	0.000
MS.406         	4.64           	0.002
MS.407         	4.63           	0.002
MS.408         	4.62           	0.004
MS.409         	4.612          	0.000
MS.410         	4.602          	0.004
MS.411         	4.592          	0.000
MS.412         	4.585          	0.004
MS.413         	4.575          	0.002
MS.414         	4.565          	-0.002
MS.415         	4.557          	0.002
MS.416         	4.548          	0.000
MS.417         	4.537          	0.000
MS.418         	4.53           	0.000
MS.419         	4.52           	0.000
MS.420         	4.512          	-0.004
MS.421         	4.503          	0.002
MS.422         	4.492          	0.000
MS.423         	4.485          	0.002
MS.424         	4.475          	0.000
MS.425         	4.467          	0.000
MS.426         	4.457          	0.002
MS.427         	4.447          	0.000
MS.428         	4.44           	0.000
MS.429         	4.43           	0.002
MS.430         	4.423          	0.000
DERIVED EXCITABILITY VARIABLES
Program = QTracP 3/4/2020
Threshold method = 6 (optimised for CAP, using data for present condition only)
SR method = 1 (using actual data values)
6.                 	0.000               	Peak response\(mV)
9.                 	34.8                	Temperature ( C)
17.                	37                  	Age (years)
18.                	1                   	Sex (M=1, F=2)

EXTRA VARIABLES

MScPeak(mV) = 10.08
MScS5(mA) = 6.07
MScS50(mA) = 7.71
MScS95(mA) = 9.27
MScNSteps = 2
MScSteps(%) = 4.5
MScStepMax(%) = 2.4
MScD50 = 44
MScSlope = 5.05
MSFPeakAmp(mV) = 10.1
MSFNUnits = 119
MSFMeanUnitAmp(uV) = 84.7
MSFHuntTime(m) = 1.8
MSFError(%) = 5.97
MSFNLarge = 41.17
MSFMedianAmp(%) = 0.799
MSFMedianAmp(mV) = 0.0805
MSFHalfAmpAmp(%) = 0.981
MSFHalfAmpAmp(mV) = 0.0988
MSFLargestAmp(%) = 2.15
MSFLargestAmp(mV) = 0.216
MSFMeanRS(%) = 2
MSFOpts = 10106121
MScDuration(min) = 3.8
MSFTraces = 335
MSFSizeLimit(uV) = 25.2
MSFLimitType = 1
MSFSmallestAmp(uV) = 30.2

EXTRA WAVEFORMS


!MScan Model
!119
	1	5.4	0.3	2
	2	5.52	0.46	2
	3	5.64	0.58	2
	4	5.73	0.66	2
	5	5.81	0.64	2
	6	5.89	0.61	2
	7	5.95	0.6	2
	8	6.02	0.61	2
	9	6.07	0.46	2
	10	6.12	0.43	2
	11	6.17	0.56	2
	12	6.22	0.62	2
	13	6.31	0.59	2
	14	6.34	0.44	2
	15	6.37	0.49	2
	16	6.4	0.5	2
	17	6.42	0.49	2
	18	6.44	0.42	2
	19	6.46	0.41	2
	20	6.48	0.42	2
	21	6.5	0.41	2
	22	6.51	0.45	2
	23	6.52	0.71	2
	24	6.53	0.48	2
	25	6.55	0.5	2
	26	6.57	0.46	2
	27	6.58	0.45	2
	28	6.6	0.44	2
	29	6.62	0.44	2
	30	6.63	0.42	2
	31	6.65	0.46	2
	32	6.67	0.5	2
	33	6.68	0.5	2
	34	6.7	0.52	2
	35	6.72	0.55	2
	36	6.74	0.56	2
	37	6.76	0.58	2
	38	6.78	0.55	2
	39	6.8	0.53	2
	40	6.81	0.52	2
	41	6.83	0.57	2
	42	6.85	0.69	2
	43	6.88	0.68	2
	44	6.9	0.69	2
	45	6.92	0.7	2
	46	6.94	0.7	2
	47	6.96	0.68	2
	48	6.98	0.6	2
	49	7	0.58	2
	50	7.02	0.58	2
	51	7.04	0.59	2
	52	7.07	0.69	2
	53	7.09	0.73	2
	54	7.12	0.82	2
	55	7.14	0.94	2
	56	7.17	0.95	2
	57	7.2	1.03	2
	58	7.24	1.11	2
	59	7.27	1.11	2
	60	7.3	1.22	2
	61	7.34	1.33	2
	62	7.37	1.27	2
	63	7.4	1.22	2
	64	7.43	1.22	2
	65	7.46	1.2	2
	66	7.49	1.16	2
	67	7.52	1.18	2
	68	7.56	1.17	2
	69	7.59	1.22	2
	70	7.62	1.23	2
	71	7.65	1.14	2
	72	7.68	1.09	2
	73	7.71	1.21	2
	74	7.74	1.26	2
	75	7.78	1.21	2
	76	7.81	1.17	2
	77	7.85	1.13	2
	78	7.89	1.3	2
	79	7.94	1.3	2
	80	7.98	1.19	2
	81	8.01	1.18	2
	82	8.04	1.02	2
	83	8.07	1.01	2
	84	8.11	0.99	2
	85	8.14	1.14	2
	86	8.18	1.04	2
	87	8.21	0.9	2
	88	8.24	1.04	2
	89	8.27	1.1	2
	90	8.3	0.99	2
	91	8.33	0.98	2
	92	8.36	0.97	2
	93	8.38	0.93	2
	94	8.41	0.9	2
	95	8.43	0.91	2
	96	8.46	1.08	2
	97	8.49	0.9	2
	98	8.51	0.88	2
	99	8.54	0.87	2
	100	8.56	0.85	2
	101	8.59	0.86	2
	102	8.62	0.8	2
	103	8.64	0.74	2
	104	8.66	0.74	2
	105	8.69	0.74	2
	106	8.71	0.74	2
	107	8.74	0.8	2
	108	8.77	0.78	2
	109	8.8	0.84	2
	110	8.83	0.85	2
	111	8.86	0.85	2
	112	8.88	0.83	2
	113	8.92	1.03	2
	114	8.97	1.13	2
	115	9.03	1.18	2
	116	9.03	1.89	2
	117	9.09	1.73	2
	118	9.16	1.45	2
	119	9.25	2.15	2

