File:              	C:\Qtrac\Data\Daniel M Sørensen\MScan multicentre study\Data from centres\Oslo\Processed data\SZC00702F.QZD
Name:              	NO.OSL.NC.19.2
Protocol:          	MSCAN-R2
Date:              	2/7/20
Start time:        	10:48:06
Age:               	39
Sex:               	M
Temperature:       	33.5
S/R sites:         	TA
NC/disease:        	NC19
Operator:          	SZ
Comments:          	Test2
M-SCAN DATA (8.3-1.5m)
Scanpts: 13, 51, 696, 718
Stim. (mA)     	Amp. (mV)
MS.1           	15             	13.976
MS.2           	15             	13.944
MS.3           	15             	13.982
MS.4           	15             	13.88
MS.5           	15             	13.855
MS.6           	15             	13.857
MS.7           	15             	13.821
MS.8           	15             	13.841
MS.9           	15             	13.769
MS.10          	15             	13.874
MS.11          	15             	13.777
MS.12          	15             	13.787
MS.13          	15             	13.876
MS.14          	15             	13.851
MS.15          	15             	13.771
MS.16          	15             	13.845
MS.17          	15             	13.817
MS.18          	15             	13.833
MS.19          	15             	13.861
MS.20          	15             	13.817
MS.21          	15             	13.847
MS.22          	15             	13.807
MS.23          	15             	13.849
MS.24          	14.94          	13.833
MS.25          	14.91          	13.797
MS.26          	14.88          	13.775
MS.27          	14.85          	13.829
MS.28          	14.82          	13.767
MS.29          	14.792         	13.793
MS.30          	14.762         	13.815
MS.31          	14.733         	13.771
MS.32          	14.702         	13.783
MS.33          	14.672         	13.787
MS.34          	14.645         	13.779
MS.35          	14.615         	13.835
MS.36          	14.585         	13.803
MS.37          	14.557         	13.755
MS.38          	14.527         	13.797
MS.39          	14.497         	13.789
MS.40          	14.47          	13.821
MS.41          	14.44          	13.793
MS.42          	14.412         	13.789
MS.43          	14.382         	13.777
MS.44          	14.355         	13.791
MS.45          	14.325         	13.767
MS.46          	14.297         	13.795
MS.47          	14.267         	13.805
MS.48          	14.24          	13.771
MS.49          	14.212         	13.765
MS.50          	14.182         	13.795
MS.51          	14.155         	13.803
MS.52          	14.127         	13.817
MS.53          	14.097         	13.817
MS.54          	14.07          	13.773
MS.55          	14.042         	13.847
MS.56          	14.015         	13.745
MS.57          	13.985         	13.795
MS.58          	13.957         	13.749
MS.59          	13.93          	13.755
MS.60          	13.903         	13.741
MS.61          	13.875         	13.747
MS.62          	13.847         	13.809
MS.63          	13.82          	13.737
MS.64          	13.792         	13.755
MS.65          	13.765         	13.773
MS.66          	13.737         	13.662
MS.67          	13.71          	13.745
MS.68          	13.682         	13.702
MS.69          	13.655         	13.773
MS.70          	13.627         	13.729
MS.71          	13.6           	13.799
MS.72          	13.572         	13.71
MS.73          	13.545         	13.773
MS.74          	13.517         	13.739
MS.75          	13.492         	13.704
MS.76          	13.465         	13.71
MS.77          	13.438         	13.712
MS.78          	13.41          	13.7
MS.79          	13.385         	13.753
MS.80          	13.358         	13.694
MS.81          	13.33          	13.706
MS.82          	13.305         	13.708
MS.83          	13.278         	13.712
MS.84          	13.25          	13.743
MS.85          	13.225         	13.767
MS.86          	13.197         	13.71
MS.87          	13.172         	13.708
MS.88          	13.145         	13.7
MS.89          	13.12          	13.69
MS.90          	13.092         	13.751
MS.91          	13.068         	13.676
MS.92          	13.04          	13.606
MS.93          	13.015         	13.656
MS.94          	12.987         	13.672
MS.95          	12.962         	13.63
MS.96          	12.938         	13.579
MS.97          	12.91          	13.672
MS.98          	12.885         	13.688
MS.99          	12.86          	13.674
MS.100         	12.832         	13.551
MS.101         	12.807         	13.63
MS.102         	12.782         	13.567
MS.103         	12.757         	13.453
MS.104         	12.73          	13.561
MS.105         	12.705         	13.382
MS.106         	12.68          	13.501
MS.107         	12.655         	13.465
MS.108         	12.63          	13.565
MS.109         	12.605         	13.545
MS.110         	12.58          	13.384
MS.111         	12.555         	13.461
MS.112         	12.53          	13.396
MS.113         	12.505         	13.495
MS.114         	12.48          	13.533
MS.115         	12.455         	13.445
MS.116         	12.43          	13.451
MS.117         	12.405         	13.503
MS.118         	12.38          	13.483
MS.119         	12.355         	13.461
MS.120         	12.33          	13.473
MS.121         	12.305         	13.43
MS.122         	12.28          	13.487
MS.123         	12.257         	13.362
MS.124         	12.233         	13.428
MS.125         	12.207         	13.376
MS.126         	12.182         	13.35
MS.127         	12.157         	13.362
MS.128         	12.135         	13.378
MS.129         	12.11          	13.287
MS.130         	12.085         	13.36
MS.131         	12.062         	13.247
MS.132         	12.037         	13.314
MS.133         	12.012         	13.257
MS.134         	11.99          	13.269
MS.135         	11.965         	13.233
MS.136         	11.943         	13.364
MS.137         	11.917         	13.287
MS.138         	11.895         	13.215
MS.139         	11.87          	13.199
MS.140         	11.847         	13.251
MS.141         	11.822         	13.31
MS.142         	11.8           	13.173
MS.143         	11.775         	13.219
MS.144         	11.752         	13.167
MS.145         	11.73          	13.237
MS.146         	11.705         	13.183
MS.147         	11.682         	13.124
MS.148         	11.657         	13.11
MS.149         	11.635         	13.058
MS.150         	11.613         	13.185
MS.151         	11.59          	13.15
MS.152         	11.565         	13.04
MS.153         	11.542         	13.003
MS.154         	11.52          	13.092
MS.155         	11.497         	12.953
MS.156         	11.472         	13.054
MS.157         	11.45          	12.868
MS.158         	11.427         	12.868
MS.159         	11.405         	12.951
MS.160         	11.382         	12.83
MS.161         	11.36          	12.87
MS.162         	11.337         	12.866
MS.163         	11.315         	12.955
MS.164         	11.292         	12.74
MS.165         	11.27          	12.703
MS.166         	11.247         	12.732
MS.167         	11.225         	12.723
MS.168         	11.202         	12.732
MS.169         	11.18          	12.709
MS.170         	11.157         	12.756
MS.171         	11.135         	12.627
MS.172         	11.113         	12.468
MS.173         	11.09          	12.637
MS.174         	11.068         	12.47
MS.175         	11.045         	12.417
MS.176         	11.023         	12.528
MS.177         	11.002         	12.423
MS.178         	10.98          	12.46
MS.179         	10.957         	12.482
MS.180         	10.935         	12.411
MS.181         	10.915         	12.159
MS.182         	10.892         	12.371
MS.183         	10.87          	12.361
MS.184         	10.847         	12.155
MS.185         	10.827         	12.19
MS.186         	10.805         	12.087
MS.187         	10.785         	12.403
MS.188         	10.762         	12.236
MS.189         	10.74          	12.176
MS.190         	10.72          	12.061
MS.191         	10.698         	12.065
MS.192         	10.677         	12.075
MS.193         	10.655         	12.045
MS.194         	10.635         	12.008
MS.195         	10.613         	12.059
MS.196         	10.592         	12.087
MS.197         	10.57          	12.006
MS.198         	10.55          	11.998
MS.199         	10.528         	12.105
MS.200         	10.507         	12.095
MS.201         	10.485         	11.863
MS.202         	10.465         	11.918
MS.203         	10.445         	11.9
MS.204         	10.422         	11.896
MS.205         	10.403         	11.894
MS.206         	10.382         	11.817
MS.207         	10.36          	11.845
MS.208         	10.34          	11.892
MS.209         	10.32          	11.7
MS.210         	10.3           	11.825
MS.211         	10.278         	11.817
MS.212         	10.257         	11.841
MS.213         	10.238         	11.545
MS.214         	10.217         	11.632
MS.215         	10.198         	11.718
MS.216         	10.175         	11.557
MS.217         	10.155         	11.666
MS.218         	10.135         	11.616
MS.219         	10.115         	11.561
MS.220         	10.095         	11.471
MS.221         	10.075         	11.537
MS.222         	10.055         	11.414
MS.223         	10.035         	11.432
MS.224         	10.015         	11.406
MS.225         	9.995          	11.408
MS.226         	9.975          	11.37
MS.227         	9.955          	11.12
MS.228         	9.935          	11.491
MS.229         	9.915          	11.05
MS.230         	9.895          	11.265
MS.231         	9.875          	11.332
MS.232         	9.855          	11.211
MS.233         	9.835          	11.265
MS.234         	9.818          	11.154
MS.235         	9.797          	11.034
MS.236         	9.778          	11.062
MS.237         	9.757          	11.116
MS.238         	9.738          	10.935
MS.239         	9.717          	11.148
MS.240         	9.7            	11.009
MS.241         	9.68           	10.796
MS.242         	9.66           	10.921
MS.243         	9.64           	10.822
MS.244         	9.622          	10.784
MS.245         	9.602          	10.878
MS.246         	9.582          	10.836
MS.247         	9.565          	10.693
MS.248         	9.545          	10.697
MS.249         	9.525          	10.675
MS.250         	9.507          	10.778
MS.251         	9.488          	10.447
MS.252         	9.47           	10.389
MS.253         	9.45           	10.512
MS.254         	9.432          	10.492
MS.255         	9.412          	10.26
MS.256         	9.395          	10.407
MS.257         	9.375          	10.077
MS.258         	9.358          	10.143
MS.259         	9.337          	10.345
MS.260         	9.32           	10.097
MS.261         	9.3            	10.178
MS.262         	9.283          	10.167
MS.263         	9.262          	9.888
MS.264         	9.245          	10.008
MS.265         	9.225          	9.938
MS.266         	9.207          	10.031
MS.267         	9.19           	9.996
MS.268         	9.17           	10.051
MS.269         	9.153          	9.869
MS.270         	9.135          	9.797
MS.271         	9.115          	9.747
MS.272         	9.097          	9.755
MS.273         	9.08           	9.74
MS.274         	9.062          	9.795
MS.275         	9.042          	9.771
MS.276         	9.025          	9.769
MS.277         	9.007          	9.662
MS.278         	8.99           	9.446
MS.279         	8.972          	9.525
MS.280         	8.952          	9.4
MS.281         	8.935          	9.422
MS.282         	8.917          	9.376
MS.283         	8.9            	9.416
MS.284         	8.882          	9.384
MS.285         	8.865          	9.372
MS.286         	8.847          	9.382
MS.287         	8.83           	9.301
MS.288         	8.812          	9.13
MS.289         	8.795          	9.251
MS.290         	8.775          	9.036
MS.291         	8.757          	9.066
MS.292         	8.74           	9.096
MS.293         	8.722          	8.876
MS.294         	8.707          	8.868
MS.295         	8.69           	8.794
MS.296         	8.672          	8.919
MS.297         	8.655          	8.864
MS.298         	8.637          	8.848
MS.299         	8.62           	8.806
MS.300         	8.602          	8.651
MS.301         	8.585          	8.754
MS.302         	8.568          	8.75
MS.303         	8.55           	8.625
MS.304         	8.535          	8.5
MS.305         	8.517          	8.534
MS.306         	8.5            	8.484
MS.307         	8.483          	8.512
MS.308         	8.465          	8.464
MS.309         	8.45           	8.423
MS.310         	8.432          	8.423
MS.311         	8.415          	8.369
MS.312         	8.398          	8.337
MS.313         	8.382          	8.284
MS.314         	8.365          	8.333
MS.315         	8.347          	8.186
MS.316         	8.332          	8.169
MS.317         	8.315          	8.051
MS.318         	8.297          	8.109
MS.319         	8.283          	8.043
MS.320         	8.265          	8.129
MS.321         	8.247          	8.071
MS.322         	8.233          	7.99
MS.323         	8.215          	7.869
MS.324         	8.2            	7.891
MS.325         	8.182          	7.859
MS.326         	8.167          	7.833
MS.327         	8.15           	7.986
MS.328         	8.135          	7.801
MS.329         	8.117          	7.75
MS.330         	8.102          	7.67
MS.331         	8.085          	7.684
MS.332         	8.07           	7.736
MS.333         	8.052          	7.67
MS.334         	8.037          	7.573
MS.335         	8.02           	7.609
MS.336         	8.005          	7.64
MS.337         	7.99           	7.595
MS.338         	7.972          	7.4
MS.339         	7.957          	7.466
MS.340         	7.94           	7.434
MS.341         	7.925          	7.454
MS.342         	7.91           	7.368
MS.343         	7.892          	7.378
MS.344         	7.878          	7.372
MS.345         	7.862          	7.265
MS.346         	7.847          	7.39
MS.347         	7.83           	7.263
MS.348         	7.815          	7.195
MS.349         	7.8            	7.241
MS.350         	7.785          	7.293
MS.351         	7.767          	7.257
MS.352         	7.753          	7.203
MS.353         	7.737          	7.023
MS.354         	7.722          	7.201
MS.355         	7.707          	7.122
MS.356         	7.69           	7.255
MS.357         	7.675          	7.086
MS.358         	7.66           	7.035
MS.359         	7.645          	7.078
MS.360         	7.63           	6.927
MS.361         	7.615          	7.054
MS.362         	7.6            	6.586
MS.363         	7.585          	6.824
MS.364         	7.57           	6.804
MS.365         	7.555          	6.834
MS.366         	7.537          	6.933
MS.367         	7.523          	6.898
MS.368         	7.507          	6.755
MS.369         	7.492          	6.951
MS.370         	7.477          	6.749
MS.371         	7.462          	6.359
MS.372         	7.447          	6.671
MS.373         	7.435          	6.679
MS.374         	7.42           	6.258
MS.375         	7.405          	6.639
MS.376         	7.39           	6.306
MS.377         	7.375          	6.617
MS.378         	7.36           	6.657
MS.379         	7.345          	6.649
MS.380         	7.33           	6.564
MS.381         	7.315          	6.687
MS.382         	7.302          	6.23
MS.383         	7.287          	6.055
MS.384         	7.273          	6.077
MS.385         	7.257          	6.478
MS.386         	7.242          	5.914
MS.387         	7.227          	6.453
MS.388         	7.215          	6.155
MS.389         	7.2            	5.976
MS.390         	7.185          	5.966
MS.391         	7.17           	6.216
MS.392         	7.157          	5.867
MS.393         	7.142          	5.914
MS.394         	7.128          	5.93
MS.395         	7.115          	5.906
MS.396         	7.1            	5.863
MS.397         	7.085          	5.63
MS.398         	7.072          	5.859
MS.399         	7.057          	5.779
MS.400         	7.043          	5.585
MS.401         	7.03           	5.555
MS.402         	7.015          	5.525
MS.403         	7              	5.726
MS.404         	6.987          	5.549
MS.405         	6.972          	5.708
MS.406         	6.96           	5.511
MS.407         	6.945          	5.446
MS.408         	6.932          	5.46
MS.409         	6.918          	5.477
MS.410         	6.902          	5.47
MS.411         	6.89           	5.354
MS.412         	6.875          	5.408
MS.413         	6.862          	5.458
MS.414         	6.847          	5.442
MS.415         	6.835          	5.358
MS.416         	6.822          	5.15
MS.417         	6.807          	5.505
MS.418         	6.795          	5.162
MS.419         	6.78           	5.285
MS.420         	6.767          	5.319
MS.421         	6.753          	5.068
MS.422         	6.74           	5.408
MS.423         	6.727          	5.1
MS.424         	6.712          	5.12
MS.425         	6.7            	5.283
MS.426         	6.685          	5.211
MS.427         	6.672          	5.309
MS.428         	6.66           	4.947
MS.429         	6.645          	5.035
MS.430         	6.632          	5.009
MS.431         	6.62           	5.066
MS.432         	6.608          	4.947
MS.433         	6.592          	4.921
MS.434         	6.58           	4.842
MS.435         	6.567          	4.87
MS.436         	6.555          	5.13
MS.437         	6.54           	4.82
MS.438         	6.527          	4.902
MS.439         	6.515          	4.882
MS.440         	6.503          	4.838
MS.441         	6.487          	4.832
MS.442         	6.475          	4.774
MS.443         	6.462          	4.772
MS.444         	6.45           	4.798
MS.445         	6.438          	4.82
MS.446         	6.425          	4.8
MS.447         	6.41           	4.727
MS.448         	6.398          	4.558
MS.449         	6.385          	4.679
MS.450         	6.372          	4.673
MS.451         	6.36           	4.729
MS.452         	6.347          	4.673
MS.453         	6.335          	4.534
MS.454         	6.322          	4.556
MS.455         	6.31           	4.586
MS.456         	6.297          	4.622
MS.457         	6.285          	4.433
MS.458         	6.273          	4.669
MS.459         	6.26           	4.383
MS.460         	6.247          	4.564
MS.461         	6.235          	4.429
MS.462         	6.222          	4.447
MS.463         	6.21           	4.409
MS.464         	6.197          	4.459
MS.465         	6.185          	4.455
MS.466         	6.172          	4.341
MS.467         	6.16           	4.286
MS.468         	6.148          	4.443
MS.469         	6.135          	4.23
MS.470         	6.122          	4.304
MS.471         	6.11           	4.165
MS.472         	6.097          	4.065
MS.473         	6.088          	4.212
MS.474         	6.075          	3.984
MS.475         	6.062          	4.294
MS.476         	6.05           	4.195
MS.477         	6.037          	3.998
MS.478         	6.025          	4.075
MS.479         	6.012          	4.077
MS.480         	6.003          	4.061
MS.481         	5.99           	4.099
MS.482         	5.977          	4.141
MS.483         	5.965          	3.988
MS.484         	5.955          	3.911
MS.485         	5.942          	3.954
MS.486         	5.93           	3.797
MS.487         	5.918          	3.764
MS.488         	5.907          	3.962
MS.489         	5.895          	3.783
MS.490         	5.882          	3.92
MS.491         	5.87           	3.891
MS.492         	5.86           	3.605
MS.493         	5.847          	3.714
MS.494         	5.835          	3.885
MS.495         	5.825          	3.646
MS.496         	5.812          	3.561
MS.497         	5.8            	3.597
MS.498         	5.79           	3.587
MS.499         	5.777          	3.478
MS.500         	5.767          	3.47
MS.501         	5.755          	3.551
MS.502         	5.742          	3.454
MS.503         	5.733          	3.432
MS.504         	5.72           	3.388
MS.505         	5.71           	3.442
MS.506         	5.697          	3.531
MS.507         	5.685          	3.543
MS.508         	5.675          	3.307
MS.509         	5.662          	3.396
MS.510         	5.652          	3.372
MS.511         	5.64           	3.35
MS.512         	5.63           	3.243
MS.513         	5.617          	3.297
MS.514         	5.608          	3.356
MS.515         	5.595          	3.372
MS.516         	5.585          	3.247
MS.517         	5.572          	3.269
MS.518         	5.562          	3.271
MS.519         	5.552          	3.164
MS.520         	5.54           	3.215
MS.521         	5.53           	3.225
MS.522         	5.517          	3.11
MS.523         	5.507          	3.078
MS.524         	5.495          	3.051
MS.525         	5.485          	3.172
MS.526         	5.475          	2.987
MS.527         	5.463          	3.088
MS.528         	5.452          	2.975
MS.529         	5.443          	3.088
MS.530         	5.43           	2.953
MS.531         	5.42           	2.965
MS.532         	5.41           	2.83
MS.533         	5.398          	2.699
MS.534         	5.387          	2.54
MS.535         	5.378          	2.542
MS.536         	5.365          	2.864
MS.537         	5.355          	2.506
MS.538         	5.345          	2.808
MS.539         	5.332          	2.892
MS.540         	5.322          	2.413
MS.541         	5.312          	2.733
MS.542         	5.302          	2.463
MS.543         	5.29           	2.377
MS.544         	5.28           	2.316
MS.545         	5.27           	2.371
MS.546         	5.26           	2.455
MS.547         	5.25           	2.292
MS.548         	5.237          	2.258
MS.549         	5.227          	2.288
MS.550         	5.217          	2.266
MS.551         	5.207          	2.01
MS.552         	5.197          	2.111
MS.553         	5.188          	2.143
MS.554         	5.175          	2.115
MS.555         	5.165          	2.206
MS.556         	5.155          	1.881
MS.557         	5.145          	1.615
MS.558         	5.135          	1.913
MS.559         	5.125          	1.458
MS.560         	5.115          	1.732
MS.561         	5.105          	1.561
MS.562         	5.095          	1.591
MS.563         	5.082          	1.644
MS.564         	5.072          	1.619
MS.565         	5.062          	1.339
MS.566         	5.052          	1.674
MS.567         	5.043          	1.422
MS.568         	5.032          	1.406
MS.569         	5.023          	1.261
MS.570         	5.012          	1.376
MS.571         	5.003          	1.356
MS.572         	4.992          	1.227
MS.573         	4.983          	1.219
MS.574         	4.972          	1.198
MS.575         	4.963          	1.333
MS.576         	4.952          	1.227
MS.577         	4.943          	1.297
MS.578         	4.932          	1.211
MS.579         	4.922          	1.198
MS.580         	4.915          	1.112
MS.581         	4.905          	1.188
MS.582         	4.895          	0.9
MS.583         	4.885          	1.033
MS.584         	4.875          	0.975
MS.585         	4.865          	0.943
MS.586         	4.855          	0.961
MS.587         	4.845          	0.971
MS.588         	4.835          	1.055
MS.589         	4.825          	1.078
MS.590         	4.818          	0.945
MS.591         	4.807          	0.955
MS.592         	4.797          	0.898
MS.593         	4.787          	0.951
MS.594         	4.777          	1.049
MS.595         	4.767          	0.906
MS.596         	4.76           	0.955
MS.597         	4.75           	1.041
MS.598         	4.74           	0.959
MS.599         	4.73           	0.695
MS.600         	4.72           	0.927
MS.601         	4.713          	0.781
MS.602         	4.702          	0.981
MS.603         	4.693          	0.727
MS.604         	4.682          	0.705
MS.605         	4.675          	0.937
MS.606         	4.665          	0.753
MS.607         	4.655          	0.677
MS.608         	4.645          	0.659
MS.609         	4.637          	0.667
MS.610         	4.628          	0.653
MS.611         	4.617          	0.661
MS.612         	4.61           	0.651
MS.613         	4.6            	0.645
MS.614         	4.59           	0.558
MS.615         	4.582          	0.566
MS.616         	4.572          	0.614
MS.617         	4.562          	0.612
MS.618         	4.555          	0.604
MS.619         	4.545          	0.477
MS.620         	4.535          	0.532
MS.621         	4.527          	0.534
MS.622         	4.517          	0.558
MS.623         	4.51           	0.546
MS.624         	4.5            	0.473
MS.625         	4.49           	0.435
MS.626         	4.483          	0.459
MS.627         	4.472          	0.463
MS.628         	4.465          	0.524
MS.629         	4.455          	0.433
MS.630         	4.445          	0.437
MS.631         	4.438          	0.391
MS.632         	4.427          	0.393
MS.633         	4.42           	0.479
MS.634         	4.41           	0.346
MS.635         	4.402          	0.401
MS.636         	4.392          	0.411
MS.637         	4.385          	0.359
MS.638         	4.375          	0.31
MS.639         	4.367          	0.354
MS.640         	4.358          	0.201
MS.641         	4.35           	0.207
MS.642         	4.34           	0.278
MS.643         	4.332          	0.35
MS.644         	4.322          	0.232
MS.645         	4.315          	0.209
MS.646         	4.305          	0.274
MS.647         	4.298          	0.314
MS.648         	4.29           	0.282
MS.649         	4.28           	0.228
MS.650         	4.273          	0.199
MS.651         	4.262          	0.185
MS.652         	4.255          	0.165
MS.653         	4.247          	0.218
MS.654         	4.237          	0.171
MS.655         	4.23           	0.197
MS.656         	4.22           	0.201
MS.657         	4.213          	0.149
MS.658         	4.205          	0.133
MS.659         	4.195          	0.165
MS.660         	4.188          	0.183
MS.661         	4.18           	0.173
MS.662         	4.17           	0.175
MS.663         	4.162          	0.141
MS.664         	4.155          	0.141
MS.665         	4.145          	0.02
MS.666         	4.137          	0.131
MS.667         	4.13           	0.161
MS.668         	4.12           	0.133
MS.669         	4.112          	0.139
MS.670         	4.105          	0.068
MS.671         	4.095          	0.028
MS.672         	4.088          	0.135
MS.673         	4.08           	0.113
MS.674         	4.072          	0.006
MS.675         	4.062          	-0.008
MS.676         	4.055          	0.008
MS.677         	4.048          	0.004
MS.678         	4.04           	0.002
MS.679         	4.03           	0.052
MS.680         	4.023          	0.008
MS.681         	4.015          	-0.014
MS.682         	4.007          	-0.004
MS.683         	4              	0.002
MS.684         	3.99           	0.014
MS.685         	3.982          	0.028
MS.686         	3.975          	0.004
MS.687         	3.967          	0.000
MS.688         	3.96           	-0.002
MS.689         	3.952          	-0.004
MS.690         	3.942          	0.002
MS.691         	3.935          	0.02
MS.692         	3.928          	0.014
MS.693         	3.92           	0.002
MS.694         	3.912          	-0.008
MS.695         	3.905          	0.000
MS.696         	3.897          	0.002
MS.697         	3.887          	0.018
MS.698         	3.88           	-0.01
MS.699         	3.872          	-0.004
MS.700         	3.865          	0.016
MS.701         	3.857          	0.008
MS.702         	3.85           	-0.01
MS.703         	3.842          	0.006
MS.704         	3.835          	0.004
MS.705         	3.827          	0.004
MS.706         	3.82           	0.02
MS.707         	3.812          	0.004
MS.708         	3.805          	0.012
MS.709         	3.797          	0.008
MS.710         	3.79           	0.032
MS.711         	3.78           	0.006
MS.712         	3.772          	0.000
MS.713         	3.765          	0.018
MS.714         	3.757          	0.01
MS.715         	3.75           	0.006
MS.716         	3.742          	0.018
MS.717         	3.735          	0.024
MS.718         	3.727          	0.002
DERIVED EXCITABILITY VARIABLES
Program = QTracP 3/4/2020
Threshold method = 6 (optimised for CAP, using data for present condition only)
SR method = 1 (using actual data values)
6.                 	0.000               	Peak response\(mV)
9.                 	33.5                	Temperature ( C)
17.                	39                  	Age (years)
18.                	1                   	Sex (M=1, F=2)

EXTRA VARIABLES

MScPeak(mV) = 13.84
MScS5(mA) = 4.66
MScS50(mA) = 7.53
MScS95(mA) = 11.63
MScNSteps = 0
MScSteps(%) = 0.0
MScStepMax(%) = 0.0
MScD50 = 100
MScSlope = 2.04
MSFPeakAmp(mV) = 13.8
MSFNUnits = 173
MSFMeanUnitAmp(uV) = 79.7
MSFHuntTime(m) = 4.46
MSFError(%) = 3.14
MSFNLarge = 56.25
MSFMedianAmp(%) = 0.517
MSFMedianAmp(mV) = 0.0713
MSFHalfAmpAmp(%) = 0.597
MSFHalfAmpAmp(mV) = 0.0824
MSFLargestAmp(%) = 2.91
MSFLargestAmp(mV) = 0.402
MSFMeanRS(%) = 2.01
MSFOpts = 10106121
MScDuration(min) = 6.8
MSFTraces = 706
MSFSizeLimit(uV) = 34.5
MSFLimitType = 1
MSFSmallestAmp(uV) = 35

EXTRA WAVEFORMS


!MScan Model
!173
	1	4.1	0.41	2
	2	4.19	0.6	2
	3	4.26	0.42	2
	4	4.33	0.51	2
	5	4.38	0.49	2
	6	4.42	0.32	2
	7	4.46	0.38	2
	8	4.5	0.36	2
	9	4.53	0.3	2
	10	4.57	0.36	2
	11	4.63	0.63	2
	12	4.68	0.72	2
	13	4.76	1.21	2
	14	4.87	0.92	2
	15	4.91	0.55	2
	16	4.95	0.54	2
	17	4.98	0.74	2
	18	5.03	0.97	2
	19	5.06	0.65	2
	20	5.09	0.89	2
	21	5.12	0.75	2
	22	5.14	0.83	2
	23	5.16	0.46	2
	24	5.19	0.79	2
	25	5.22	1.07	2
	26	5.25	1.18	2
	27	5.3	1.04	2
	28	5.35	1.24	2
	29	5.4	1.24	2
	30	5.44	0.67	2
	31	5.47	0.59	2
	32	5.49	0.54	2
	33	5.51	0.42	2
	34	5.54	0.4	2
	35	5.58	0.38	2
	36	5.62	0.54	2
	37	5.68	0.72	2
	38	5.73	0.52	2
	39	5.77	0.59	2
	40	5.81	0.6	2
	41	5.84	0.42	2
	42	5.88	0.71	2
	43	5.93	0.75	2
	44	5.99	0.8	2
	45	6.05	0.88	2
	46	6.11	0.74	2
	47	6.16	0.62	2
	48	6.21	0.56	2
	49	6.28	0.95	2
	50	6.33	0.53	2
	51	6.38	0.54	2
	52	6.44	0.6	2
	53	6.52	0.75	2
	54	6.6	0.88	2
	55	6.7	1.22	2
	56	6.82	1.04	2.2
	57	6.82	0.26	2.2
	58	6.9	0.82	2
	59	6.95	0.6	2
	60	6.99	0.49	2
	61	7.03	0.52	2
	62	7.06	0.59	2
	63	7.14	1.22	2
	64	7.21	1.57	2
	65	7.36	2.91	2.4
	66	7.52	1.65	2
	67	7.62	1.39	2
	68	7.69	0.85	2
	69	7.75	0.69	2
	70	7.81	0.68	2
	71	7.86	0.44	2
	72	7.88	0.26	2
	73	7.91	0.41	2
	74	7.94	0.32	2
	75	7.97	0.37	2
	76	8.01	0.47	2
	77	8.05	0.48	2
	78	8.08	0.48	2
	79	8.1	0.27	2
	80	8.12	0.27	2
	81	8.16	0.46	2
	82	8.19	0.57	2
	83	8.24	0.52	2
	84	8.26	0.52	2
	85	8.3	0.48	2
	86	8.32	0.31	2
	87	8.35	0.27	2
	88	8.38	0.45	2
	89	8.4	0.29	2
	90	8.42	0.3	2
	91	8.44	0.33	2
	92	8.47	0.53	2
	93	8.49	0.29	2
	94	8.51	0.27	2
	95	8.55	0.5	2
	96	8.57	0.25	2
	97	8.59	0.27	2
	98	8.61	0.31	2
	99	8.62	0.31	2
	100	8.66	0.52	2
	101	8.68	0.33	2
	102	8.7	0.34	2
	103	8.71	0.32	2
	104	8.73	0.34	2
	105	8.76	0.34	2
	106	8.8	0.55	2
	107	8.82	0.34	2
	108	8.84	0.35	2
	109	8.86	0.4	2
	110	8.88	0.37	2
	111	8.91	0.35	2
	112	8.93	0.38	2
	113	8.95	0.35	2
	114	8.98	0.31	2
	115	9	0.41	2
	116	9.03	0.37	2
	117	9.06	0.35	2
	118	9.1	0.48	2
	119	9.14	0.68	2
	120	9.18	0.53	2
	121	9.22	0.44	2
	122	9.26	0.52	2
	123	9.31	0.63	2
	124	9.35	0.71	2
	125	9.38	0.5	2
	126	9.41	0.37	2
	127	9.45	0.51	2
	128	9.48	0.54	2
	129	9.51	0.43	2
	130	9.54	0.51	2
	131	9.58	0.59	2
	132	9.61	0.55	2
	133	9.65	0.53	2
	134	9.71	0.68	2
	135	9.77	0.71	2
	136	9.84	0.69	2
	137	9.9	0.63	2
	138	9.98	0.8	2
	139	10.06	0.73	2
	140	10.12	0.68	2
	141	10.17	0.4	2
	142	10.21	0.33	2
	143	10.25	0.39	2
	144	10.32	0.59	2
	145	10.4	0.58	2
	146	10.48	0.53	2
	147	10.56	0.48	2
	148	10.68	0.72	2
	149	10.77	0.58	2
	150	10.84	0.49	2
	151	10.91	0.62	2
	152	10.98	0.67	2
	153	11.04	0.46	2
	154	11.09	0.46	2
	155	11.13	0.36	2
	156	11.17	0.3	2
	157	11.22	0.38	2
	158	11.28	0.52	2
	159	11.33	0.39	2
	160	11.38	0.34	2
	161	11.42	0.33	2
	162	11.49	0.47	2
	163	11.55	0.4	2
	164	11.62	0.33	2
	165	11.71	0.48	2
	166	11.85	0.53	2
	167	12.01	0.5	2
	168	12.1	0.28	2
	169	12.24	0.46	2
	170	12.65	0.91	2
	171	12.83	0.4	2
	172	13.01	0.57	2
	173	13.94	0.78	2

