File:              	C:\Qtrac\Data\Daniel M Sørensen\MScan multicentre study\Data from centres\Oslo\Processed data\SZC00526B.QZD
Name:              	NO.OSL.NC.12.2
Protocol:          	MSCAN-R2
Date:              	26/5/20
Start time:        	17:06:40
Age:               	53
Sex:               	F
Temperature:       	30.8
S/R sites:         	APB
NC/disease:        	NC12
Operator:          	SZ
Comments:          	Test2
M-SCAN DATA (5-0.6m)
Scanpts: 62, 85, 427, 444
Stim. (mA)     	Amp. (mV)
MS.1           	14.5           	10.852
MS.2           	14.5           	10.842
MS.3           	14.5           	10.85
MS.4           	14.5           	10.848
MS.5           	14.5           	10.834
MS.6           	14.5           	10.846
MS.7           	14.5           	10.846
MS.8           	14.5           	10.852
MS.9           	14.5           	10.85
MS.10          	14.5           	10.846
MS.11          	14.5           	10.864
MS.12          	14.5           	10.858
MS.13          	14.5           	10.858
MS.14          	14.5           	10.854
MS.15          	14.5           	10.864
MS.16          	14.5           	10.856
MS.17          	14.5           	10.848
MS.18          	14.5           	10.854
MS.19          	14.5           	10.846
MS.20          	14.5           	10.852
MS.21          	14.5           	10.86
MS.22          	14.5           	10.862
MS.23          	14.5           	10.868
MS.24          	14.412         	10.874
MS.25          	14.385         	10.866
MS.26          	14.355         	10.868
MS.27          	14.327         	10.878
MS.28          	14.297         	10.874
MS.29          	14.27          	10.889
MS.30          	14.242         	10.885
MS.31          	14.212         	10.88
MS.32          	14.185         	10.891
MS.33          	14.155         	10.88
MS.34          	14.127         	10.88
MS.35          	14.1           	10.891
MS.36          	14.072         	10.885
MS.37          	14.042         	10.885
MS.38          	14.015         	10.889
MS.39          	13.987         	10.878
MS.40          	13.96          	10.876
MS.41          	13.932         	10.883
MS.42          	13.903         	10.874
MS.43          	13.875         	10.866
MS.44          	13.847         	10.878
MS.45          	13.82          	10.874
MS.46          	13.792         	10.866
MS.47          	13.765         	10.876
MS.48          	13.737         	10.872
MS.49          	13.71          	10.858
MS.50          	13.682         	10.885
MS.51          	13.655         	10.87
MS.52          	13.627         	10.804
MS.53          	13.6           	10.88
MS.54          	13.575         	10.87
MS.55          	13.547         	10.8
MS.56          	13.52          	10.806
MS.57          	13.492         	10.798
MS.58          	13.465         	10.8
MS.59          	13.44          	10.794
MS.60          	13.412         	10.8
MS.61          	13.385         	10.796
MS.62          	13.358         	10.8
MS.63          	13.332         	10.794
MS.64          	13.305         	10.806
MS.65          	13.278         	10.798
MS.66          	13.252         	10.794
MS.67          	13.225         	10.81
MS.68          	13.2           	10.802
MS.69          	13.172         	10.81
MS.70          	13.148         	10.818
MS.71          	13.12          	10.806
MS.72          	13.095         	10.808
MS.73          	13.068         	10.804
MS.74          	13.042         	10.81
MS.75          	13.015         	10.794
MS.76          	12.99          	10.8
MS.77          	12.962         	10.806
MS.78          	12.938         	10.8
MS.79          	12.912         	10.8
MS.80          	12.885         	10.8
MS.81          	12.86          	10.8
MS.82          	12.835         	10.81
MS.83          	12.81          	10.798
MS.84          	12.782         	10.796
MS.85          	12.757         	10.798
MS.86          	12.733         	10.8
MS.87          	12.707         	10.788
MS.88          	12.682         	10.802
MS.89          	12.655         	10.806
MS.90          	12.63          	10.792
MS.91          	12.605         	10.8
MS.92          	12.58          	10.778
MS.93          	12.555         	10.796
MS.94          	12.53          	10.729
MS.95          	12.505         	10.802
MS.96          	12.48          	10.746
MS.97          	12.455         	10.792
MS.98          	12.43          	10.697
MS.99          	12.405         	10.798
MS.100         	12.38          	10.719
MS.101         	12.355         	10.786
MS.102         	12.332         	10.707
MS.103         	12.307         	10.683
MS.104         	12.282         	10.707
MS.105         	12.257         	10.677
MS.106         	12.233         	10.655
MS.107         	12.207         	10.713
MS.108         	12.185         	10.723
MS.109         	12.16          	10.713
MS.110         	12.135         	10.653
MS.111         	12.113         	10.715
MS.112         	12.087         	10.703
MS.113         	12.062         	10.711
MS.114         	12.04          	10.713
MS.115         	12.015         	10.711
MS.116         	11.99          	10.727
MS.117         	11.967         	10.709
MS.118         	11.943         	10.695
MS.119         	11.92          	10.659
MS.120         	11.895         	10.713
MS.121         	11.872         	10.675
MS.122         	11.847         	10.679
MS.123         	11.825         	10.671
MS.124         	11.8           	10.663
MS.125         	11.778         	10.653
MS.126         	11.752         	10.669
MS.127         	11.73          	10.603
MS.128         	11.707         	10.586
MS.129         	11.682         	10.603
MS.130         	11.66          	10.588
MS.131         	11.637         	10.661
MS.132         	11.613         	10.594
MS.133         	11.59          	10.592
MS.134         	11.568         	10.603
MS.135         	11.545         	9.952
MS.136         	11.52          	10.599
MS.137         	11.497         	9.96
MS.138         	11.475         	10.619
MS.139         	11.452         	9.879
MS.140         	11.43          	10.599
MS.141         	11.405         	9.885
MS.142         	11.382         	9.694
MS.143         	11.36          	9.97
MS.144         	11.337         	9.892
MS.145         	11.315         	9.89
MS.146         	11.292         	9.863
MS.147         	11.27          	9.948
MS.148         	11.247         	9.696
MS.149         	11.225         	9.815
MS.150         	11.202         	10.613
MS.151         	11.18          	10.468
MS.152         	11.157         	9.968
MS.153         	11.135         	9.833
MS.154         	11.113         	9.819
MS.155         	11.09          	9.829
MS.156         	11.07          	9.551
MS.157         	11.047         	9.843
MS.158         	11.025         	9.745
MS.159         	11.002         	9.728
MS.160         	10.98          	9.896
MS.161         	10.96          	9.71
MS.162         	10.938         	9.62
MS.163         	10.915         	9.726
MS.164         	10.892         	9.545
MS.165         	10.872         	9.392
MS.166         	10.85          	9.549
MS.167         	10.827         	9.372
MS.168         	10.807         	9.599
MS.169         	10.785         	9.386
MS.170         	10.762         	9.084
MS.171         	10.742         	9.386
MS.172         	10.72          	9.394
MS.173         	10.7           	9.239
MS.174         	10.677         	9.096
MS.175         	10.655         	9.084
MS.176         	10.635         	9.102
MS.177         	10.613         	9.088
MS.178         	10.592         	9.092
MS.179         	10.573         	9.078
MS.180         	10.55          	9.08
MS.181         	10.53          	9.062
MS.182         	10.507         	9.068
MS.183         	10.488         	9.076
MS.184         	10.465         	9.066
MS.185         	10.445         	9.078
MS.186         	10.425         	9.007
MS.187         	10.403         	9.08
MS.188         	10.382         	9.023
MS.189         	10.363         	8.985
MS.190         	10.342         	8.995
MS.191         	10.32          	9.062
MS.192         	10.3           	9.009
MS.193         	10.28          	8.945
MS.194         	10.26          	8.995
MS.195         	10.238         	8.993
MS.196         	10.217         	8.973
MS.197         	10.198         	8.983
MS.198         	10.177         	8.959
MS.199         	10.157         	8.991
MS.200         	10.137         	8.959
MS.201         	10.117         	8.915
MS.202         	10.095         	8.951
MS.203         	10.075         	8.963
MS.204         	10.055         	8.991
MS.205         	10.035         	8.943
MS.206         	10.015         	8.947
MS.207         	9.995          	8.925
MS.208         	9.975          	8.951
MS.209         	9.955          	8.947
MS.210         	9.935          	8.985
MS.211         	9.915          	8.888
MS.212         	9.895          	8.941
MS.213         	9.877          	8.927
MS.214         	9.858          	8.951
MS.215         	9.837          	8.929
MS.216         	9.818          	8.661
MS.217         	9.797          	8.739
MS.218         	9.778          	8.627
MS.219         	9.757          	8.496
MS.220         	9.74           	8.657
MS.221         	9.72           	8.272
MS.222         	9.7            	8.294
MS.223         	9.68           	8.574
MS.224         	9.662          	8.848
MS.225         	9.642          	8.24
MS.226         	9.622          	8.278
MS.227         	9.602          	7.767
MS.228         	9.585          	7.988
MS.229         	9.565          	7.859
MS.230         	9.545          	8.113
MS.231         	9.528          	7.841
MS.232         	9.507          	7.722
MS.233         	9.49           	7.801
MS.234         	9.47           	7.809
MS.235         	9.45           	7.523
MS.236         	9.432          	7.612
MS.237         	9.412          	7.37
MS.238         	9.395          	7.553
MS.239         	9.375          	7.295
MS.240         	9.358          	7.521
MS.241         	9.337          	7.221
MS.242         	9.32           	7.166
MS.243         	9.3            	7.13
MS.244         	9.283          	7.092
MS.245         	9.265          	6.88
MS.246         	9.245          	7.035
MS.247         	9.227          	6.749
MS.248         	9.207          	7.102
MS.249         	9.19           	6.933
MS.250         	9.172          	6.768
MS.251         	9.153          	7.108
MS.252         	9.135          	6.725
MS.253         	9.117          	6.647
MS.254         	9.1            	5.936
MS.255         	9.08           	6.679
MS.256         	9.062          	6.179
MS.257         	9.045          	6.431
MS.258         	9.028          	6.194
MS.259         	9.007          	5.891
MS.260         	8.99           	6.339
MS.261         	8.972          	5.936
MS.262         	8.955          	5.823
MS.263         	8.938          	6.01
MS.264         	8.917          	5.95
MS.265         	8.9            	5.728
MS.266         	8.882          	5.916
MS.267         	8.865          	5.432
MS.268         	8.847          	5.517
MS.269         	8.83           	5.348
MS.270         	8.812          	5.829
MS.271         	8.795          	5.372
MS.272         	8.778          	5.098
MS.273         	8.76           	5.398
MS.274         	8.742          	5.692
MS.275         	8.725          	5.078
MS.276         	8.707          	5.043
MS.277         	8.69           	4.993
MS.278         	8.672          	4.84
MS.279         	8.655          	4.945
MS.280         	8.637          	5.007
MS.281         	8.62           	4.808
MS.282         	8.602          	4.812
MS.283         	8.585          	4.814
MS.284         	8.57           	4.459
MS.285         	8.552          	4.677
MS.286         	8.535          	4.782
MS.287         	8.517          	4.548
MS.288         	8.5            	4.665
MS.289         	8.483          	4.345
MS.290         	8.467          	4.159
MS.291         	8.45           	4.32
MS.292         	8.432          	4.437
MS.293         	8.415          	4.155
MS.294         	8.4            	4.165
MS.295         	8.382          	4.431
MS.296         	8.365          	4.328
MS.297         	8.35           	3.803
MS.298         	8.332          	4.038
MS.299         	8.315          	3.861
MS.300         	8.3            	4.089
MS.301         	8.283          	3.775
MS.302         	8.265          	3.914
MS.303         	8.25           	3.724
MS.304         	8.233          	3.617
MS.305         	8.217          	3.591
MS.306         	8.2            	3.503
MS.307         	8.182          	3.801
MS.308         	8.167          	3.664
MS.309         	8.15           	3.664
MS.310         	8.135          	3.589
MS.311         	8.117          	3.299
MS.312         	8.102          	3.37
MS.313         	8.085          	3.309
MS.314         	8.07           	3.394
MS.315         	8.055          	3.136
MS.316         	8.037          	2.949
MS.317         	8.023          	3.176
MS.318         	8.005          	3.154
MS.319         	7.99           	3.42
MS.320         	7.972          	3.072
MS.321         	7.957          	3.023
MS.322         	7.942          	3.261
MS.323         	7.925          	2.931
MS.324         	7.91           	2.896
MS.325         	7.895          	2.846
MS.326         	7.878          	2.864
MS.327         	7.862          	2.715
MS.328         	7.847          	2.844
MS.329         	7.832          	2.624
MS.330         	7.815          	2.33
MS.331         	7.8            	2.314
MS.332         	7.785          	2.34
MS.333         	7.77           	2.314
MS.334         	7.753          	2.034
MS.335         	7.737          	2.145
MS.336         	7.722          	2.193
MS.337         	7.707          	1.96
MS.338         	7.692          	2.119
MS.339         	7.677          	2.04
MS.340         	7.66           	1.756
MS.341         	7.645          	1.865
MS.342         	7.63           	1.625
MS.343         	7.615          	1.934
MS.344         	7.6            	1.495
MS.345         	7.585          	1.74
MS.346         	7.57           	1.511
MS.347         	7.555          	1.833
MS.348         	7.54           	1.263
MS.349         	7.525          	1.458
MS.350         	7.51           	1.525
MS.351         	7.495          	1.47
MS.352         	7.48           	1.452
MS.353         	7.465          	1.138
MS.354         	7.45           	0.985
MS.355         	7.435          	0.949
MS.356         	7.42           	1.408
MS.357         	7.405          	1.138
MS.358         	7.39           	0.967
MS.359         	7.375          	0.82
MS.360         	7.36           	0.715
MS.361         	7.345          	0.812
MS.362         	7.33           	0.759
MS.363         	7.317          	0.735
MS.364         	7.302          	0.717
MS.365         	7.287          	0.397
MS.366         	7.273          	0.657
MS.367         	7.257          	0.681
MS.368         	7.245          	0.373
MS.369         	7.23           	0.338
MS.370         	7.215          	0.369
MS.371         	7.2            	0.33
MS.372         	7.185          	0.334
MS.373         	7.172          	0.205
MS.374         	7.157          	0.272
MS.375         	7.142          	0.292
MS.376         	7.13           	0.282
MS.377         	7.115          	0.306
MS.378         	7.1            	0.187
MS.379         	7.085          	0.203
MS.380         	7.072          	0.195
MS.381         	7.057          	0.209
MS.382         	7.045          	0.211
MS.383         	7.03           	0.278
MS.384         	7.015          	0.502
MS.385         	7.003          	0.234
MS.386         	6.987          	0.224
MS.387         	6.972          	0.197
MS.388         	6.96           	0.195
MS.389         	6.945          	0.205
MS.390         	6.932          	0.218
MS.391         	6.918          	0.167
MS.392         	6.905          	0.183
MS.393         	6.89           	0.147
MS.394         	6.878          	0.133
MS.395         	6.862          	0.173
MS.396         	6.85           	0.173
MS.397         	6.835          	0.167
MS.398         	6.822          	0.143
MS.399         	6.807          	0.191
MS.400         	6.795          	0.151
MS.401         	6.78           	0.131
MS.402         	6.767          	0.133
MS.403         	6.755          	0.127
MS.404         	6.74           	0.129
MS.405         	6.727          	0.125
MS.406         	6.712          	0.127
MS.407         	6.7            	0.129
MS.408         	6.688          	0.131
MS.409         	6.672          	0.131
MS.410         	6.66           	0.129
MS.411         	6.648          	0.129
MS.412         	6.632          	0.125
MS.413         	6.62           	0.155
MS.414         	6.608          	0.125
MS.415         	6.595          	0.131
MS.416         	6.58           	0.123
MS.417         	6.567          	0.123
MS.418         	6.555          	0.123
MS.419         	6.543          	0.127
MS.420         	6.527          	0.119
MS.421         	6.515          	0.123
MS.422         	6.503          	0.123
MS.423         	6.49           	0.121
MS.424         	6.477          	0.127
MS.425         	6.462          	0.127
MS.426         	6.45           	0.123
MS.427         	6.438          	0.121
MS.428         	6.425          	0.125
MS.429         	6.412          	0.127
MS.430         	6.4            	0.121
MS.431         	6.385          	0.125
MS.432         	6.372          	0.127
MS.433         	6.36           	0.123
MS.434         	6.347          	0.125
MS.435         	6.335          	0.125
MS.436         	6.322          	0.125
MS.437         	6.31           	0.121
MS.438         	6.297          	0.121
MS.439         	6.285          	0.125
MS.440         	6.273          	0.127
MS.441         	6.26           	0.123
MS.442         	6.247          	0.125
MS.443         	6.235          	0.127
MS.444         	6.222          	0.121
MS.445         	6.21           	0.123
MS.446         	6.197          	0.129
MS.447         	6.185          	0.131
MS.448         	6.172          	0.127
MS.449         	6.16           	0.129
MS.450         	6.148          	0.123
MS.451         	6.135          	0.129
MS.452         	6.122          	0.125
MS.453         	6.112          	0.125
MS.454         	6.1            	0.123
MS.455         	6.088          	0.119
MS.456         	6.075          	0.117
MS.457         	6.062          	0.123
MS.458         	6.05           	0.127
MS.459         	6.037          	0.127
MS.460         	6.027          	0.123
MS.461         	6.015          	0.123
MS.462         	6.003          	0.127
MS.463         	5.99           	0.127
MS.464         	5.977          	0.125
MS.465         	5.967          	0.125
MS.466         	5.955          	0.127
MS.467         	5.942          	0.127
MS.468         	5.93           	0.123
MS.469         	5.92           	0.127
MS.470         	5.907          	0.123
MS.471         	5.895          	0.123
MS.472         	5.882          	0.123
MS.473         	5.872          	0.123
MS.474         	5.86           	0.127
MS.475         	5.847          	0.129
MS.476         	5.838          	0.123
MS.477         	5.825          	0.131
MS.478         	5.812          	0.121
MS.479         	5.802          	0.127
MS.480         	5.79           	0.121
MS.481         	5.777          	0.121
MS.482         	5.767          	0.123
DERIVED EXCITABILITY VARIABLES
Program = QTracP 3/4/2020
Threshold method = 6 (optimised for CAP, using data for present condition only)
SR method = 1 (using actual data values)
6.                 	0.000               	Peak response\(mV)
9.                 	30.8                	Temperature ( C)
17.                	53                  	Age (years)
18.                	2                   	Sex (M=1, F=2)

EXTRA VARIABLES

MScPeak(mV) = 10.73
MScS5(mA) = 7.28
MScS50(mA) = 8.79
MScS95(mA) = 11.42
MScNSteps = 2
MScSteps(%) = 7
MScStepMax(%) = 4.6
MScD50 = 36
MScSlope = 5.08
MSFPeakAmp(mV) = 10.7
MSFNUnits = 124
MSFMeanUnitAmp(uV) = 86.1
MSFHuntTime(m) = 2.5
MSFError(%) = 7.32
MSFNLarge = 33.22
MSFMedianAmp(%) = 0.607
MSFMedianAmp(mV) = 0.0648
MSFHalfAmpAmp(%) = 0.967
MSFHalfAmpAmp(mV) = 0.103
MSFLargestAmp(%) = 5.5
MSFLargestAmp(mV) = 0.588
MSFMeanRS(%) = 2
MSFOpts = 10106121
MScDuration(min) = 4.4
MSFTraces = 383
MSFSizeLimit(uV) = 26.7
MSFLimitType = 1
MSFSmallestAmp(uV) = 30.2

EXTRA WAVEFORMS


!MScan Model
!124
	1	6.91	0.45	2
	2	7.1	0.7	2
	3	7.16	0.29	2
	4	7.2	0.55	2
	5	7.21	0.35	2
	6	7.23	0.43	2
	7	7.25	0.48	2
	8	7.26	0.45	2
	9	7.28	0.42	2
	10	7.3	0.47	2
	11	7.31	0.49	2
	12	7.34	1.04	2
	13	7.38	1.24	2
	14	7.42	1.36	2
	15	7.46	1.47	2
	16	7.49	0.9	2
	17	7.51	0.91	2
	18	7.54	0.97	2
	19	7.57	0.79	2
	20	7.59	0.67	2
	21	7.62	0.85	2
	22	7.64	0.54	2
	23	7.65	0.4	2
	24	7.67	0.55	2
	25	7.69	0.46	2
	26	7.7	0.42	2
	27	7.71	0.45	2
	28	7.72	0.52	2
	29	7.74	0.52	2
	30	7.75	0.46	2
	31	7.76	0.45	2
	32	7.77	0.53	2
	33	7.79	0.53	2
	34	7.8	0.37	2
	35	7.81	0.48	2
	36	7.82	0.4	2
	37	7.83	0.28	2
	38	7.84	0.66	2
	39	7.86	0.87	2
	40	7.88	1	2
	41	7.9	0.88	2
	42	7.92	0.59	2
	43	7.98	1.38	2
	44	8.02	0.69	2
	45	8.06	1.03	2
	46	8.1	1.05	2
	47	8.15	1.06	2
	48	8.19	0.99	2
	49	8.24	1.25	2
	50	8.27	0.7	2
	51	8.3	0.71	2
	52	8.33	1.05	2
	53	8.37	1.06	2
	54	8.41	1.06	2
	55	8.44	0.6	2
	56	8.46	0.53	2
	57	8.48	0.66	2
	58	8.52	0.98	2
	59	8.55	1.1	2
	60	8.58	0.77	2
	61	8.61	0.5	2
	62	8.63	0.52	2
	63	8.65	0.7	2
	64	8.68	1.35	2
	65	8.72	0.9	2
	66	8.76	1.37	2
	67	8.83	2.63	2
	68	8.86	0.67	2
	69	8.88	0.46	2
	70	8.91	0.47	2
	71	8.93	0.88	2
	72	8.99	2.31	2
	73	9.04	1.24	2
	74	9.08	1.76	2
	75	9.12	1.64	2
	76	9.19	2.91	2
	77	9.24	0.77	2
	78	9.26	0.45	2
	79	9.28	0.53	2
	80	9.3	0.56	2
	81	9.31	0.3	2
	82	9.32	0.3	2
	83	9.33	0.3	2
	84	9.34	0.31	2
	85	9.35	0.31	2
	86	9.36	0.36	2
	87	9.38	0.39	2
	88	9.39	0.32	2
	89	9.4	0.32	2
	90	9.41	0.32	2
	91	9.44	0.94	2
	92	9.49	1.22	2
	93	9.52	0.76	2
	94	9.55	1.37	2
	95	9.56	0.86	2
	96	9.59	1.3	2
	97	9.63	1.49	2
	98	9.68	1.2	2
	99	9.7	0.57	2
	100	9.72	0.57	2
	101	9.74	0.41	2
	102	9.76	0.46	2
	103	9.78	0.53	2
	104	9.8	0.53	2
	105	9.82	0.73	2
	106	9.85	0.73	2
	107	10.24	0.41	2
	108	10.42	0.56	2
	109	10.59	0.58	2
	110	10.63	0.34	2
	111	10.67	0.34	1.92
	112	10.71	0.6	2
	113	10.76	0.92	2
	114	10.81	0.87	2.2
	115	10.85	0.61	2
	116	10.88	0.7	2
	117	10.93	1.15	2
	118	11.29	2.03	2
	119	11.52	5.5	2
	120	11.74	1.19	2
	121	11.86	0.34	2
	122	12.3	0.38	2
	123	12.46	0.4	2
	124	12.61	0.28	2

