File:              	C:\Qtrac\Data\Daniel M Sørensen\MScan multicentre study\Data from centres\Oslo\Processed data\SZC00429C.QZD
Name:              	NO.OSL.NC.1.2
Protocol:          	MSCAN-R2
Date:              	29/4/20
Start time:        	09:28:03
Age:               	57
Sex:               	F
Temperature:       	31.2
S/R sites:         	ADM
NC/disease:        	NC1
Operator:          	SZ
Comments:          	test 2 *uln test 2
M-SCAN DATA (5-1.6m)
Scanpts: 5, 9, 339, 343
Stim. (mA)     	Amp. (mV)
MS.1           	36             	12.756
MS.2           	36             	12.756
MS.3           	36             	12.691
MS.4           	36             	12.621
MS.5           	36             	12.615
MS.6           	36             	12.562
MS.7           	36             	12.574
MS.8           	36             	12.554
MS.9           	36             	12.502
MS.10          	36             	12.544
MS.11          	36             	12.512
MS.12          	36             	12.405
MS.13          	36             	12.403
MS.14          	36             	12.443
MS.15          	36             	12.47
MS.16          	36             	12.433
MS.17          	36             	12.433
MS.18          	36             	12.407
MS.19          	36             	12.385
MS.20          	36             	12.423
MS.21          	36             	12.45
MS.22          	36             	12.423
MS.23          	35.855         	12.506
MS.24          	35.785         	12.456
MS.25          	35.712         	12.5
MS.26          	35.642         	12.443
MS.27          	35.57          	12.421
MS.28          	35.5           	12.401
MS.29          	35.427         	12.383
MS.30          	35.357         	12.401
MS.31          	35.287         	12.196
MS.32          	35.217         	12.23
MS.33          	35.145         	12.373
MS.34          	35.075         	12.395
MS.35          	35.005         	12.425
MS.36          	34.935         	12.325
MS.37          	34.865         	12.19
MS.38          	34.798         	12.151
MS.39          	34.728         	12.127
MS.40          	34.657         	12.129
MS.41          	34.587         	12.184
MS.42          	34.52          	12.184
MS.43          	34.45          	12.125
MS.44          	34.382         	12.093
MS.45          	34.312         	12.065
MS.46          	34.245         	12.119
MS.47          	34.175         	12.121
MS.48          	34.107         	12.081
MS.49          	34.04          	12.091
MS.50          	33.972         	12.043
MS.51          	33.903         	12.061
MS.52          	33.835         	12.143
MS.53          	33.767         	12.089
MS.54          	33.7           	12.107
MS.55          	33.632         	12.097
MS.56          	33.565         	12.073
MS.57          	33.5           	12.061
MS.58          	33.432         	12.117
MS.59          	33.365         	12.008
MS.60          	33.298         	12.077
MS.61          	33.232         	12.061
MS.62          	33.165         	12.119
MS.63          	33.1           	12.091
MS.64          	33.032         	12.053
MS.65          	32.967         	12.164
MS.66          	32.903         	12.065
MS.67          	32.835         	12.159
MS.68          	32.77          	11.912
MS.69          	32.705         	11.942
MS.70          	32.64          	12.071
MS.71          	32.575         	11.96
MS.72          	32.51          	11.884
MS.73          	32.445         	11.946
MS.74          	32.38          	11.97
MS.75          	32.315         	11.908
MS.76          	32.25          	11.954
MS.77          	32.185         	11.986
MS.78          	32.12          	11.882
MS.79          	32.057         	11.974
MS.80          	31.992         	11.898
MS.81          	31.93          	11.93
MS.82          	31.865         	11.924
MS.83          	31.802         	11.839
MS.84          	31.737         	11.839
MS.85          	31.675         	11.783
MS.86          	31.612         	11.835
MS.87          	31.547         	11.587
MS.88          	31.485         	11.726
MS.89          	31.422         	11.783
MS.90          	31.36          	11.803
MS.91          	31.297         	11.557
MS.92          	31.235         	11.662
MS.93          	31.172         	11.747
MS.94          	31.11          	11.672
MS.95          	31.047         	11.684
MS.96          	30.985         	11.543
MS.97          	30.922         	11.734
MS.98          	30.862         	11.515
MS.99          	30.8           	11.555
MS.100         	30.737         	11.567
MS.101         	30.677         	11.509
MS.102         	30.615         	11.497
MS.103         	30.555         	11.378
MS.104         	30.492         	11.402
MS.105         	30.432         	11.416
MS.106         	30.372         	11.475
MS.107         	30.31          	11.314
MS.108         	30.25          	11.412
MS.109         	30.19          	11.35
MS.110         	30.13          	11.451
MS.111         	30.07          	11.344
MS.112         	30.01          	11.406
MS.113         	29.95          	11.392
MS.114         	29.89          	11.382
MS.115         	29.83          	11.32
MS.116         	29.77          	11.277
MS.117         	29.71          	11.31
MS.118         	29.653         	11.471
MS.119         	29.592         	11.305
MS.120         	29.532         	11.231
MS.121         	29.475         	11.43
MS.122         	29.415         	11.209
MS.123         	29.358         	11.136
MS.124         	29.297         	11.195
MS.125         	29.24          	11.169
MS.126         	29.18          	11.167
MS.127         	29.122         	11.197
MS.128         	29.065         	11.086
MS.129         	29.007         	10.997
MS.130         	28.948         	11.082
MS.131         	28.89          	11.104
MS.132         	28.832         	11.038
MS.133         	28.775         	11.156
MS.134         	28.717         	11.028
MS.135         	28.66          	10.999
MS.136         	28.602         	11.056
MS.137         	28.545         	10.999
MS.138         	28.49          	11.007
MS.139         	28.432         	10.949
MS.140         	28.375         	10.907
MS.141         	28.317         	10.87
MS.142         	28.262         	10.788
MS.143         	28.205         	10.663
MS.144         	28.15          	10.824
MS.145         	28.092         	10.81
MS.146         	28.037         	10.625
MS.147         	27.98          	10.588
MS.148         	27.925         	10.685
MS.149         	27.87          	10.425
MS.150         	27.812         	10.427
MS.151         	27.757         	10.727
MS.152         	27.702         	10.029
MS.153         	27.647         	10.339
MS.154         	27.592         	10.407
MS.155         	27.537         	10.268
MS.156         	27.483         	10.216
MS.157         	27.427         	9.916
MS.158         	27.372         	10.611
MS.159         	27.317         	10.613
MS.160         	27.262         	10.167
MS.161         	27.207         	10.075
MS.162         	27.153         	10.113
MS.163         	27.1           	10.127
MS.164         	27.045         	9.755
MS.165         	26.993         	9.765
MS.166         	26.938         	9.624
MS.167         	26.882         	9.487
MS.168         	26.83          	9.63
MS.169         	26.775         	9.521
MS.170         	26.722         	9.416
MS.171         	26.67          	9.088
MS.172         	26.615         	9.424
MS.173         	26.562         	9.197
MS.174         	26.51          	9.108
MS.175         	26.457         	8.864
MS.176         	26.405         	9.34
MS.177         	26.35          	9.213
MS.178         	26.297         	8.86
MS.179         	26.245         	8.661
MS.180         	26.192         	9.003
MS.181         	26.14          	8.979
MS.182         	26.09          	8.681
MS.183         	26.037         	8.689
MS.184         	25.985         	8.653
MS.185         	25.932         	8.564
MS.186         	25.88          	8.574
MS.187         	25.83          	8.29
MS.188         	25.778         	8.679
MS.189         	25.727         	8.131
MS.190         	25.675         	8.536
MS.191         	25.622         	8.707
MS.192         	25.573         	8.117
MS.193         	25.522         	8.222
MS.194         	25.47          	8.244
MS.195         	25.42          	7.773
MS.196         	25.368         	7.839
MS.197         	25.317         	7.835
MS.198         	25.267         	8.004
MS.199         	25.217         	7.644
MS.200         	25.167         	7.724
MS.201         	25.115         	7.614
MS.202         	25.065         	7.684
MS.203         	25.015         	7.146
MS.204         	24.965         	7.438
MS.205         	24.915         	6.842
MS.206         	24.868         	7.309
MS.207         	24.817         	6.562
MS.208         	24.767         	7.116
MS.209         	24.717         	6.751
MS.210         	24.667         	6.745
MS.211         	24.62          	6.721
MS.212         	24.57          	6.612
MS.213         	24.52          	6.55
MS.214         	24.472         	6.558
MS.215         	24.422         	6.471
MS.216         	24.375         	6.262
MS.217         	24.325         	6.23
MS.218         	24.278         	6.099
MS.219         	24.227         	6.067
MS.220         	24.18          	5.676
MS.221         	24.132         	5.861
MS.222         	24.082         	5.696
MS.223         	24.035         	5.563
MS.224         	23.987         	5.765
MS.225         	23.94          	5.299
MS.226         	23.892         	5.227
MS.227         	23.842         	5.549
MS.228         	23.795         	5.184
MS.229         	23.747         	5.09
MS.230         	23.7           	4.975
MS.231         	23.653         	4.937
MS.232         	23.608         	4.838
MS.233         	23.56          	4.927
MS.234         	23.512         	4.953
MS.235         	23.465         	4.943
MS.236         	23.417         	5.056
MS.237         	23.372         	4.641
MS.238         	23.325         	4.574
MS.239         	23.278         	4.538
MS.240         	23.233         	4.409
MS.241         	23.185         	4.604
MS.242         	23.14          	4.212
MS.243         	23.092         	4.349
MS.244         	23.047         	4.429
MS.245         	23             	4.264
MS.246         	22.955         	4.403
MS.247         	22.907         	4.316
MS.248         	22.862         	4.252
MS.249         	22.817         	4.332
MS.250         	22.772         	4.151
MS.251         	22.725         	4.208
MS.252         	22.68          	4.069
MS.253         	22.635         	3.974
MS.254         	22.59          	4.131
MS.255         	22.545         	4.028
MS.256         	22.5           	4.014
MS.257         	22.455         	4.061
MS.258         	22.41          	3.833
MS.259         	22.365         	3.885
MS.260         	22.32          	3.662
MS.261         	22.275         	3.803
MS.262         	22.233         	3.688
MS.263         	22.188         	3.875
MS.264         	22.142         	3.533
MS.265         	22.097         	3.71
MS.266         	22.055         	3.096
MS.267         	22.01          	3.515
MS.268         	21.967         	3.327
MS.269         	21.922         	3.396
MS.270         	21.877         	3.37
MS.271         	21.835         	3.166
MS.272         	21.792         	3.317
MS.273         	21.747         	2.912
MS.274         	21.705         	2.983
MS.275         	21.66          	2.87
MS.276         	21.618         	2.506
MS.277         	21.575         	2.367
MS.278         	21.532         	2.238
MS.279         	21.487         	2.197
MS.280         	21.445         	2.101
MS.281         	21.403         	2.02
MS.282         	21.36          	2.079
MS.283         	21.317         	1.913
MS.284         	21.275         	1.797
MS.285         	21.233         	1.815
MS.286         	21.19          	1.772
MS.287         	21.147         	1.787
MS.288         	21.105         	1.779
MS.289         	21.062         	1.706
MS.290         	21.02          	1.732
MS.291         	20.98          	1.444
MS.292         	20.938         	1.535
MS.293         	20.895         	1.533
MS.294         	20.852         	1.561
MS.295         	20.812         	1.255
MS.296         	20.77          	1.533
MS.297         	20.727         	1.221
MS.298         	20.688         	1.384
MS.299         	20.645         	1.253
MS.300         	20.605         	1.354
MS.301         	20.562         	1.297
MS.302         	20.522         	1.162
MS.303         	20.483         	1.269
MS.304         	20.44          	1.041
MS.305         	20.4           	1.162
MS.306         	20.36          	1.08
MS.307         	20.317         	1.122
MS.308         	20.278         	1.15
MS.309         	20.237         	0.951
MS.310         	20.198         	1.045
MS.311         	20.157         	1.023
MS.312         	20.115         	0.868
MS.313         	20.075         	0.882
MS.314         	20.035         	0.814
MS.315         	19.995         	0.945
MS.316         	19.955         	0.812
MS.317         	19.915         	0.941
MS.318         	19.875         	0.824
MS.319         	19.837         	0.812
MS.320         	19.797         	0.699
MS.321         	19.757         	0.574
MS.322         	19.717         	0.449
MS.323         	19.677         	0.612
MS.324         	19.64          	0.626
MS.325         	19.6           	0.445
MS.326         	19.56          	0.407
MS.327         	19.522         	0.105
MS.328         	19.483         	0.159
MS.329         	19.442         	0.123
MS.330         	19.405         	0.189
MS.331         	19.365         	0.163
MS.332         	19.327         	0.155
MS.333         	19.288         	0.159
MS.334         	19.25          	0.139
MS.335         	19.212         	0.141
MS.336         	19.172         	0.185
MS.337         	19.135         	0.143
MS.338         	19.097         	0.151
MS.339         	19.057         	0.143
MS.340         	19.02          	0.147
MS.341         	18.983         	0.147
MS.342         	18.945         	0.153
MS.343         	18.907         	0.149
MS.344         	18.87          	0.165
MS.345         	18.83          	0.149
MS.346         	18.792         	0.171
MS.347         	18.755         	0.193
MS.348         	18.717         	0.181
MS.349         	18.68          	0.159
MS.350         	18.645         	0.133
MS.351         	18.608         	0.127
MS.352         	18.57          	0.127
MS.353         	18.532         	0.149
MS.354         	18.495         	0.159
MS.355         	18.458         	0.129
MS.356         	18.422         	0.139
MS.357         	18.385         	0.105
MS.358         	18.347         	0.121
MS.359         	18.31          	0.163
MS.360         	18.275         	0.161
MS.361         	18.237         	0.161
MS.362         	18.202         	0.125
MS.363         	18.165         	0.183
MS.364         	18.13          	0.187
MS.365         	18.092         	0.125
MS.366         	18.057         	0.187
MS.367         	18.02          	0.149
MS.368         	17.985         	0.193
MS.369         	17.948         	0.177
MS.370         	17.913         	0.209
MS.371         	17.878         	0.177
MS.372         	17.842         	0.165
MS.373         	17.805         	0.191
MS.374         	17.77          	0.139
MS.375         	17.735         	0.24
MS.376         	17.7           	0.218
MS.377         	17.665         	0.216
MS.378         	17.628         	0.189
MS.379         	17.592         	0.175
MS.380         	17.557         	0.207
MS.381         	17.522         	0.167
MS.382         	17.487         	0.173
MS.383         	17.452         	0.191
MS.384         	17.417         	0.201
MS.385         	17.382         	0.226
MS.386         	17.347         	0.209
MS.387         	17.315         	0.232
MS.388         	17.28          	0.201
MS.389         	17.245         	0.22
MS.390         	17.21          	0.216
MS.391         	17.175         	0.209
DERIVED EXCITABILITY VARIABLES
Program = QTracP 3/4/2020
Threshold method = 6 (optimised for CAP, using data for present condition only)
SR method = 1 (using actual data values)
6.                 	0.000               	Peak response\(mV)
9.                 	31.2                	Temperature ( C)
17.                	57                  	Age (years)
18.                	2                   	Sex (M=1, F=2)

EXTRA VARIABLES

MScPeak(mV) = 12.32
MScS5(mA) = 19.69
MScS50(mA) = 24.3
MScS95(mA) = 31.23
MScNSteps = 2
MScSteps(%) = 4.3
MScStepMax(%) = 2.2
MScD50 = 45
MScSlope = 5.09
MSFPeakAmp(mV) = 12.4
MSFNUnits = 155
MSFMeanUnitAmp(uV) = 80.1
MSFHuntTime(m) = 2.57
MSFError(%) = 5.39
MSFNLarge = 43.13
MSFMedianAmp(%) = 0.488
MSFMedianAmp(mV) = 0.0605
MSFHalfAmpAmp(%) = 0.774
MSFHalfAmpAmp(mV) = 0.0961
MSFLargestAmp(%) = 2.99
MSFLargestAmp(mV) = 0.371
MSFMeanRS(%) = 2
MSFOpts = 10106121
MScDuration(min) = 3.4
MSFTraces = 339
MSFSizeLimit(uV) = 31
MSFLimitType = 1
MSFSmallestAmp(uV) = 32

EXTRA WAVEFORMS


!MScan Model
!155
	1	19.54	1.94	2
	2	19.64	0.72	2
	3	19.69	0.44	1.8
	4	19.74	0.57	2
	5	19.8	0.74	2
	6	19.87	0.38	2
	7	19.94	0.52	2
	8	20.05	0.87	2
	9	20.14	0.44	2
	10	20.26	0.54	2
	11	20.32	0.35	2
	12	20.42	0.66	2
	13	20.53	0.63	2
	14	20.69	0.88	2
	15	20.77	0.39	2
	16	20.83	0.36	2
	17	20.88	0.51	2
	18	20.94	0.46	2
	19	21	0.48	2
	20	21.06	0.53	2
	21	21.14	0.61	2
	22	21.19	0.4	2
	23	21.24	0.41	2
	24	21.26	0.26	2
	25	21.29	0.27	2
	26	21.31	0.27	2
	27	21.33	0.27	2
	28	21.36	0.27	2
	29	21.39	0.34	2
	30	21.41	0.32	2
	31	21.44	0.32	2
	32	21.46	0.31	2
	33	21.47	0.34	2
	34	21.49	0.34	2
	35	21.5	0.32	2
	36	21.51	0.31	2
	37	21.53	0.31	2
	38	21.54	0.31	2
	39	21.56	0.31	2
	40	21.57	0.39	2
	41	21.6	0.68	2
	42	21.65	0.98	2
	43	21.69	0.84	2
	44	21.74	0.57	2
	45	21.78	0.76	2
	46	21.87	1.48	2
	47	21.97	1.76	2
	48	22.06	0.99	2
	49	22.14	0.58	2
	50	22.22	0.85	2
	51	22.31	0.97	2
	52	22.41	0.85	2
	53	22.48	0.47	2
	54	22.53	0.33	2
	55	22.58	0.42	2
	56	22.63	0.36	2
	57	22.69	0.39	2
	58	22.82	0.52	2
	59	22.93	0.61	2
	60	23.04	0.63	2
	61	23.14	0.8	2
	62	23.21	0.5	2
	63	23.28	0.39	2
	64	23.35	0.73	2
	65	23.44	0.91	2
	66	23.54	1.09	2
	67	23.62	0.71	2
	68	23.65	0.28	2
	69	23.68	0.28	2
	70	23.74	0.45	2
	71	23.77	0.39	2
	72	23.8	0.44	2
	73	23.83	0.44	2
	74	23.86	0.44	2
	75	23.9	0.44	2
	76	23.93	0.44	2
	77	23.96	0.45	2
	78	23.99	0.46	2
	79	24.02	0.45	2
	80	24.05	0.45	2
	81	24.08	0.45	2
	82	24.1	0.29	2
	83	24.13	0.41	2
	84	24.15	0.27	2
	85	24.16	0.27	2
	86	24.19	0.4	2
	87	24.21	0.26	2
	88	24.23	0.26	2
	89	24.26	0.46	2
	90	24.28	0.3	2
	91	24.29	0.3	2
	92	24.32	0.46	2
	93	24.37	0.72	2
	94	24.42	0.9	2
	95	24.48	0.77	2
	96	24.53	0.69	2
	97	24.59	0.75	2
	98	24.66	0.9	2
	99	24.74	0.87	2
	100	24.81	1.03	2
	101	24.88	1.04	2
	102	24.95	0.95	2
	103	25.03	1.06	2
	104	25.1	1.06	2
	105	25.16	1.02	2
	106	25.23	0.96	2
	107	25.3	0.93	2
	108	25.44	1.77	2
	109	25.61	1.58	2
	110	25.83	2.06	2
	111	25.93	0.72	2
	112	26.03	0.81	2
	113	26.17	1.35	2
	114	26.37	1.17	2
	115	26.5	1.08	2
	116	26.62	1.28	2
	117	26.69	0.53	2
	118	26.73	0.27	2
	119	26.76	0.27	2
	120	26.79	0.35	2
	121	26.83	0.43	2
	122	26.86	0.41	2
	123	26.89	0.41	2
	124	26.93	0.41	2
	125	27.04	1.36	2
	126	27.19	1.37	2
	127	27.74	2.99	2
	128	27.88	1.1	2
	129	28.02	0.77	2
	130	28.07	0.35	2
	131	28.11	0.27	2
	132	28.15	0.27	2
	133	28.23	0.45	2
	134	28.31	0.41	2
	135	28.4	0.49	2
	136	28.5	0.41	2
	137	28.59	0.31	2
	138	28.81	0.57	2
	139	29.15	0.65	2
	140	29.43	0.85	2
	141	30	0.91	2
	142	30.31	0.41	2
	143	30.56	0.37	2
	144	30.66	0.35	2
	145	30.9	0.76	2
	146	31.37	0.96	2
	147	31.54	0.35	2
	148	31.71	0.51	2
	149	31.87	0.29	2
	150	32.44	0.89	2
	151	32.85	0.55	2
	152	34.81	0.65	2
	153	35.17	1.08	2
	154	35.34	1.33	2
	155	36.59	0.65	2

