File:              	C:\Qtrac\Data\Daniel M Sørensen\MScan multicentre study\Data from centres\Oslo\Processed data\SZC00515A.QZD
Name:              	NO.OSL.NC.8.2
Protocol:          	MSCAN-R2
Date:              	15/5/20
Start time:        	11:49:06
Age:               	68
Sex:               	F
Temperature:       	33.8
S/R sites:         	APB
NC/disease:        	NC8
Operator:          	SZ
Comments:          	Test2
M-SCAN DATA (10.1-3.3m)
Scanpts: 135, 145, 709, 730
Stim. (mA)     	Amp. (mV)
MS.1           	21.5           	10.119
MS.2           	21.5           	10.127
MS.3           	21.5           	10.131
MS.4           	21.5           	10.095
MS.5           	21.5           	10.117
MS.6           	21.5           	10.121
MS.7           	21.5           	10.121
MS.8           	21.5           	10.115
MS.9           	21.5           	10.119
MS.10          	21.5           	10.119
MS.11          	21.5           	10.113
MS.12          	21.5           	10.123
MS.13          	21.5           	10.127
MS.14          	21.5           	10.127
MS.15          	21.5           	10.145
MS.16          	21.5           	10.145
MS.17          	21.5           	10.151
MS.18          	21.5           	10.155
MS.19          	21.5           	10.161
MS.20          	21.5           	10.155
MS.21          	21.5           	10.163
MS.22          	21.5           	10.167
MS.23          	21.5           	10.186
MS.24          	21.372         	10.155
MS.25          	21.327         	10.161
MS.26          	21.285         	10.18
MS.27          	21.243         	10.178
MS.28          	21.2           	10.178
MS.29          	21.157         	10.186
MS.30          	21.118         	10.157
MS.31          	21.075         	10.172
MS.32          	21.032         	10.165
MS.33          	20.99          	10.169
MS.34          	20.948         	10.176
MS.35          	20.907         	10.176
MS.36          	20.865         	10.182
MS.37          	20.823         	10.178
MS.38          	20.78          	10.18
MS.39          	20.74          	10.174
MS.40          	20.698         	10.184
MS.41          	20.657         	10.186
MS.42          	20.615         	10.192
MS.43          	20.575         	10.188
MS.44          	20.532         	10.188
MS.45          	20.493         	10.192
MS.46          	20.452         	10.208
MS.47          	20.41          	10.192
MS.48          	20.37          	10.204
MS.49          	20.33          	10.218
MS.50          	20.288         	10.206
MS.51          	20.247         	10.212
MS.52          	20.208         	10.214
MS.53          	20.167         	10.212
MS.54          	20.127         	10.212
MS.55          	20.087         	10.216
MS.56          	20.047         	10.214
MS.57          	20.007         	10.206
MS.58          	19.967         	10.222
MS.59          	19.927         	10.216
MS.60          	19.887         	10.222
MS.61          	19.847         	10.228
MS.62          	19.807         	10.228
MS.63          	19.767         	10.238
MS.64          	19.727         	10.226
MS.65          	19.69          	10.228
MS.66          	19.65          	10.224
MS.67          	19.61          	10.242
MS.68          	19.57          	10.248
MS.69          	19.532         	10.232
MS.70          	19.493         	10.226
MS.71          	19.455         	10.248
MS.72          	19.415         	10.244
MS.73          	19.377         	10.248
MS.74          	19.337         	10.24
MS.75          	19.3           	10.238
MS.76          	19.26          	10.256
MS.77          	19.222         	10.256
MS.78          	19.182         	10.266
MS.79          	19.145         	10.262
MS.80          	19.108         	10.256
MS.81          	19.067         	10.26
MS.82          	19.03          	10.26
MS.83          	18.993         	10.264
MS.84          	18.955         	10.26
MS.85          	18.917         	10.266
MS.86          	18.88          	10.268
MS.87          	18.842         	10.262
MS.88          	18.802         	10.264
MS.89          	18.765         	10.272
MS.90          	18.727         	10.264
MS.91          	18.69          	10.26
MS.92          	18.655         	10.26
MS.93          	18.618         	10.268
MS.94          	18.58          	10.266
MS.95          	18.542         	10.272
MS.96          	18.505         	10.264
MS.97          	18.467         	10.27
MS.98          	18.432         	10.266
MS.99          	18.395         	10.27
MS.100         	18.358         	10.274
MS.101         	18.32          	10.276
MS.102         	18.285         	10.276
MS.103         	18.247         	10.268
MS.104         	18.212         	10.26
MS.105         	18.175         	10.282
MS.106         	18.137         	10.262
MS.107         	18.102         	10.284
MS.108         	18.067         	10.278
MS.109         	18.03          	10.274
MS.110         	17.995         	10.27
MS.111         	17.958         	10.276
MS.112         	17.922         	10.27
MS.113         	17.887         	10.282
MS.114         	17.85          	10.27
MS.115         	17.815         	10.28
MS.116         	17.78          	10.274
MS.117         	17.745         	10.29
MS.118         	17.708         	10.294
MS.119         	17.672         	10.286
MS.120         	17.637         	10.276
MS.121         	17.602         	10.27
MS.122         	17.567         	10.272
MS.123         	17.532         	10.286
MS.124         	17.497         	10.278
MS.125         	17.462         	10.278
MS.126         	17.427         	10.28
MS.127         	17.392         	10.278
MS.128         	17.358         	10.278
MS.129         	17.323         	10.282
MS.130         	17.288         	10.274
MS.131         	17.255         	10.268
MS.132         	17.22          	10.278
MS.133         	17.185         	10.272
MS.134         	17.15          	10.264
MS.135         	17.118         	10.272
MS.136         	17.083         	10.276
MS.137         	17.047         	10.262
MS.138         	17.015         	10.266
MS.139         	16.98          	10.27
MS.140         	16.948         	10.284
MS.141         	16.913         	10.28
MS.142         	16.878         	10.278
MS.143         	16.845         	10.27
MS.144         	16.812         	10.28
MS.145         	16.778         	10.274
MS.146         	16.745         	10.274
MS.147         	16.71          	10.27
MS.148         	16.677         	10.272
MS.149         	16.645         	10.274
MS.150         	16.61          	10.276
MS.151         	16.577         	10.268
MS.152         	16.545         	10.276
MS.153         	16.512         	10.268
MS.154         	16.477         	10.276
MS.155         	16.445         	10.278
MS.156         	16.413         	10.276
MS.157         	16.38          	10.272
MS.158         	16.347         	10.27
MS.159         	16.315         	10.266
MS.160         	16.282         	10.264
MS.161         	16.25          	10.27
MS.162         	16.217         	10.308
MS.163         	16.185         	10.29
MS.164         	16.153         	10.262
MS.165         	16.12          	10.27
MS.166         	16.087         	10.27
MS.167         	16.055         	10.278
MS.168         	16.022         	10.27
MS.169         	15.992         	10.282
MS.170         	15.96          	10.284
MS.171         	15.927         	10.29
MS.172         	15.895         	10.286
MS.173         	15.865         	10.284
MS.174         	15.832         	10.081
MS.175         	15.8           	10.075
MS.176         	15.77          	10.262
MS.177         	15.737         	10.274
MS.178         	15.705         	10.288
MS.179         	15.675         	10.274
MS.180         	15.642         	10.268
MS.181         	15.612         	10.276
MS.182         	15.58          	10.268
MS.183         	15.55          	10.262
MS.184         	15.52          	10.268
MS.185         	15.487         	10.238
MS.186         	15.457         	10.085
MS.187         	15.425         	10.222
MS.188         	15.395         	10.272
MS.189         	15.365         	10.081
MS.190         	15.332         	10.234
MS.191         	15.302         	10.077
MS.192         	15.273         	10.079
MS.193         	15.242         	10.246
MS.194         	15.212         	10.083
MS.195         	15.18          	10.264
MS.196         	15.15          	10.252
MS.197         	15.12          	10.085
MS.198         	15.09          	10.256
MS.199         	15.06          	10.097
MS.200         	15.03          	10.085
MS.201         	15             	10.248
MS.202         	14.97          	10.18
MS.203         	14.94          	10.085
MS.204         	14.91          	10.073
MS.205         	14.88          	10.089
MS.206         	14.85          	10.089
MS.207         	14.82          	10.085
MS.208         	14.792         	10.079
MS.209         	14.762         	10.079
MS.210         	14.733         	10.071
MS.211         	14.702         	10.067
MS.212         	14.672         	10.077
MS.213         	14.645         	10.073
MS.214         	14.615         	10.083
MS.215         	14.585         	10.077
MS.216         	14.557         	10.079
MS.217         	14.527         	10.083
MS.218         	14.497         	10.087
MS.219         	14.47          	10.085
MS.220         	14.44          	10.087
MS.221         	14.412         	10.079
MS.222         	14.382         	10.075
MS.223         	14.355         	10.091
MS.224         	14.325         	10.073
MS.225         	14.297         	10.085
MS.226         	14.267         	10.069
MS.227         	14.24          	10.087
MS.228         	14.212         	10.091
MS.229         	14.182         	10.065
MS.230         	14.155         	10.077
MS.231         	14.127         	10.067
MS.232         	14.097         	10.071
MS.233         	14.07          	10.073
MS.234         	14.042         	9.894
MS.235         	14.015         	10.055
MS.236         	13.985         	10.073
MS.237         	13.957         	10.065
MS.238         	13.93          	9.99
MS.239         	13.903         	10.071
MS.240         	13.875         	10.051
MS.241         	13.847         	10.065
MS.242         	13.82          	10.065
MS.243         	13.792         	10.029
MS.244         	13.765         	9.892
MS.245         	13.737         	10.071
MS.246         	13.71          	10.037
MS.247         	13.682         	10.067
MS.248         	13.655         	9.898
MS.249         	13.627         	10.033
MS.250         	13.6           	10.069
MS.251         	13.572         	10.057
MS.252         	13.545         	10.031
MS.253         	13.517         	9.857
MS.254         	13.492         	9.892
MS.255         	13.465         	9.89
MS.256         	13.438         	9.89
MS.257         	13.41          	9.859
MS.258         	13.385         	10.016
MS.259         	13.358         	10.033
MS.260         	13.33          	9.863
MS.261         	13.305         	10.008
MS.262         	13.278         	9.847
MS.263         	13.25          	9.656
MS.264         	13.225         	9.857
MS.265         	13.197         	10.069
MS.266         	13.172         	9.859
MS.267         	13.145         	9.849
MS.268         	13.12          	9.865
MS.269         	13.092         	9.847
MS.270         	13.068         	9.841
MS.271         	13.04          	9.841
MS.272         	13.015         	9.857
MS.273         	12.987         	9.66
MS.274         	12.962         	9.847
MS.275         	12.938         	9.821
MS.276         	12.91          	9.656
MS.277         	12.885         	9.664
MS.278         	12.86          	9.823
MS.279         	12.832         	9.66
MS.280         	12.807         	9.66
MS.281         	12.782         	9.662
MS.282         	12.757         	9.664
MS.283         	12.73          	9.656
MS.284         	12.705         	9.648
MS.285         	12.68          	9.66
MS.286         	12.655         	9.654
MS.287         	12.63          	9.656
MS.288         	12.605         	9.664
MS.289         	12.58          	9.656
MS.290         	12.555         	9.654
MS.291         	12.53          	9.656
MS.292         	12.505         	9.67
MS.293         	12.48          	9.676
MS.294         	12.455         	9.662
MS.295         	12.43          	9.618
MS.296         	12.405         	9.614
MS.297         	12.38          	9.535
MS.298         	12.355         	9.632
MS.299         	12.33          	9.436
MS.300         	12.305         	9.68
MS.301         	12.28          	9.545
MS.302         	12.257         	9.477
MS.303         	12.233         	9.463
MS.304         	12.207         	9.67
MS.305         	12.182         	9.656
MS.306         	12.157         	9.364
MS.307         	12.135         	9.336
MS.308         	12.11          	9.207
MS.309         	12.085         	9.259
MS.310         	12.062         	9.205
MS.311         	12.037         	9.215
MS.312         	12.012         	9.348
MS.313         	11.99          	9.402
MS.314         	11.965         	9.201
MS.315         	11.943         	9.205
MS.316         	11.917         	9.483
MS.317         	11.895         	9.197
MS.318         	11.87          	9.366
MS.319         	11.847         	9.205
MS.320         	11.822         	9.179
MS.321         	11.8           	9.213
MS.322         	11.775         	9.185
MS.323         	11.752         	9.179
MS.324         	11.73          	9.138
MS.325         	11.705         	9.116
MS.326         	11.682         	9.193
MS.327         	11.657         	9.128
MS.328         	11.635         	9.114
MS.329         	11.613         	9.313
MS.330         	11.59          	9.102
MS.331         	11.565         	9.122
MS.332         	11.542         	8.977
MS.333         	11.52          	8.909
MS.334         	11.497         	9.267
MS.335         	11.472         	8.834
MS.336         	11.45          	9.074
MS.337         	11.427         	8.858
MS.338         	11.405         	8.971
MS.339         	11.382         	8.602
MS.340         	11.36          	8.629
MS.341         	11.337         	8.558
MS.342         	11.315         	8.85
MS.343         	11.292         	8.536
MS.344         	11.27          	8.625
MS.345         	11.247         	8.542
MS.346         	11.225         	8.544
MS.347         	11.202         	8.349
MS.348         	11.18          	8.206
MS.349         	11.157         	8.379
MS.350         	11.135         	8.29
MS.351         	11.113         	8.296
MS.352         	11.09          	8.393
MS.353         	11.068         	8.202
MS.354         	11.045         	8.012
MS.355         	11.023         	8.004
MS.356         	11.002         	8.02
MS.357         	10.98          	7.734
MS.358         	10.957         	7.742
MS.359         	10.935         	7.775
MS.360         	10.915         	7.775
MS.361         	10.892         	7.922
MS.362         	10.87          	7.354
MS.363         	10.847         	7.112
MS.364         	10.827         	7.696
MS.365         	10.805         	7.293
MS.366         	10.785         	7.466
MS.367         	10.762         	7.513
MS.368         	10.74          	7.464
MS.369         	10.72          	7.293
MS.370         	10.698         	7.291
MS.371         	10.677         	7.517
MS.372         	10.655         	7.11
MS.373         	10.635         	6.943
MS.374         	10.613         	7.132
MS.375         	10.592         	7.068
MS.376         	10.57          	6.864
MS.377         	10.55          	6.991
MS.378         	10.528         	6.663
MS.379         	10.507         	6.965
MS.380         	10.485         	6.745
MS.381         	10.465         	6.903
MS.382         	10.445         	6.88
MS.383         	10.422         	6.687
MS.384         	10.403         	6.808
MS.385         	10.382         	6.816
MS.386         	10.36          	6.872
MS.387         	10.34          	7.08
MS.388         	10.32          	6.645
MS.389         	10.3           	6.653
MS.390         	10.278         	6.693
MS.391         	10.257         	6.691
MS.392         	10.238         	6.731
MS.393         	10.217         	6.659
MS.394         	10.198         	6.552
MS.395         	10.175         	6.598
MS.396         	10.155         	5.914
MS.397         	10.135         	6.463
MS.398         	10.115         	6.038
MS.399         	10.095         	6.296
MS.400         	10.075         	6.443
MS.401         	10.055         	6.055
MS.402         	10.035         	5.744
MS.403         	10.015         	5.813
MS.404         	9.995          	5.93
MS.405         	9.975          	5.833
MS.406         	9.955          	6.153
MS.407         	9.935          	6.137
MS.408         	9.915          	5.615
MS.409         	9.895          	5.688
MS.410         	9.875          	5.926
MS.411         	9.855          	6.034
MS.412         	9.835          	5.813
MS.413         	9.818          	5.744
MS.414         	9.797          	5.547
MS.415         	9.778          	5.549
MS.416         	9.757          	5.758
MS.417         	9.738          	5.432
MS.418         	9.717          	5.537
MS.419         	9.7            	5.442
MS.420         	9.68           	5.402
MS.421         	9.66           	5.342
MS.422         	9.64           	5.491
MS.423         	9.622          	5.245
MS.424         	9.602          	5.201
MS.425         	9.582          	5.315
MS.426         	9.565          	5.499
MS.427         	9.545          	5.517
MS.428         	9.525          	5.273
MS.429         	9.507          	5.362
MS.430         	9.488          	5.219
MS.431         	9.47           	5.259
MS.432         	9.45           	5.09
MS.433         	9.432          	5.092
MS.434         	9.412          	5.082
MS.435         	9.395          	5.289
MS.436         	9.375          	5.003
MS.437         	9.358          	5.074
MS.438         	9.337          	4.892
MS.439         	9.32           	4.792
MS.440         	9.3            	5.064
MS.441         	9.283          	4.584
MS.442         	9.262          	4.902
MS.443         	9.245          	4.836
MS.444         	9.225          	4.608
MS.445         	9.207          	4.371
MS.446         	9.19           	4.459
MS.447         	9.17           	4.631
MS.448         	9.153          	4.506
MS.449         	9.135          	4.5
MS.450         	9.115          	4.195
MS.451         	9.097          	4.246
MS.452         	9.08           	4.069
MS.453         	9.062          	4.141
MS.454         	9.042          	4.32
MS.455         	9.025          	4.312
MS.456         	9.007          	4.26
MS.457         	8.99           	3.976
MS.458         	8.972          	4.117
MS.459         	8.952          	4.097
MS.460         	8.935          	3.944
MS.461         	8.917          	4.03
MS.462         	8.9            	3.607
MS.463         	8.882          	3.893
MS.464         	8.865          	3.539
MS.465         	8.847          	3.789
MS.466         	8.83           	3.609
MS.467         	8.812          	3.468
MS.468         	8.795          	3.523
MS.469         	8.775          	3.261
MS.470         	8.757          	3.003
MS.471         	8.74           	3.132
MS.472         	8.722          	2.975
MS.473         	8.707          	2.874
MS.474         	8.69           	3.219
MS.475         	8.672          	3.198
MS.476         	8.655          	2.725
MS.477         	8.637          	3.327
MS.478         	8.62           	3.428
MS.479         	8.602          	2.61
MS.480         	8.585          	3.182
MS.481         	8.568          	3.247
MS.482         	8.55           	2.572
MS.483         	8.535          	2.91
MS.484         	8.517          	2.635
MS.485         	8.5            	2.727
MS.486         	8.483          	2.608
MS.487         	8.465          	2.796
MS.488         	8.45           	1.984
MS.489         	8.432          	2.379
MS.490         	8.415          	2.524
MS.491         	8.398          	2.145
MS.492         	8.382          	2.119
MS.493         	8.365          	2.361
MS.494         	8.347          	2.151
MS.495         	8.332          	2.175
MS.496         	8.315          	2.109
MS.497         	8.297          	2.073
MS.498         	8.283          	1.976
MS.499         	8.265          	2.093
MS.500         	8.247          	2.167
MS.501         	8.233          	1.843
MS.502         	8.215          	2.052
MS.503         	8.2            	1.883
MS.504         	8.182          	1.93
MS.505         	8.167          	2.133
MS.506         	8.15           	1.845
MS.507         	8.135          	1.978
MS.508         	8.117          	1.926
MS.509         	8.102          	1.845
MS.510         	8.085          	1.845
MS.511         	8.07           	1.706
MS.512         	8.052          	1.704
MS.513         	8.037          	1.803
MS.514         	8.02           	1.617
MS.515         	8.005          	1.617
MS.516         	7.99           	1.781
MS.517         	7.972          	1.561
MS.518         	7.957          	1.629
MS.519         	7.94           	1.563
MS.520         	7.925          	1.633
MS.521         	7.91           	1.581
MS.522         	7.892          	1.605
MS.523         	7.878          	1.547
MS.524         	7.862          	1.486
MS.525         	7.847          	1.553
MS.526         	7.83           	1.438
MS.527         	7.815          	1.428
MS.528         	7.8            	1.41
MS.529         	7.785          	1.376
MS.530         	7.767          	1.319
MS.531         	7.753          	1.2
MS.532         	7.737          	1.14
MS.533         	7.722          	1.398
MS.534         	7.707          	1.164
MS.535         	7.69           	1.211
MS.536         	7.675          	1.14
MS.537         	7.66           	1.263
MS.538         	7.645          	1.204
MS.539         	7.63           	1.112
MS.540         	7.615          	1.094
MS.541         	7.6            	1.206
MS.542         	7.585          	1.094
MS.543         	7.57           	1.013
MS.544         	7.555          	1.104
MS.545         	7.537          	0.759
MS.546         	7.523          	0.779
MS.547         	7.507          	1.078
MS.548         	7.492          	0.916
MS.549         	7.477          	0.997
MS.550         	7.462          	0.894
MS.551         	7.45           	0.643
MS.552         	7.435          	0.916
MS.553         	7.42           	0.522
MS.554         	7.405          	0.872
MS.555         	7.39           	0.572
MS.556         	7.375          	0.57
MS.557         	7.36           	0.536
MS.558         	7.345          	0.608
MS.559         	7.33           	0.512
MS.560         	7.315          	0.59
MS.561         	7.302          	0.487
MS.562         	7.287          	0.562
MS.563         	7.273          	0.522
MS.564         	7.257          	0.526
MS.565         	7.242          	0.606
MS.566         	7.227          	0.683
MS.567         	7.215          	0.489
MS.568         	7.2            	0.421
MS.569         	7.185          	0.493
MS.570         	7.17           	0.429
MS.571         	7.157          	0.419
MS.572         	7.142          	0.409
MS.573         	7.128          	0.425
MS.574         	7.115          	0.423
MS.575         	7.1            	0.427
MS.576         	7.085          	0.465
MS.577         	7.072          	0.455
MS.578         	7.057          	0.423
MS.579         	7.043          	0.413
MS.580         	7.03           	0.34
MS.581         	7.015          	0.379
MS.582         	7              	0.23
MS.583         	6.987          	0.421
MS.584         	6.972          	0.361
MS.585         	6.96           	0.377
MS.586         	6.945          	0.348
MS.587         	6.932          	0.31
MS.588         	6.918          	0.3
MS.589         	6.902          	0.338
MS.590         	6.89           	0.338
MS.591         	6.875          	0.326
MS.592         	6.862          	0.369
MS.593         	6.847          	0.336
MS.594         	6.835          	0.203
MS.595         	6.822          	0.298
MS.596         	6.807          	0.296
MS.597         	6.795          	0.302
MS.598         	6.78           	0.286
MS.599         	6.767          	0.218
MS.600         	6.753          	0.224
MS.601         	6.74           	0.288
MS.602         	6.727          	0.205
MS.603         	6.712          	0.264
MS.604         	6.7            	0.228
MS.605         	6.685          	0.224
MS.606         	6.672          	0.224
MS.607         	6.66           	0.22
MS.608         	6.645          	0.27
MS.609         	6.632          	0.222
MS.610         	6.62           	0.135
MS.611         	6.608          	0.214
MS.612         	6.592          	0.133
MS.613         	6.58           	0.203
MS.614         	6.567          	0.214
MS.615         	6.555          	0.197
MS.616         	6.54           	0.125
MS.617         	6.527          	0.197
MS.618         	6.515          	0.197
MS.619         	6.503          	0.232
MS.620         	6.487          	0.201
MS.621         	6.475          	0.201
MS.622         	6.462          	0.195
MS.623         	6.45           	0.201
MS.624         	6.438          	0.127
MS.625         	6.425          	0.127
MS.626         	6.41           	0.119
MS.627         	6.398          	0.123
MS.628         	6.385          	0.097
MS.629         	6.372          	0.129
MS.630         	6.36           	0.093
MS.631         	6.347          	0.123
MS.632         	6.335          	0.135
MS.633         	6.322          	0.137
MS.634         	6.31           	0.103
MS.635         	6.297          	0.123
MS.636         	6.285          	0.218
MS.637         	6.273          	0.101
MS.638         	6.26           	0.105
MS.639         	6.247          	0.111
MS.640         	6.235          	0.183
MS.641         	6.222          	0.099
MS.642         	6.21           	0.105
MS.643         	6.197          	0.111
MS.644         	6.185          	0.111
MS.645         	6.172          	0.107
MS.646         	6.16           	0.095
MS.647         	6.148          	0.107
MS.648         	6.135          	0.111
MS.649         	6.122          	0.113
MS.650         	6.11           	0.109
MS.651         	6.097          	0.105
MS.652         	6.088          	0.105
MS.653         	6.075          	0.111
MS.654         	6.062          	0.111
MS.655         	6.05           	0.109
MS.656         	6.037          	0.101
MS.657         	6.025          	0.109
MS.658         	6.015          	0.111
MS.659         	6.003          	0.105
MS.660         	5.99           	0.109
MS.661         	5.977          	0.111
MS.662         	5.965          	0.105
MS.663         	5.955          	0.109
MS.664         	5.942          	0.107
MS.665         	5.93           	0.105
MS.666         	5.918          	0.107
MS.667         	5.907          	0.113
MS.668         	5.895          	0.107
MS.669         	5.882          	0.105
MS.670         	5.87           	0.103
MS.671         	5.86           	0.109
MS.672         	5.847          	0.113
MS.673         	5.835          	0.107
MS.674         	5.825          	0.107
MS.675         	5.812          	0.113
MS.676         	5.8            	0.105
MS.677         	5.79           	0.109
MS.678         	5.777          	0.107
MS.679         	5.767          	0.113
MS.680         	5.755          	0.109
MS.681         	5.742          	0.109
MS.682         	5.733          	0.109
MS.683         	5.72           	0.107
MS.684         	5.71           	0.107
MS.685         	5.697          	0.109
MS.686         	5.685          	0.066
MS.687         	5.675          	0.111
MS.688         	5.662          	0.109
MS.689         	5.652          	0.111
MS.690         	5.64           	0.101
MS.691         	5.63           	0.111
MS.692         	5.617          	0.101
MS.693         	5.608          	0.105
MS.694         	5.595          	0.111
MS.695         	5.585          	0.107
MS.696         	5.572          	0.111
MS.697         	5.562          	0.07
MS.698         	5.552          	0.111
MS.699         	5.54           	0.105
MS.700         	5.53           	0.07
MS.701         	5.517          	0.068
MS.702         	5.507          	0.113
MS.703         	5.495          	0.109
MS.704         	5.485          	0.075
MS.705         	5.475          	0.068
MS.706         	5.463          	0.07
MS.707         	5.452          	0.07
MS.708         	5.443          	0.068
MS.709         	5.43           	0.064
MS.710         	5.42           	0.068
MS.711         	5.41           	0.066
MS.712         	5.398          	0.066
MS.713         	5.387          	0.064
MS.714         	5.378          	0.064
MS.715         	5.365          	0.073
MS.716         	5.355          	0.073
MS.717         	5.345          	0.068
MS.718         	5.332          	0.068
MS.719         	5.322          	0.068
MS.720         	5.312          	0.068
MS.721         	5.302          	0.06
MS.722         	5.29           	0.07
MS.723         	5.28           	0.068
MS.724         	5.27           	0.064
MS.725         	5.26           	0.073
MS.726         	5.25           	0.07
MS.727         	5.237          	0.068
MS.728         	5.227          	0.064
MS.729         	5.217          	0.075
MS.730         	5.207          	0.068
DERIVED EXCITABILITY VARIABLES
Program = QTracP 3/4/2020
Threshold method = 6 (optimised for CAP, using data for present condition only)
SR method = 1 (using actual data values)
6.                 	0.000               	Peak response\(mV)
9.                 	33.8                	Temperature ( C)
17.                	68                  	Age (years)
18.                	2                   	Sex (M=1, F=2)

EXTRA VARIABLES

MScPeak(mV) = 10.06
MScS5(mA) = 7.27
MScS50(mA) = 9.34
MScS95(mA) = 12.3
MScNSteps = 1
MScSteps(%) = 2
MScStepMax(%) = 2
MScD50 = 50
MScSlope = 3.87
MSFPeakAmp(mV) = 10.2
MSFNUnits = 116
MSFMeanUnitAmp(uV) = 88
MSFHuntTime(m) = 3.52
MSFError(%) = 3.07
MSFNLarge = 30.95
MSFMedianAmp(%) = 0.709
MSFMedianAmp(mV) = 0.0724
MSFHalfAmpAmp(%) = 1.01
MSFHalfAmpAmp(mV) = 0.103
MSFLargestAmp(%) = 3.5
MSFLargestAmp(mV) = 0.357
MSFMeanRS(%) = 2
MSFOpts = 10106121
MScDuration(min) = 6.8
MSFTraces = 596
MSFSizeLimit(uV) = 25.5
MSFLimitType = 1
MSFSmallestAmp(uV) = 28.3

EXTRA WAVEFORMS


!MScan Model
!116
	1	5.54	0.33	2
	2	6.52	0.9	2
	3	6.68	0.32	2
	4	6.78	0.43	2
	5	6.85	0.35	2
	6	6.93	0.48	2
	7	7.04	0.46	2
	8	7.13	0.37	2
	9	7.23	0.75	2
	10	7.38	1.4	2
	11	7.44	1.02	2
	12	7.5	1.42	2
	13	7.55	0.98	2
	14	7.58	0.43	2
	15	7.61	0.47	2
	16	7.69	1.38	2
	17	7.73	0.43	2
	18	7.76	0.57	2
	19	7.79	0.51	2
	20	7.82	0.55	2
	21	7.86	0.71	2
	22	7.91	0.72	2
	23	7.95	0.34	2
	24	7.98	0.45	2
	25	8.01	0.39	2
	26	8.04	0.38	2
	27	8.07	0.57	2
	28	8.1	0.71	2
	29	8.17	0.79	2
	30	8.25	0.93	2
	31	8.29	0.41	2
	32	8.32	0.65	2
	33	8.37	0.89	2
	34	8.41	1.2	2
	35	8.47	1.59	2
	36	8.54	2.64	2
	37	8.73	3.5	2
	38	8.75	0.86	2
	39	8.76	0.55	2
	40	8.77	0.41	2
	41	8.79	0.41	2
	42	8.8	0.4	2
	43	8.81	0.33	2
	44	8.82	0.39	2
	45	8.83	0.47	2
	46	8.84	0.47	2
	47	8.85	0.5	2
	48	8.87	0.78	2
	49	8.88	0.78	2
	50	8.9	0.68	2
	51	8.92	0.59	2
	52	8.94	0.61	2
	53	9.01	1.92	2
	54	9.09	1.58	2
	55	9.14	0.74	2
	56	9.17	0.77	2
	57	9.2	0.9	2
	58	9.22	0.75	2
	59	9.25	0.67	2
	60	9.27	0.43	2
	61	9.29	0.75	2
	62	9.32	0.89	2
	63	9.35	0.62	2
	64	9.38	0.6	2
	65	9.43	1.22	2
	66	9.58	1.96	2
	67	9.66	0.72	2
	68	9.7	0.46	2
	69	9.73	0.46	2
	70	9.75	0.62	2
	71	9.79	0.88	2
	72	9.95	2.7	2
	73	10.05	1.33	2
	74	10.11	1.55	2
	75	10.17	1.89	2.1
	76	10.23	1.1	2
	77	10.31	1.12	2
	78	10.31	0.74	2
	79	10.47	1.11	2
	80	10.51	0.43	2
	81	10.55	0.38	2
	82	10.58	0.77	2
	83	10.61	0.66	2
	84	10.64	0.6	2
	85	10.67	0.6	2
	86	10.7	0.68	2
	87	10.82	2.43	2
	88	10.87	0.44	2
	89	10.92	1.22	2
	90	10.94	0.56	2
	91	10.96	0.59	2
	92	10.98	1.17	2
	93	11	0.56	2
	94	11.02	0.54	2
	95	11.04	0.46	2
	96	11.06	0.46	2
	97	11.08	0.42	2
	98	11.09	0.38	2
	99	11.11	0.38	2
	100	11.13	0.38	2
	101	11.17	0.82	2
	102	11.22	0.77	2
	103	11.26	0.74	2
	104	11.3	1.01	2
	105	11.35	1.1	2
	106	11.39	0.97	2
	107	11.47	1.99	2
	108	11.8	1.42	2
	109	12.09	1.66	2
	110	12.17	1.12	2
	111	12.4	1.17	1.6
	112	12.85	0.28	2
	113	12.93	0.78	2
	114	13	0.83	2
	115	13.44	1.99	2
	116	15.26	2.12	2

