File:              	C:\Qtrac\Data\Daniel M Sørensen\MScan multicentre study\Data from centres\Oslo\IronKey\Oslo_NC_first examination\SZC00706A.QZD
Name:              	NO.OSL.NC.24.1
Protocol:          	MSCAN-R2
Date:              	6/7/20
Start time:        	15:25:10
Age:               	24
Sex:               	M
Temperature:       	30.2
S/R sites:         	Median Wr-APB
NC/disease:        	NC24
Operator:          	SZ
Comments:          	Test1
M-SCAN DATA (7-3.9m)
Scanpts: 80, 84, 333, 339
Stim. (mA)     	Amp. (mV)
MS.1           	9.5            	15.233
MS.2           	9.5            	15.229
MS.3           	9.5            	15.263
MS.4           	9.5            	15.187
MS.5           	9.5            	15.173
MS.6           	9.5            	15.203
MS.7           	9.5            	15.221
MS.8           	9.5            	15.163
MS.9           	9.5            	15.217
MS.10          	9.5            	15.237
MS.11          	9.5            	15.245
MS.12          	9.5            	15.193
MS.13          	9.5            	15.249
MS.14          	9.5            	15.235
MS.15          	9.5            	15.225
MS.16          	9.5            	15.231
MS.17          	9.5            	15.247
MS.18          	9.5            	15.239
MS.19          	9.5            	15.263
MS.20          	9.5            	15.217
MS.21          	9.5            	15.251
MS.22          	9.5            	15.302
MS.23          	9.5            	15.298
MS.24          	9.462          	15.283
MS.25          	9.443          	15.35
MS.26          	9.425          	15.324
MS.27          	9.405          	15.316
MS.28          	9.387          	15.37
MS.29          	9.367          	15.372
MS.30          	9.35           	15.382
MS.31          	9.33           	15.39
MS.32          	9.312          	15.316
MS.33          	9.292          	15.326
MS.34          	9.275          	15.324
MS.35          	9.255          	15.489
MS.36          	9.238          	15.432
MS.37          	9.22           	15.483
MS.38          	9.2            	15.441
MS.39          	9.182          	15.527
MS.40          	9.165          	15.521
MS.41          	9.145          	15.344
MS.42          	9.127          	15.481
MS.43          	9.11           	15.467
MS.44          	9.09           	15.467
MS.45          	9.073          	15.529
MS.46          	9.055          	15.477
MS.47          	9.037          	15.596
MS.48          	9.017          	15.576
MS.49          	9              	15.588
MS.50          	8.983          	15.606
MS.51          	8.965          	15.608
MS.52          	8.948          	15.614
MS.53          	8.93           	15.616
MS.54          	8.91           	15.604
MS.55          	8.892          	15.588
MS.56          	8.875          	15.624
MS.57          	8.858          	15.622
MS.58          	8.84           	15.604
MS.59          	8.823          	15.596
MS.60          	8.805          	15.541
MS.61          	8.787          	15.604
MS.62          	8.77           	15.68
MS.63          	8.752          	15.646
MS.64          	8.735          	15.638
MS.65          	8.717          	15.602
MS.66          	8.7            	15.622
MS.67          	8.682          	15.632
MS.68          	8.665          	15.59
MS.69          	8.648          	15.569
MS.70          	8.63           	15.63
MS.71          	8.613          	15.594
MS.72          	8.595          	15.545
MS.73          	8.577          	15.592
MS.74          	8.562          	15.588
MS.75          	8.545          	15.694
MS.76          	8.528          	15.648
MS.77          	8.51           	15.672
MS.78          	8.492          	15.678
MS.79          	8.477          	15.666
MS.80          	8.46           	15.594
MS.81          	8.443          	15.656
MS.82          	8.425          	15.678
MS.83          	8.41           	15.692
MS.84          	8.392          	15.654
MS.85          	8.375          	15.626
MS.86          	8.358          	15.733
MS.87          	8.342          	15.698
MS.88          	8.325          	15.632
MS.89          	8.307          	15.719
MS.90          	8.292          	15.765
MS.91          	8.275          	15.682
MS.92          	8.26           	15.757
MS.93          	8.242          	15.797
MS.94          	8.225          	15.745
MS.95          	8.21           	15.864
MS.96          	8.193          	15.872
MS.97          	8.177          	15.906
MS.98          	8.16           	15.714
MS.99          	8.145          	15.592
MS.100         	8.127          	15.632
MS.101         	8.113          	15.65
MS.102         	8.095          	15.654
MS.103         	8.08           	15.632
MS.104         	8.062          	15.614
MS.105         	8.047          	15.672
MS.106         	8.03           	15.692
MS.107         	8.015          	15.741
MS.108         	8              	15.731
MS.109         	7.982          	15.664
MS.110         	7.967          	15.783
MS.111         	7.95           	15.698
MS.112         	7.935          	15.827
MS.113         	7.92           	15.676
MS.114         	7.902          	15.702
MS.115         	7.887          	15.682
MS.116         	7.872          	15.716
MS.117         	7.855          	15.757
MS.118         	7.84           	15.712
MS.119         	7.825          	15.741
MS.120         	7.81           	15.535
MS.121         	7.793          	15.547
MS.122         	7.777          	15.567
MS.123         	7.762          	15.533
MS.124         	7.747          	15.505
MS.125         	7.732          	15.747
MS.126         	7.715          	15.505
MS.127         	7.7            	15.582
MS.128         	7.685          	15.519
MS.129         	7.67           	15.549
MS.130         	7.655          	15.545
MS.131         	7.64           	15.519
MS.132         	7.625          	15.551
MS.133         	7.607          	15.136
MS.134         	7.592          	15.332
MS.135         	7.577          	15.527
MS.136         	7.562          	15.33
MS.137         	7.547          	15.398
MS.138         	7.532          	15.144
MS.139         	7.517          	15.249
MS.140         	7.503          	14.721
MS.141         	7.487          	15.342
MS.142         	7.472          	15.148
MS.143         	7.457          	15.189
MS.144         	7.442          	14.862
MS.145         	7.427          	15.199
MS.146         	7.412          	15.132
MS.147         	7.398          	14.808
MS.148         	7.385          	14.675
MS.149         	7.37           	14.353
MS.150         	7.355          	14.715
MS.151         	7.34           	14.695
MS.152         	7.325          	14.198
MS.153         	7.31           	14.339
MS.154         	7.295          	14.041
MS.155         	7.28           	13.998
MS.156         	7.267          	14.262
MS.157         	7.253          	14.077
MS.158         	7.237          	13.64
MS.159         	7.222          	13.992
MS.160         	7.207          	13.694
MS.161         	7.195          	14.172
MS.162         	7.18           	14.351
MS.163         	7.165          	14.093
MS.164         	7.152          	13.988
MS.165         	7.137          	13.533
MS.166         	7.122          	13.638
MS.167         	7.108          	13.872
MS.168         	7.095          	13.517
MS.169         	7.08           	13.918
MS.170         	7.065          	13.382
MS.171         	7.052          	13.499
MS.172         	7.037          	13.614
MS.173         	7.023          	13.872
MS.174         	7.01           	13.93
MS.175         	6.995          	13.183
MS.176         	6.983          	13.126
MS.177         	6.967          	13.378
MS.178         	6.955          	13.295
MS.179         	6.94           	13.018
MS.180         	6.925          	13.138
MS.181         	6.912          	12.854
MS.182         	6.898          	13.04
MS.183         	6.885          	13.074
MS.184         	6.87           	13.06
MS.185         	6.858          	12.421
MS.186         	6.842          	12.713
MS.187         	6.83           	12.591
MS.188         	6.815          	12.689
MS.189         	6.802          	12.51
MS.190         	6.79           	12.083
MS.191         	6.775          	12.307
MS.192         	6.762          	12.119
MS.193         	6.747          	11.72
MS.194         	6.735          	11.817
MS.195         	6.722          	11.559
MS.196         	6.707          	11.704
MS.197         	6.695          	10.933
MS.198         	6.68           	11.414
MS.199         	6.668          	11.366
MS.200         	6.655          	10.443
MS.201         	6.64           	11.138
MS.202         	6.628          	10.18
MS.203         	6.615          	10.599
MS.204         	6.602          	10.536
MS.205         	6.587          	10.327
MS.206         	6.575          	9.602
MS.207         	6.562          	10.083
MS.208         	6.55           	9.507
MS.209         	6.535          	9.843
MS.210         	6.523          	9.128
MS.211         	6.51           	9.307
MS.212         	6.497          	9.172
MS.213         	6.483          	8.689
MS.214         	6.47           	8.909
MS.215         	6.457          	8.373
MS.216         	6.445          	8.77
MS.217         	6.432          	8.157
MS.218         	6.42           	8.18
MS.219         	6.407          	8.091
MS.220         	6.392          	8.045
MS.221         	6.38           	7.803
MS.222         	6.367          	7.658
MS.223         	6.355          	7.678
MS.224         	6.342          	7.473
MS.225         	6.33           	7.166
MS.226         	6.317          	7.213
MS.227         	6.305          	6.921
MS.228         	6.293          	6.584
MS.229         	6.28           	6.794
MS.230         	6.267          	6.355
MS.231         	6.255          	6.252
MS.232         	6.242          	6.741
MS.233         	6.23           	5.781
MS.234         	6.217          	5.813
MS.235         	6.205          	5.881
MS.236         	6.192          	5.491
MS.237         	6.18           	5.694
MS.238         	6.168          	5.287
MS.239         	6.155          	5.253
MS.240         	6.142          	4.683
MS.241         	6.13           	4.566
MS.242         	6.117          	4.639
MS.243         	6.105          	4.326
MS.244         	6.095          	4.604
MS.245         	6.082          	4.117
MS.246         	6.07           	4.067
MS.247         	6.057          	4.357
MS.248         	6.045          	4.222
MS.249         	6.032          	3.875
MS.250         	6.02           	4.318
MS.251         	6.01           	4.03
MS.252         	5.997          	3.805
MS.253         	5.985          	4.179
MS.254         	5.972          	3.539
MS.255         	5.963          	3.446
MS.256         	5.95           	3.354
MS.257         	5.938          	3.287
MS.258         	5.925          	3.491
MS.259         	5.915          	3.521
MS.260         	5.902          	3.092
MS.261         	5.89           	3.168
MS.262         	5.878          	3.184
MS.263         	5.867          	3.509
MS.264         	5.855          	2.747
MS.265         	5.842          	2.443
MS.266         	5.832          	2.707
MS.267         	5.82           	2.538
MS.268         	5.807          	2.375
MS.269         	5.797          	2.536
MS.270         	5.785          	2.298
MS.271         	5.773          	2.534
MS.272         	5.762          	2.167
MS.273         	5.75           	2.177
MS.274         	5.74           	1.986
MS.275         	5.727          	1.744
MS.276         	5.715          	1.934
MS.277         	5.705          	1.766
MS.278         	5.692          	1.77
MS.279         	5.682          	1.472
MS.280         	5.67           	1.561
MS.281         	5.66           	1.746
MS.282         	5.648          	1.837
MS.283         	5.637          	1.539
MS.284         	5.625          	1.527
MS.285         	5.615          	1.434
MS.286         	5.602          	1.593
MS.287         	5.592          	1.142
MS.288         	5.58           	1.219
MS.289         	5.57           	1.112
MS.290         	5.557          	0.953
MS.291         	5.547          	1.094
MS.292         	5.535          	1.029
MS.293         	5.525          	0.985
MS.294         	5.515          	0.802
MS.295         	5.503          	0.818
MS.296         	5.492          	0.832
MS.297         	5.48           	0.894
MS.298         	5.47           	0.715
MS.299         	5.46           	0.699
MS.300         	5.447          	0.767
MS.301         	5.438          	0.526
MS.302         	5.427          	0.465
MS.303         	5.415          	0.671
MS.304         	5.405          	0.352
MS.305         	5.395          	0.381
MS.306         	5.382          	0.437
MS.307         	5.372          	0.314
MS.308         	5.362          	0.218
MS.309         	5.35           	0.216
MS.310         	5.34           	0.348
MS.311         	5.33           	0.161
MS.312         	5.32           	0.236
MS.313         	5.307          	0.294
MS.314         	5.297          	0.312
MS.315         	5.287          	0.159
MS.316         	5.277          	0.169
MS.317         	5.265          	0.163
MS.318         	5.255          	0.119
MS.319         	5.245          	0.169
MS.320         	5.235          	0.183
MS.321         	5.225          	0.066
MS.322         	5.213          	0.091
MS.323         	5.202          	0.075
MS.324         	5.193          	0.079
MS.325         	5.182          	0.145
MS.326         	5.172          	0.131
MS.327         	5.162          	0.073
MS.328         	5.152          	0.133
MS.329         	5.14           	0.014
MS.330         	5.13           	0.093
MS.331         	5.12           	0.048
MS.332         	5.11           	0.077
MS.333         	5.1            	0.05
MS.334         	5.09           	0.079
MS.335         	5.08           	0.081
MS.336         	5.07           	0.04
MS.337         	5.06           	0.016
MS.338         	5.05           	0.01
MS.339         	5.04           	-0.032
MS.340         	5.03           	0.054
MS.341         	5.02           	0.052
MS.342         	5.01           	0.079
MS.343         	5              	0.038
MS.344         	4.99           	-0.004
MS.345         	4.98           	0.012
MS.346         	4.97           	0.058
MS.347         	4.96           	0.089
MS.348         	4.95           	0.01
MS.349         	4.94           	-0.014
MS.350         	4.93           	0.008
MS.351         	4.92           	-0.032
MS.352         	4.91           	0.002
MS.353         	4.9            	0.01
MS.354         	4.89           	0.002
MS.355         	4.88           	0.018
MS.356         	4.87           	-0.012
MS.357         	4.86           	0.004
MS.358         	4.852          	0.038
MS.359         	4.842          	0.02
DERIVED EXCITABILITY VARIABLES
Program = QTracP 3/4/2020
Threshold method = 6 (optimised for CAP, using data for present condition only)
SR method = 1 (using actual data values)
6.                 	0.000               	Peak response\(mV)
9.                 	30.2                	Temperature ( C)
17.                	24                  	Age (years)
18.                	1                   	Sex (M=1, F=2)

EXTRA VARIABLES

MScPeak(mV) = 15.21
MScS5(mA) = 5.46
MScS50(mA) = 6.35
MScS95(mA) = 7.36
MScNSteps = 4
MScSteps(%) = 10.2
MScStepMax(%) = 3.7
MScD50 = 34
MScSlope = 8.95
MSFPeakAmp(mV) = 15.6
MSFNUnits = 168
MSFMeanUnitAmp(uV) = 93
MSFHuntTime(m) = 2.43
MSFError(%) = 10.9
MSFNLarge = 48.61
MSFMedianAmp(%) = 0.478
MSFMedianAmp(mV) = 0.0747
MSFHalfAmpAmp(%) = 0.611
MSFHalfAmpAmp(mV) = 0.0954
MSFLargestAmp(%) = 2.26
MSFLargestAmp(mV) = 0.353
MSFMeanRS(%) = 2
MSFOpts = 10106121
MScDuration(min) = 3.1
MSFTraces = 260
MSFSizeLimit(uV) = 39
MSFLimitType = 1
MSFSmallestAmp(uV) = 41.1

EXTRA WAVEFORMS


!MScan Model
!168
	1	5.18	0.38	2
	2	5.25	0.55	2
	3	5.32	0.49	2
	4	5.36	0.52	2
	5	5.4	0.53	2
	6	5.41	0.27	2
	7	5.41	0.27	2
	8	5.42	0.31	2
	9	5.43	0.32	2
	10	5.46	0.47	2
	11	5.47	0.27	2
	12	5.48	0.31	2
	13	5.49	0.33	2
	14	5.5	0.31	2
	15	5.52	0.29	2
	16	5.53	0.26	2
	17	5.54	0.46	2
	18	5.56	0.47	2
	19	5.56	0.32	2
	20	5.57	0.32	2
	21	5.58	0.32	2
	22	5.6	0.96	2
	23	5.63	0.47	2
	24	5.65	0.61	2
	25	5.67	0.75	2
	26	5.69	0.59	2
	27	5.71	0.42	2
	28	5.72	0.49	2
	29	5.73	0.44	2
	30	5.74	0.34	2
	31	5.75	0.34	2
	32	5.76	0.68	2
	33	5.78	0.8	2
	34	5.8	0.87	2
	35	5.81	0.81	2
	36	5.83	0.85	2
	37	5.85	0.74	2
	38	5.86	0.61	2
	39	5.89	1.13	2
	40	5.93	2.26	2
	41	5.95	0.81	2
	42	5.97	0.54	2
	43	5.99	0.77	2
	44	6.03	2.02	2
	45	6.07	1.13	2
	46	6.08	0.34	2
	47	6.09	0.34	2
	48	6.09	0.44	2
	49	6.1	0.86	2
	50	6.11	0.51	2.4
	51	6.12	0.33	2
	52	6.12	0.37	2
	53	6.14	0.37	2
	54	6.14	0.37	2
	55	6.15	0.31	2
	56	6.15	0.3	2
	57	6.16	0.38	2
	58	6.16	0.5	2
	59	6.17	0.5	2
	60	6.17	0.5	2
	61	6.18	0.5	2
	62	6.19	0.57	2
	63	6.19	0.37	2
	64	6.19	0.58	2
	65	6.2	0.58	2
	66	6.21	0.57	2
	67	6.21	0.53	2
	68	6.22	0.52	2
	69	6.22	0.48	2
	70	6.23	0.48	2
	71	6.24	0.48	2
	72	6.24	0.45	2
	73	6.25	0.4	2
	74	6.25	0.4	2
	75	6.27	0.4	2
	76	6.27	0.41	2
	77	6.28	0.42	2
	78	6.28	0.41	2
	79	6.29	0.41	2
	80	6.29	0.41	2
	81	6.3	0.41	2
	82	6.3	0.41	2
	83	6.31	0.29	2
	84	6.31	0.47	2
	85	6.32	0.57	2
	86	6.32	0.4	2
	87	6.33	0.47	2
	88	6.33	0.36	2
	89	6.34	0.29	2
	90	6.34	0.47	2
	91	6.35	0.47	2
	92	6.36	0.56	2
	93	6.36	0.47	2
	94	6.37	0.43	2
	95	6.37	0.3	2
	96	6.38	0.3	2
	97	6.38	0.3	2
	98	6.39	0.3	2
	99	6.39	0.3	2
	100	6.39	0.29	2
	101	6.4	0.27	2
	102	6.4	0.27	2
	103	6.41	0.27	2
	104	6.41	0.27	2
	105	6.41	0.27	2
	106	6.42	0.27	2
	107	6.42	0.27	2
	108	6.43	0.27	2
	109	6.43	0.27	2
	110	6.44	0.37	2
	111	6.44	0.52	2
	112	6.45	0.52	2
	113	6.46	0.51	2
	114	6.47	0.46	2
	115	6.47	0.51	2
	116	6.48	0.56	2
	117	6.49	0.56	2
	118	6.5	0.56	2
	119	6.51	0.58	2
	120	6.51	0.58	2
	121	6.52	0.58	2
	122	6.53	0.67	2
	123	6.54	0.69	2
	124	6.55	0.65	2
	125	6.55	0.65	2
	126	6.56	0.65	2
	127	6.57	1.04	2
	128	6.59	1.06	2
	129	6.6	0.73	2
	130	6.61	0.96	2
	131	6.62	0.93	2
	132	6.63	0.99	2
	133	6.64	0.87	2
	134	6.65	0.86	2
	135	6.66	0.75	2
	136	6.67	0.73	2
	137	6.68	0.81	2
	138	6.7	0.8	2
	139	6.7	0.48	2
	140	6.71	0.48	2
	141	6.72	0.48	2
	142	6.72	0.47	2
	143	6.73	0.39	2
	144	6.74	0.39	2
	145	6.74	0.42	2
	146	6.75	0.42	2
	147	6.76	0.42	2
	148	6.76	0.44	2
	149	6.77	0.71	2
	150	6.79	0.71	2
	151	6.8	0.55	2
	152	6.81	0.48	2
	153	6.82	0.5	2
	154	6.83	0.59	2
	155	6.86	1.31	2
	156	6.92	0.86	2
	157	6.96	1.27	2
	158	7.05	2.1	2
	159	7.16	1.81	2
	160	7.26	1.75	2
	161	7.3	0.34	2
	162	7.31	0.68	2
	163	7.34	0.98	2
	164	7.38	1.64	2
	165	7.44	2.13	2
	166	7.54	1.03	2
	167	7.55	1.83	2
	168	7.8	0.9	2

