File:              	C:\Qtrac\Data\Daniel M Sørensen\MScan multicentre study\Data from centres\Bucharest\TDLC00129C.QZD
Name:              	RO.BU.NC.1.2
Protocol:          	MSCAN-R2
Date:              	29/1/20
Start time:        	11:52:31
Age:               	30
Sex:               	M
Temperature:       	36.8
S/R sites:         	TA
NC/disease:        	RONC1.2
Operator:
Comments:
M-SCAN DATA (12.3-1.8m)
Scanpts: 326, 335, 1018, 1027
Stim. (mA)     	Amp. (mV)
MS.1           	25             	6.949
MS.2           	25             	6.975
MS.3           	25             	6.941
MS.4           	25             	6.919
MS.5           	25             	6.911
MS.6           	25             	6.903
MS.7           	25             	6.894
MS.8           	25             	6.89
MS.9           	25             	6.901
MS.10          	25             	6.894
MS.11          	25             	6.884
MS.12          	25             	6.894
MS.13          	25             	6.89
MS.14          	25             	6.894
MS.15          	25             	6.886
MS.16          	25             	6.888
MS.17          	25             	6.886
MS.18          	25             	6.886
MS.19          	25             	6.896
MS.20          	25             	6.884
MS.21          	25             	6.896
MS.22          	25             	6.89
MS.23          	25             	6.892
MS.24          	24.9           	6.882
MS.25          	24.85          	6.882
MS.26          	24.8           	6.88
MS.27          	24.75          	6.876
MS.28          	24.702         	6.882
MS.29          	24.653         	6.874
MS.30          	24.602         	6.89
MS.31          	24.555         	6.876
MS.32          	24.505         	6.876
MS.33          	24.455         	6.874
MS.34          	24.407         	6.88
MS.35          	24.358         	6.886
MS.36          	24.31          	6.87
MS.37          	24.26          	6.894
MS.38          	24.212         	6.878
MS.39          	24.165         	6.874
MS.40          	24.115         	6.876
MS.41          	24.067         	6.876
MS.42          	24.02          	6.878
MS.43          	23.972         	6.864
MS.44          	23.925         	6.876
MS.45          	23.875         	6.876
MS.46          	23.827         	6.874
MS.47          	23.78          	6.852
MS.48          	23.733         	6.858
MS.49          	23.685         	6.852
MS.50          	23.637         	6.862
MS.51          	23.59          	6.854
MS.52          	23.545         	6.854
MS.53          	23.497         	6.844
MS.54          	23.45          	6.856
MS.55          	23.403         	6.864
MS.56          	23.358         	6.864
MS.57          	23.31          	6.872
MS.58          	23.262         	6.866
MS.59          	23.217         	6.858
MS.60          	23.17          	6.864
MS.61          	23.125         	6.85
MS.62          	23.077         	6.852
MS.63          	23.032         	6.856
MS.64          	22.985         	6.842
MS.65          	22.94          	6.852
MS.66          	22.895         	6.852
MS.67          	22.847         	6.844
MS.68          	22.802         	6.842
MS.69          	22.757         	6.834
MS.70          	22.712         	6.848
MS.71          	22.665         	6.84
MS.72          	22.62          	6.834
MS.73          	22.575         	6.85
MS.74          	22.53          	6.84
MS.75          	22.485         	6.842
MS.76          	22.44          	6.834
MS.77          	22.395         	6.83
MS.78          	22.35          	6.832
MS.79          	22.307         	6.84
MS.80          	22.262         	6.826
MS.81          	22.217         	6.828
MS.82          	22.172         	6.816
MS.83          	22.127         	6.828
MS.84          	22.085         	6.842
MS.85          	22.04          	6.832
MS.86          	21.995         	6.834
MS.87          	21.952         	6.83
MS.88          	21.907         	6.834
MS.89          	21.865         	6.826
MS.90          	21.82          	6.834
MS.91          	21.778         	6.824
MS.92          	21.735         	6.832
MS.93          	21.69          	6.824
MS.94          	21.647         	6.836
MS.95          	21.605         	6.82
MS.96          	21.56          	6.822
MS.97          	21.517         	6.83
MS.98          	21.475         	6.828
MS.99          	21.432         	6.816
MS.100         	21.39          	6.84
MS.101         	21.345         	6.812
MS.102         	21.302         	6.826
MS.103         	21.26          	6.834
MS.104         	21.217         	6.818
MS.105         	21.175         	6.828
MS.106         	21.135         	6.84
MS.107         	21.092         	6.818
MS.108         	21.05          	6.814
MS.109         	21.007         	6.812
MS.110         	20.965         	6.82
MS.111         	20.922         	6.816
MS.112         	20.882         	6.812
MS.113         	20.84          	6.82
MS.114         	20.797         	6.82
MS.115         	20.757         	6.812
MS.116         	20.715         	6.82
MS.117         	20.675         	6.822
MS.118         	20.632         	6.81
MS.119         	20.592         	6.824
MS.120         	20.55          	6.826
MS.121         	20.51          	6.818
MS.122         	20.467         	6.814
MS.123         	20.427         	6.814
MS.124         	20.387         	6.804
MS.125         	20.345         	6.818
MS.126         	20.305         	6.824
MS.127         	20.265         	6.814
MS.128         	20.225         	6.822
MS.129         	20.182         	6.806
MS.130         	20.142         	6.804
MS.131         	20.102         	6.82
MS.132         	20.062         	6.798
MS.133         	20.022         	6.812
MS.134         	19.983         	6.8
MS.135         	19.942         	6.802
MS.136         	19.903         	6.812
MS.137         	19.862         	6.8
MS.138         	19.823         	6.812
MS.139         	19.785         	6.796
MS.140         	19.745         	6.786
MS.141         	19.705         	6.798
MS.142         	19.665         	6.796
MS.143         	19.627         	6.79
MS.144         	19.587         	6.804
MS.145         	19.547         	6.792
MS.146         	19.51          	6.792
MS.147         	19.47          	6.814
MS.148         	19.43          	6.796
MS.149         	19.392         	6.798
MS.150         	19.352         	6.796
MS.151         	19.315         	6.798
MS.152         	19.275         	6.8
MS.153         	19.237         	6.808
MS.154         	19.2           	6.806
MS.155         	19.16          	6.796
MS.156         	19.122         	6.802
MS.157         	19.085         	6.79
MS.158         	19.047         	6.794
MS.159         	19.007         	6.79
MS.160         	18.97          	6.786
MS.161         	18.932         	6.802
MS.162         	18.895         	6.794
MS.163         	18.858         	6.792
MS.164         	18.82          	6.796
MS.165         	18.782         	6.794
MS.166         	18.745         	6.794
MS.167         	18.708         	6.802
MS.168         	18.67          	6.784
MS.169         	18.632         	6.802
MS.170         	18.595         	6.794
MS.171         	18.557         	6.778
MS.172         	18.52          	6.8
MS.173         	18.483         	6.784
MS.174         	18.448         	6.772
MS.175         	18.41          	6.776
MS.176         	18.372         	6.77
MS.177         	18.335         	6.786
MS.178         	18.3           	6.784
MS.179         	18.262         	6.78
MS.180         	18.227         	6.786
MS.181         	18.19          	6.772
MS.182         	18.153         	6.774
MS.183         	18.118         	6.77
MS.184         	18.08          	6.784
MS.185         	18.045         	6.778
MS.186         	18.01          	6.772
MS.187         	17.972         	6.774
MS.188         	17.938         	6.772
MS.189         	17.903         	6.76
MS.190         	17.865         	6.774
MS.191         	17.83          	6.766
MS.192         	17.795         	6.774
MS.193         	17.757         	6.794
MS.194         	17.722         	6.764
MS.195         	17.688         	6.776
MS.196         	17.653         	6.766
MS.197         	17.618         	6.764
MS.198         	17.583         	6.772
MS.199         	17.547         	6.76
MS.200         	17.512         	6.76
MS.201         	17.477         	6.778
MS.202         	17.442         	6.762
MS.203         	17.407         	6.768
MS.204         	17.372         	6.77
MS.205         	17.337         	6.76
MS.206         	17.302         	6.774
MS.207         	17.267         	6.772
MS.208         	17.235         	6.76
MS.209         	17.2           	6.782
MS.210         	17.165         	6.76
MS.211         	17.13          	6.76
MS.212         	17.097         	6.764
MS.213         	17.062         	6.76
MS.214         	17.028         	6.778
MS.215         	16.995         	6.76
MS.216         	16.96          	6.758
MS.217         	16.927         	6.766
MS.218         	16.892         	6.745
MS.219         	16.86          	6.774
MS.220         	16.825         	6.762
MS.221         	16.792         	6.762
MS.222         	16.757         	6.778
MS.223         	16.725         	6.758
MS.224         	16.69          	6.76
MS.225         	16.657         	6.76
MS.226         	16.625         	6.758
MS.227         	16.59          	6.76
MS.228         	16.557         	6.762
MS.229         	16.525         	6.739
MS.230         	16.493         	6.749
MS.231         	16.46          	6.747
MS.232         	16.425         	6.764
MS.233         	16.392         	6.739
MS.234         	16.36          	6.755
MS.235         	16.327         	6.766
MS.236         	16.295         	6.737
MS.237         	16.262         	6.739
MS.238         	16.23          	6.758
MS.239         	16.198         	6.745
MS.240         	16.165         	6.755
MS.241         	16.132         	6.76
MS.242         	16.1           	6.753
MS.243         	16.067         	6.768
MS.244         	16.038         	6.776
MS.245         	16.005         	6.751
MS.246         	15.972         	6.741
MS.247         	15.94          	6.755
MS.248         	15.91          	6.76
MS.249         	15.877         	6.745
MS.250         	15.845         	6.753
MS.251         	15.812         	6.741
MS.252         	15.782         	6.772
MS.253         	15.75          	6.755
MS.254         	15.72          	6.76
MS.255         	15.688         	6.749
MS.256         	15.657         	6.747
MS.257         	15.625         	6.741
MS.258         	15.595         	6.737
MS.259         	15.562         	6.745
MS.260         	15.532         	6.766
MS.261         	15.5           	6.747
MS.262         	15.47          	6.758
MS.263         	15.438         	6.745
MS.264         	15.407         	6.735
MS.265         	15.377         	6.764
MS.266         	15.347         	6.741
MS.267         	15.315         	6.745
MS.268         	15.285         	6.755
MS.269         	15.255         	6.758
MS.270         	15.225         	6.751
MS.271         	15.193         	6.755
MS.272         	15.162         	6.747
MS.273         	15.132         	6.758
MS.274         	15.102         	6.758
MS.275         	15.072         	6.76
MS.276         	15.042         	6.749
MS.277         	15.012         	6.739
MS.278         	14.983         	6.753
MS.279         	14.952         	6.774
MS.280         	14.922         	6.755
MS.281         	14.892         	6.753
MS.282         	14.862         	6.77
MS.283         	14.832         	6.762
MS.284         	14.802         	6.766
MS.285         	14.775         	6.753
MS.286         	14.745         	6.739
MS.287         	14.715         	6.753
MS.288         	14.685         	6.77
MS.289         	14.657         	6.749
MS.290         	14.627         	6.755
MS.291         	14.597         	6.76
MS.292         	14.568         	6.747
MS.293         	14.54          	6.762
MS.294         	14.51          	6.747
MS.295         	14.483         	6.753
MS.296         	14.452         	6.741
MS.297         	14.422         	6.758
MS.298         	14.395         	6.762
MS.299         	14.365         	6.753
MS.300         	14.337         	6.735
MS.301         	14.31          	6.755
MS.302         	14.28          	6.764
MS.303         	14.252         	6.76
MS.304         	14.222         	6.743
MS.305         	14.195         	6.764
MS.306         	14.167         	6.758
MS.307         	14.137         	6.749
MS.308         	14.11          	6.753
MS.309         	14.082         	6.758
MS.310         	14.052         	6.772
MS.311         	14.025         	6.755
MS.312         	13.997         	6.755
MS.313         	13.97          	6.758
MS.314         	13.943         	6.747
MS.315         	13.912         	6.764
MS.316         	13.885         	6.747
MS.317         	13.858         	6.741
MS.318         	13.83          	6.735
MS.319         	13.802         	6.745
MS.320         	13.775         	6.743
MS.321         	13.747         	6.739
MS.322         	13.72          	6.749
MS.323         	13.693         	6.768
MS.324         	13.665         	6.743
MS.325         	13.637         	6.749
MS.326         	13.61          	6.745
MS.327         	13.582         	6.751
MS.328         	13.557         	6.768
MS.329         	13.53          	6.741
MS.330         	13.502         	6.747
MS.331         	13.475         	6.758
MS.332         	13.447         	6.755
MS.333         	13.422         	6.753
MS.334         	13.395         	6.745
MS.335         	13.367         	6.755
MS.336         	13.342         	6.77
MS.337         	13.315         	6.745
MS.338         	13.287         	6.745
MS.339         	13.262         	6.764
MS.340         	13.235         	6.751
MS.341         	13.207         	6.758
MS.342         	13.182         	6.76
MS.343         	13.155         	6.774
MS.344         	13.13          	6.76
MS.345         	13.102         	6.747
MS.346         	13.077         	6.745
MS.347         	13.05          	6.758
MS.348         	13.025         	6.764
MS.349         	13             	6.762
MS.350         	12.972         	6.751
MS.351         	12.947         	6.739
MS.352         	12.92          	6.749
MS.353         	12.895         	6.751
MS.354         	12.87          	6.755
MS.355         	12.845         	6.758
MS.356         	12.818         	6.747
MS.357         	12.792         	6.772
MS.358         	12.767         	6.747
MS.359         	12.742         	6.764
MS.360         	12.715         	6.753
MS.361         	12.69          	6.762
MS.362         	12.665         	6.745
MS.363         	12.64          	6.741
MS.364         	12.615         	6.772
MS.365         	12.59          	6.753
MS.366         	12.565         	6.753
MS.367         	12.54          	6.709
MS.368         	12.515         	6.711
MS.369         	12.49          	6.77
MS.370         	12.465         	6.709
MS.371         	12.44          	6.707
MS.372         	12.415         	6.709
MS.373         	12.39          	6.707
MS.374         	12.365         	6.715
MS.375         	12.34          	6.711
MS.376         	12.315         	6.721
MS.377         	12.29          	6.731
MS.378         	12.267         	6.713
MS.379         	12.242         	6.719
MS.380         	12.217         	6.715
MS.381         	12.193         	6.707
MS.382         	12.17          	6.715
MS.383         	12.145         	6.721
MS.384         	12.12          	6.719
MS.385         	12.095         	6.721
MS.386         	12.072         	6.717
MS.387         	12.047         	6.687
MS.388         	12.023         	6.697
MS.389         	12             	6.721
MS.390         	11.975         	6.723
MS.391         	11.952         	6.675
MS.392         	11.927         	6.711
MS.393         	11.905         	6.703
MS.394         	11.88          	6.681
MS.395         	11.858         	6.713
MS.396         	11.832         	6.751
MS.397         	11.81          	6.727
MS.398         	11.785         	6.681
MS.399         	11.762         	6.659
MS.400         	11.738         	6.701
MS.401         	11.715         	6.661
MS.402         	11.693         	6.697
MS.403         	11.667         	6.717
MS.404         	11.645         	6.651
MS.405         	11.622         	6.711
MS.406         	11.597         	6.61
MS.407         	11.575         	6.661
MS.408         	11.552         	6.663
MS.409         	11.53          	6.721
MS.410         	11.505         	6.707
MS.411         	11.483         	6.592
MS.412         	11.46          	6.802
MS.413         	11.438         	6.733
MS.414         	11.415         	6.727
MS.415         	11.392         	6.655
MS.416         	11.37          	6.621
MS.417         	11.345         	6.749
MS.418         	11.322         	6.598
MS.419         	11.3           	6.739
MS.420         	11.278         	6.681
MS.421         	11.255         	6.641
MS.422         	11.233         	6.743
MS.423         	11.21          	6.691
MS.424         	11.188         	6.703
MS.425         	11.165         	6.731
MS.426         	11.142         	6.697
MS.427         	11.122         	6.727
MS.428         	11.1           	6.633
MS.429         	11.077         	6.733
MS.430         	11.055         	6.663
MS.431         	11.032         	6.649
MS.432         	11.01          	6.671
MS.433         	10.988         	6.731
MS.434         	10.967         	6.681
MS.435         	10.945         	6.637
MS.436         	10.922         	6.655
MS.437         	10.9           	6.693
MS.438         	10.88          	6.58
MS.439         	10.858         	6.637
MS.440         	10.835         	6.643
MS.441         	10.815         	6.631
MS.442         	10.792         	6.675
MS.443         	10.77          	6.619
MS.444         	10.75          	6.574
MS.445         	10.727         	6.645
MS.446         	10.707         	6.504
MS.447         	10.685         	6.484
MS.448         	10.665         	6.608
MS.449         	10.642         	6.494
MS.450         	10.622         	6.437
MS.451         	10.6           	6.516
MS.452         	10.58          	6.463
MS.453         	10.557         	6.449
MS.454         	10.537         	6.492
MS.455         	10.515         	6.419
MS.456         	10.495         	6.455
MS.457         	10.472         	6.552
MS.458         	10.452         	6.52
MS.459         	10.432         	6.415
MS.460         	10.41          	6.379
MS.461         	10.39          	6.331
MS.462         	10.37          	6.328
MS.463         	10.35          	6.371
MS.464         	10.327         	6.369
MS.465         	10.307         	6.417
MS.466         	10.287         	6.316
MS.467         	10.267         	6.349
MS.468         	10.245         	6.3
MS.469         	10.225         	6.266
MS.470         	10.205         	6.264
MS.471         	10.185         	6.276
MS.472         	10.165         	6.29
MS.473         	10.145         	6.248
MS.474         	10.122         	6.242
MS.475         	10.102         	6.272
MS.476         	10.082         	6.339
MS.477         	10.062         	6.322
MS.478         	10.042         	6.314
MS.479         	10.023         	6.331
MS.480         	10.002         	6.26
MS.481         	9.983          	6.341
MS.482         	9.962          	6.268
MS.483         	9.943          	6.226
MS.484         	9.922          	6.254
MS.485         	9.903          	6.256
MS.486         	9.882          	6.226
MS.487         	9.865          	6.208
MS.488         	9.845          	6.22
MS.489         	9.825          	6.258
MS.490         	9.805          	6.212
MS.491         	9.785          	6.218
MS.492         	9.765          	6.194
MS.493         	9.745          	6.198
MS.494         	9.727          	6.226
MS.495         	9.707          	6.188
MS.496         	9.688          	6.185
MS.497         	9.667          	6.19
MS.498         	9.65           	6.127
MS.499         	9.63           	6.185
MS.500         	9.61           	6.226
MS.501         	9.592          	6.177
MS.502         	9.573          	6.179
MS.503         	9.552          	6.202
MS.504         	9.535          	6.127
MS.505         	9.515          	6.127
MS.506         	9.495          	6.065
MS.507         	9.477          	5.944
MS.508         	9.457          	6.032
MS.509         	9.44           	6.034
MS.510         	9.42           	5.901
MS.511         	9.403          	5.98
MS.512         	9.382          	5.996
MS.513         	9.365          	6.038
MS.514         	9.345          	6.012
MS.515         	9.327          	5.994
MS.516         	9.307          	5.887
MS.517         	9.29           	5.924
MS.518         	9.27           	5.918
MS.519         	9.252          	5.855
MS.520         	9.235          	5.98
MS.521         	9.215          	5.881
MS.522         	9.198          	5.978
MS.523         	9.177          	5.901
MS.524         	9.16           	5.889
MS.525         	9.142          	5.936
MS.526         	9.122          	5.819
MS.527         	9.105          	5.881
MS.528         	9.087          	5.861
MS.529         	9.07           	5.831
MS.530         	9.05           	5.877
MS.531         	9.033          	5.801
MS.532         	9.015          	5.769
MS.533         	8.997          	5.97
MS.534         	8.98           	5.797
MS.535         	8.96           	5.799
MS.536         	8.943          	5.821
MS.537         	8.925          	5.803
MS.538         	8.908          	5.722
MS.539         	8.89           	5.74
MS.540         	8.872          	5.752
MS.541         	8.855          	5.769
MS.542         	8.837          	5.662
MS.543         	8.818          	5.698
MS.544         	8.8            	5.694
MS.545         	8.783          	5.577
MS.546         	8.765          	5.664
MS.547         	8.747          	5.692
MS.548         	8.73           	5.684
MS.549         	8.712          	5.609
MS.550         	8.695          	5.585
MS.551         	8.677          	5.597
MS.552         	8.662          	5.575
MS.553         	8.645          	5.567
MS.554         	8.627          	5.533
MS.555         	8.61           	5.519
MS.556         	8.592          	5.474
MS.557         	8.575          	5.585
MS.558         	8.557          	5.487
MS.559         	8.54           	5.404
MS.560         	8.525          	5.406
MS.561         	8.507          	5.321
MS.562         	8.49           	5.267
MS.563         	8.472          	5.265
MS.564         	8.455          	5.271
MS.565         	8.44           	5.275
MS.566         	8.422          	5.285
MS.567         	8.405          	5.338
MS.568         	8.387          	5.18
MS.569         	8.372          	5.12
MS.570         	8.355          	5.188
MS.571         	8.337          	5.148
MS.572         	8.323          	5.052
MS.573         	8.305          	4.979
MS.574         	8.287          	5.011
MS.575         	8.273          	4.89
MS.576         	8.255          	4.953
MS.577         	8.24           	4.848
MS.578         	8.222          	5.029
MS.579         	8.205          	4.961
MS.580         	8.19           	4.963
MS.581         	8.172          	4.951
MS.582         	8.158          	4.832
MS.583         	8.14           	4.884
MS.584         	8.125          	4.844
MS.585         	8.108          	4.866
MS.586         	8.092          	4.766
MS.587         	8.075          	4.888
MS.588         	8.06           	4.753
MS.589         	8.042          	4.739
MS.590         	8.028          	4.723
MS.591         	8.012          	4.741
MS.592         	7.995          	4.546
MS.593         	7.98           	4.701
MS.594         	7.962          	4.423
MS.595         	7.947          	4.594
MS.596         	7.932          	4.582
MS.597         	7.915          	4.518
MS.598         	7.9            	4.473
MS.599         	7.885          	4.455
MS.600         	7.867          	4.588
MS.601         	7.852          	4.475
MS.602         	7.837          	4.57
MS.603         	7.822          	4.306
MS.604         	7.805          	4.272
MS.605         	7.79           	4.353
MS.606         	7.775          	4.363
MS.607         	7.76           	4.415
MS.608         	7.742          	4.411
MS.609         	7.727          	4.298
MS.610         	7.712          	4.296
MS.611         	7.697          	4.31
MS.612         	7.682          	4.33
MS.613         	7.668          	4.274
MS.614         	7.652          	4.198
MS.615         	7.635          	4.169
MS.616         	7.62           	4.244
MS.617         	7.605          	4.254
MS.618         	7.59           	4.077
MS.619         	7.575          	3.99
MS.620         	7.56           	3.95
MS.621         	7.545          	4.099
MS.622         	7.53           	3.962
MS.623         	7.515          	4.109
MS.624         	7.5            	3.771
MS.625         	7.485          	4.002
MS.626         	7.47           	3.827
MS.627         	7.455          	3.827
MS.628         	7.44           	3.722
MS.629         	7.425          	4.048
MS.630         	7.41           	3.787
MS.631         	7.395          	3.74
MS.632         	7.38           	3.839
MS.633         	7.365          	3.716
MS.634         	7.352          	3.803
MS.635         	7.337          	3.563
MS.636         	7.322          	3.539
MS.637         	7.307          	3.426
MS.638         	7.293          	3.37
MS.639         	7.277          	3.446
MS.640         	7.262          	3.446
MS.641         	7.25           	3.348
MS.642         	7.235          	3.257
MS.643         	7.22           	3.309
MS.644         	7.205          	3.333
MS.645         	7.192          	3.261
MS.646         	7.177          	3.192
MS.647         	7.162          	3.172
MS.648         	7.148          	3.207
MS.649         	7.135          	3.249
MS.650         	7.12           	3.182
MS.651         	7.105          	3.118
MS.652         	7.092          	3.16
MS.653         	7.077          	3.041
MS.654         	7.062          	3.094
MS.655         	7.05           	3.06
MS.656         	7.035          	3.055
MS.657         	7.02           	2.993
MS.658         	7.007          	2.963
MS.659         	6.992          	2.955
MS.660         	6.98           	2.953
MS.661         	6.965          	2.88
MS.662         	6.95           	2.701
MS.663         	6.938          	2.808
MS.664         	6.922          	2.858
MS.665         	6.91           	2.709
MS.666         	6.895          	2.659
MS.667         	6.882          	2.816
MS.668         	6.867          	2.63
MS.669         	6.855          	2.558
MS.670         	6.84           	2.659
MS.671         	6.827          	2.556
MS.672         	6.812          	2.628
MS.673         	6.8            	2.516
MS.674         	6.785          	2.498
MS.675         	6.773          	2.534
MS.676         	6.76           	2.477
MS.677         	6.745          	2.463
MS.678         	6.733          	2.318
MS.679         	6.717          	2.312
MS.680         	6.705          	2.399
MS.681         	6.692          	2.357
MS.682         	6.677          	2.199
MS.683         	6.665          	2.224
MS.684         	6.652          	2.248
MS.685         	6.637          	2.226
MS.686         	6.625          	2.288
MS.687         	6.612          	2.195
MS.688         	6.597          	2.179
MS.689         	6.585          	2.153
MS.690         	6.572          	2.008
MS.691         	6.56           	2.151
MS.692         	6.545          	2.083
MS.693         	6.532          	2.04
MS.694         	6.52           	2.079
MS.695         	6.507          	2.056
MS.696         	6.495          	2.036
MS.697         	6.48           	1.815
MS.698         	6.467          	1.847
MS.699         	6.455          	1.992
MS.700         	6.442          	1.962
MS.701         	6.43           	1.93
MS.702         	6.418          	1.962
MS.703         	6.402          	1.785
MS.704         	6.39           	1.803
MS.705         	6.378          	1.793
MS.706         	6.365          	1.714
MS.707         	6.352          	1.772
MS.708         	6.34           	1.654
MS.709         	6.327          	1.752
MS.710         	6.315          	1.672
MS.711         	6.302          	1.696
MS.712         	6.29           	1.631
MS.713         	6.277          	1.617
MS.714         	6.265          	1.559
MS.715         	6.253          	1.555
MS.716         	6.24           	1.617
MS.717         	6.227          	1.553
MS.718         	6.215          	1.499
MS.719         	6.202          	1.4
MS.720         	6.19           	1.591
MS.721         	6.177          	1.408
MS.722         	6.165          	1.343
MS.723         	6.152          	1.347
MS.724         	6.14           	1.37
MS.725         	6.128          	1.384
MS.726         	6.115          	1.382
MS.727         	6.102          	1.311
MS.728         	6.092          	1.345
MS.729         	6.08           	1.239
MS.730         	6.067          	1.275
MS.731         	6.055          	1.184
MS.732         	6.043          	1.231
MS.733         	6.03           	1.126
MS.734         	6.017          	1.078
MS.735         	6.007          	1.128
MS.736         	5.995          	1.053
MS.737         	5.983          	1.076
MS.738         	5.97           	1.096
MS.739         	5.96           	1.041
MS.740         	5.947          	1.001
MS.741         	5.935          	0.91
MS.742         	5.922          	0.977
MS.743         	5.912          	1.108
MS.744         	5.9            	0.941
MS.745         	5.887          	0.937
MS.746         	5.875          	0.989
MS.747         	5.865          	0.969
MS.748         	5.852          	0.908
MS.749         	5.84           	0.904
MS.750         	5.83           	0.888
MS.751         	5.817          	0.884
MS.752         	5.805          	0.828
MS.753         	5.795          	0.741
MS.754         	5.782          	0.771
MS.755         	5.77           	0.681
MS.756         	5.76           	0.743
MS.757         	5.747          	0.727
MS.758         	5.737          	0.671
MS.759         	5.725          	0.675
MS.760         	5.713          	0.61
MS.761         	5.702          	0.683
MS.762         	5.69           	0.63
MS.763         	5.68           	0.594
MS.764         	5.668          	0.653
MS.765         	5.657          	0.57
MS.766         	5.645          	0.574
MS.767         	5.635          	0.586
MS.768         	5.622          	0.578
MS.769         	5.612          	0.57
MS.770         	5.6            	0.481
MS.771         	5.59           	0.51
MS.772         	5.577          	0.407
MS.773         	5.567          	0.481
MS.774         	5.555          	0.449
MS.775         	5.545          	0.437
MS.776         	5.535          	0.415
MS.777         	5.523          	0.413
MS.778         	5.512          	0.373
MS.779         	5.5            	0.385
MS.780         	5.49           	0.365
MS.781         	5.477          	0.312
MS.782         	5.467          	0.314
MS.783         	5.457          	0.284
MS.784         	5.445          	0.306
MS.785         	5.435          	0.383
MS.786         	5.425          	0.35
MS.787         	5.412          	0.316
MS.788         	5.402          	0.3
MS.789         	5.392          	0.232
MS.790         	5.38           	0.236
MS.791         	5.37           	0.308
MS.792         	5.36           	0.226
MS.793         	5.35           	0.268
MS.794         	5.338          	0.205
MS.795         	5.327          	0.207
MS.796         	5.318          	0.288
MS.797         	5.305          	0.214
MS.798         	5.295          	0.205
MS.799         	5.285          	0.248
MS.800         	5.275          	0.205
MS.801         	5.265          	0.22
MS.802         	5.253          	0.207
MS.803         	5.242          	0.179
MS.804         	5.233          	0.181
MS.805         	5.222          	0.177
MS.806         	5.213          	0.201
MS.807         	5.2            	0.145
MS.808         	5.19           	0.185
MS.809         	5.18           	0.175
MS.810         	5.17           	0.187
MS.811         	5.16           	0.159
MS.812         	5.15           	0.181
MS.813         	5.14           	0.173
MS.814         	5.13           	0.169
MS.815         	5.117          	0.139
MS.816         	5.108          	0.137
MS.817         	5.097          	0.149
MS.818         	5.088          	0.149
MS.819         	5.077          	0.161
MS.820         	5.068          	0.149
MS.821         	5.057          	0.165
MS.822         	5.047          	0.153
MS.823         	5.037          	0.141
MS.824         	5.027          	0.133
MS.825         	5.017          	0.133
MS.826         	5.007          	0.145
MS.827         	4.997          	0.147
MS.828         	4.987          	0.129
MS.829         	4.977          	0.125
MS.830         	4.967          	0.143
MS.831         	4.957          	0.119
MS.832         	4.947          	0.117
MS.833         	4.938          	0.105
MS.834         	4.927          	0.109
MS.835         	4.918          	0.109
MS.836         	4.907          	0.107
MS.837         	4.898          	0.121
MS.838         	4.887          	0.133
MS.839         	4.878          	0.111
MS.840         	4.87           	0.127
MS.841         	4.86           	0.109
MS.842         	4.85           	0.121
MS.843         	4.84           	0.109
MS.844         	4.83           	0.111
MS.845         	4.82           	0.107
MS.846         	4.81           	0.107
MS.847         	4.8            	0.107
MS.848         	4.793          	0.113
MS.849         	4.782          	0.113
MS.850         	4.773          	0.105
MS.851         	4.762          	0.093
MS.852         	4.753          	0.097
MS.853         	4.745          	0.107
MS.854         	4.735          	0.103
MS.855         	4.725          	0.103
MS.856         	4.715          	0.107
MS.857         	4.705          	0.099
MS.858         	4.697          	0.101
MS.859         	4.688          	0.101
MS.860         	4.677          	0.113
MS.861         	4.668          	0.103
MS.862         	4.66           	0.095
MS.863         	4.65           	0.099
MS.864         	4.64           	0.077
MS.865         	4.632          	0.077
MS.866         	4.622          	0.099
MS.867         	4.612          	0.093
MS.868         	4.605          	0.089
MS.869         	4.595          	0.095
MS.870         	4.585          	0.095
MS.871         	4.575          	0.091
MS.872         	4.568          	0.089
MS.873         	4.557          	0.089
MS.874         	4.55           	0.093
MS.875         	4.54           	0.07
MS.876         	4.53           	0.07
MS.877         	4.523          	0.075
MS.878         	4.512          	0.081
MS.879         	4.503          	0.093
MS.880         	4.495          	0.07
MS.881         	4.485          	0.07
MS.882         	4.477          	0.091
MS.883         	4.467          	0.087
MS.884         	4.46           	0.093
MS.885         	4.45           	0.093
MS.886         	4.44           	0.07
MS.887         	4.432          	0.085
MS.888         	4.423          	0.075
MS.889         	4.415          	0.068
MS.890         	4.405          	0.073
MS.891         	4.398          	0.073
MS.892         	4.387          	0.073
MS.893         	4.38           	0.066
MS.894         	4.37           	0.073
MS.895         	4.362          	0.068
MS.896         	4.352          	0.066
MS.897         	4.345          	0.073
MS.898         	4.335          	0.073
MS.899         	4.327          	0.068
MS.900         	4.318          	0.07
MS.901         	4.31           	0.066
MS.902         	4.3            	0.064
MS.903         	4.293          	0.07
MS.904         	4.285          	0.068
MS.905         	4.275          	0.07
MS.906         	4.267          	0.066
MS.907         	4.257          	0.064
MS.908         	4.25           	0.064
MS.909         	4.242          	0.064
MS.910         	4.233          	0.068
MS.911         	4.225          	0.068
MS.912         	4.215          	0.062
MS.913         	4.207          	0.062
MS.914         	4.2            	0.073
MS.915         	4.19           	0.066
MS.916         	4.182          	0.066
MS.917         	4.175          	0.064
MS.918         	4.165          	0.06
MS.919         	4.157          	0.064
MS.920         	4.15           	0.07
MS.921         	4.14           	0.068
MS.922         	4.132          	0.066
MS.923         	4.125          	0.066
MS.924         	4.115          	0.06
MS.925         	4.108          	0.064
MS.926         	4.1            	0.06
MS.927         	4.092          	0.062
MS.928         	4.082          	0.06
MS.929         	4.075          	0.062
MS.930         	4.068          	0.066
MS.931         	4.057          	0.064
MS.932         	4.05           	0.06
MS.933         	4.043          	0.062
MS.934         	4.035          	0.062
MS.935         	4.027          	0.064
MS.936         	4.017          	0.062
MS.937         	4.01           	0.064
MS.938         	4.003          	0.064
MS.939         	3.995          	0.064
MS.940         	3.987          	0.064
MS.941         	3.977          	0.064
MS.942         	3.97           	0.062
MS.943         	3.962          	0.066
MS.944         	3.955          	0.064
MS.945         	3.947          	0.062
MS.946         	3.94           	0.058
MS.947         	3.93           	0.06
MS.948         	3.922          	0.058
MS.949         	3.915          	0.066
MS.950         	3.908          	0.06
MS.951         	3.9            	0.058
MS.952         	3.892          	0.058
MS.953         	3.885          	0.058
MS.954         	3.877          	0.056
MS.955         	3.867          	0.064
MS.956         	3.86           	0.064
MS.957         	3.852          	0.06
MS.958         	3.845          	0.064
MS.959         	3.837          	0.064
MS.960         	3.83           	0.06
MS.961         	3.822          	0.06
MS.962         	3.815          	0.06
MS.963         	3.807          	0.06
MS.964         	3.8            	0.062
MS.965         	3.793          	0.062
MS.966         	3.785          	0.062
MS.967         	3.777          	0.058
MS.968         	3.77           	0.06
MS.969         	3.762          	0.058
MS.970         	3.755          	0.056
MS.971         	3.747          	0.062
MS.972         	3.74           	0.054
MS.973         	3.732          	0.056
MS.974         	3.725          	0.056
MS.975         	3.717          	0.054
MS.976         	3.71           	0.058
MS.977         	3.702          	0.054
MS.978         	3.695          	0.06
MS.979         	3.688          	0.058
MS.980         	3.68           	0.052
MS.981         	3.672          	0.06
MS.982         	3.665          	0.056
MS.983         	3.658          	0.048
MS.984         	3.65           	0.06
MS.985         	3.642          	0.056
MS.986         	3.635          	0.06
MS.987         	3.627          	0.06
MS.988         	3.622          	0.058
MS.989         	3.615          	0.06
MS.990         	3.607          	0.056
MS.991         	3.6            	0.054
MS.992         	3.592          	0.062
MS.993         	3.585          	0.06
MS.994         	3.577          	0.05
MS.995         	3.57           	0.058
MS.996         	3.565          	0.054
MS.997         	3.557          	0.05
MS.998         	3.55           	0.054
MS.999         	3.543          	0.048
MS.1000        	3.535          	0.05
MS.1001        	3.527          	0.054
MS.1002        	3.523          	0.058
MS.1003        	3.515          	0.064
MS.1004        	3.507          	0.054
MS.1005        	3.5            	0.05
MS.1006        	3.492          	0.052
MS.1007        	3.487          	0.056
MS.1008        	3.48           	0.054
MS.1009        	3.472          	0.06
MS.1010        	3.465          	0.052
MS.1011        	3.457          	0.054
MS.1012        	3.452          	0.056
MS.1013        	3.445          	0.054
MS.1014        	3.438          	0.054
MS.1015        	3.43           	0.056
MS.1016        	3.425          	0.054
MS.1017        	3.418          	0.05
MS.1018        	3.41           	0.054
MS.1019        	3.402          	0.056
MS.1020        	3.398          	0.054
MS.1021        	3.39           	0.052
MS.1022        	3.382          	0.054
MS.1023        	3.377          	0.054
MS.1024        	3.37           	0.054
MS.1025        	3.362          	0.048
MS.1026        	3.357          	0.052
MS.1027        	3.35           	0.052
MS.1028        	3.342          	0.052
MS.1029        	3.337          	0.054
MS.1030        	3.33           	0.052
MS.1031        	3.322          	0.052
MS.1032        	3.317          	0.052
MS.1033        	3.31           	0.05
MS.1034        	3.303          	0.05
MS.1035        	3.297          	0.058
MS.1036        	3.29           	0.056
MS.1037        	3.283          	0.052
MS.1038        	3.277          	0.05
MS.1039        	3.27           	0.048
MS.1040        	3.262          	0.056
MS.1041        	3.257          	0.052
MS.1042        	3.25           	0.05
MS.1043        	3.245          	0.05
MS.1044        	3.237          	0.054
MS.1045        	3.232          	0.052
MS.1046        	3.225          	0.056
MS.1047        	3.217          	0.05
MS.1048        	3.212          	0.048
MS.1049        	3.205          	0.052
MS.1050        	3.2            	0.052
MS.1051        	3.192          	0.05
MS.1052        	3.188          	0.052
MS.1053        	3.18           	0.052
MS.1054        	3.172          	0.046
MS.1055        	3.168          	0.054
MS.1056        	3.16           	0.052
MS.1057        	3.155          	0.05
MS.1058        	3.148          	0.05
MS.1059        	3.142          	0.048
MS.1060        	3.135          	0.05
MS.1061        	3.13           	0.044
MS.1062        	3.122          	0.05
MS.1063        	3.117          	0.05
MS.1064        	3.11           	0.048
MS.1065        	3.105          	0.044
MS.1066        	3.097          	0.052
MS.1067        	3.092          	0.052
MS.1068        	3.085          	0.05
MS.1069        	3.08           	0.052
MS.1070        	3.072          	0.052
MS.1071        	3.067          	0.048
MS.1072        	3.062          	0.05
MS.1073        	3.055          	0.046
MS.1074        	3.05           	0.05
MS.1075        	3.043          	0.048
MS.1076        	3.037          	0.052
MS.1077        	3.03           	0.052
MS.1078        	3.025          	0.052
MS.1079        	3.02           	0.052
MS.1080        	3.013          	0.052
MS.1081        	3.007          	0.052
MS.1082        	3              	0.05
MS.1083        	2.995          	0.05
MS.1084        	2.99           	0.05
MS.1085        	2.982          	0.06
MS.1086        	2.977          	0.052
MS.1087        	2.97           	0.052
MS.1088        	2.965          	0.048
MS.1089        	2.96           	0.046
MS.1090        	2.952          	0.054
MS.1091        	2.947          	0.046
MS.1092        	2.942          	0.044
MS.1093        	2.935          	0.048
MS.1094        	2.93           	0.05
MS.1095        	2.925          	0.052
MS.1096        	2.918          	0.046
MS.1097        	2.912          	0.046
DERIVED EXCITABILITY VARIABLES
Program = QTracP 3/4/2020
Threshold method = 6 (optimised for CAP, using data for present condition only)
SR method = 1 (using actual data values)
6.                 	0.000               	Peak response\(mV)
9.                 	36.8                	Temperature ( C)
17.                	30                  	Age (years)
18.                	1                   	Sex (M=1, F=2)

EXTRA VARIABLES

MScPeak(mV) = 6.85
MScS5(mA) = 5.45
MScS50(mA) = 7.28
MScS95(mA) = 10.6
MScNSteps = 1
MScSteps(%) = 2.2
MScStepMax(%) = 2.2
MScD50 = 67
MScSlope = 3.59
MSFPeakAmp(mV) = 6.7
MSFNUnits = 177
MSFMeanUnitAmp(uV) = 37.8
MSFHuntTime(m) = 4.93
MSFError(%) = 1.63
MSFNLarge = 58.99
MSFMedianAmp(%) = 0.488
MSFMedianAmp(mV) = 0.0327
MSFHalfAmpAmp(%) = 0.581
MSFHalfAmpAmp(mV) = 0.0389
MSFLargestAmp(%) = 1.92
MSFLargestAmp(mV) = 0.129
MSFMeanRS(%) = 2
MSFOpts = 10106121
MScDuration(min) = 10.5
MSFTraces = 702
MSFSizeLimit(uV) = 16.7
MSFLimitType = 1
MSFSmallestAmp(uV) = 17.2

EXTRA WAVEFORMS


!MScan Model
!177
	1	4.41	0.34	2
	2	4.65	0.4	2
	3	5	0.49	2
	4	5.08	0.26	2
	5	5.21	0.5	2
	6	5.28	0.4	2
	7	5.34	0.6	2
	8	5.4	0.51	2
	9	5.44	0.48	2
	10	5.47	0.46	2
	11	5.5	0.47	2
	12	5.51	0.35	2
	13	5.53	0.29	2
	14	5.56	0.46	2
	15	5.57	0.32	2
	16	5.6	0.57	2
	17	5.63	0.53	2
	18	5.65	0.48	2
	19	5.67	0.37	2
	20	5.68	0.34	2
	21	5.71	0.54	2
	22	5.73	0.43	2
	23	5.74	0.26	2
	24	5.76	0.43	2
	25	5.77	0.27	2
	26	5.79	0.51	2
	27	5.8	0.3	2
	28	5.82	0.49	2
	29	5.84	0.5	2
	30	5.86	0.35	2
	31	5.88	0.52	2
	32	5.91	0.89	2
	33	5.94	0.39	2
	34	5.95	0.36	2
	35	5.97	0.49	2
	36	5.99	0.44	2
	37	6	0.34	2
	38	6.03	0.38	2
	39	6.04	0.31	2
	40	6.05	0.39	2
	41	6.07	0.42	2
	42	6.08	0.41	2
	43	6.09	0.4	2
	44	6.11	0.42	2
	45	6.12	0.44	2
	46	6.14	0.52	2
	47	6.16	0.46	2
	48	6.17	0.42	2
	49	6.19	0.42	2
	50	6.21	0.45	2
	51	6.22	0.44	2
	52	6.24	0.43	2
	53	6.26	0.45	2
	54	6.27	0.49	2
	55	6.29	0.46	2
	56	6.32	0.67	2
	57	6.34	0.64	2
	58	6.37	0.61	2
	59	6.39	0.6	2
	60	6.41	0.65	2
	61	6.44	0.6	2
	62	6.46	0.58	2
	63	6.48	0.59	2
	64	6.51	0.71	2
	65	6.54	0.78	2
	66	6.57	0.49	2
	67	6.59	0.64	2
	68	6.61	0.59	2
	69	6.63	0.44	2
	70	6.64	0.32	2
	71	6.66	0.37	2
	72	6.67	0.42	2
	73	6.68	0.4	2
	74	6.7	0.42	2
	75	6.71	0.39	2
	76	6.73	0.39	2
	77	6.74	0.43	2
	78	6.76	0.44	2
	79	6.78	0.57	2
	80	6.8	0.55	2
	81	6.82	0.53	2
	82	6.83	0.4	2
	83	6.85	0.44	2
	84	6.86	0.55	2
	85	6.87	0.5	2
	86	6.89	0.43	2
	87	6.9	0.4	2
	88	6.92	0.35	2
	89	6.93	0.34	2
	90	6.94	0.38	2
	91	6.95	0.4	2
	92	6.97	0.71	2
	93	6.99	0.32	2
	94	7	0.26	2
	95	7.01	0.26	2
	96	7.02	0.34	2
	97	7.03	0.33	2
	98	7.04	0.37	2
	99	7.06	0.47	2
	100	7.07	0.45	2
	101	7.09	0.35	2
	102	7.11	0.45	2
	103	7.13	0.59	2
	104	7.15	0.65	2
	105	7.18	0.51	2
	106	7.2	0.39	2
	107	7.21	0.64	2
	108	7.23	0.64	2
	109	7.25	0.63	2
	110	7.27	0.65	2
	111	7.29	0.53	2
	112	7.31	0.77	2
	113	7.33	0.96	2
	114	7.37	0.93	2
	115	7.41	1.6	2
	116	7.47	1.92	2
	117	7.51	1.19	2
	118	7.55	0.94	2
	119	7.57	0.69	2
	120	7.6	0.69	2
	121	7.64	0.98	2
	122	7.69	0.91	2
	123	7.75	1.4	2
	124	7.83	1.24	2
	125	7.87	0.74	2
	126	7.92	0.93	2
	127	7.95	0.83	2
	128	7.98	0.66	2
	129	8.02	0.77	2
	130	8.05	0.73	2
	131	8.09	0.79	2
	132	8.16	1.32	2
	133	8.2	0.54	2
	134	8.23	0.86	2
	135	8.27	0.7	2
	136	8.3	0.66	2
	137	8.33	0.57	2
	138	8.35	0.42	2
	139	8.37	0.32	2
	140	8.39	0.45	2
	141	8.41	0.52	2
	142	8.43	0.52	2
	143	8.45	0.57	2
	144	8.47	0.51	2
	145	8.49	0.42	2
	146	8.51	0.32	2
	147	8.52	0.33	2
	148	8.55	0.51	2
	149	8.57	0.28	2
	150	8.58	0.32	2
	151	8.6	0.44	2
	152	8.64	0.54	2
	153	8.67	0.45	2
	154	8.69	0.32	2
	155	8.71	0.36	2
	156	8.74	0.31	2
	157	8.76	0.28	2
	158	8.81	0.65	2
	159	8.87	0.68	2
	160	8.92	0.46	2
	161	9.02	0.97	2
	162	9.18	1.03	2
	163	9.34	0.95	2
	164	9.42	0.86	2
	165	9.51	1.05	1.74
	166	9.56	0.44	1.6
	167	9.73	1.1	2
	168	9.85	0.54	2
	169	10.21	1.15	2
	170	10.27	0.31	2
	171	10.35	0.59	2
	172	10.43	0.63	2
	173	10.58	1.25	2
	174	10.66	0.57	2
	175	10.75	0.57	2
	176	10.92	1.38	2
	177	12.41	0.82	2

