File:              	C:\Qtrac\Data\Daniel M Sørensen\MScan multicentre study\Data from centres\Bucharest\Processed data\TDLC01229D.QZD
Name:              	RO.BU.NC.8.1
Protocol:          	MSCAN-R2
Date:              	29/12/20
Start time:        	13:36:19
Age:               	36
Sex:               	F
Temperature:       	35.8
S/R sites:         	TA
NC/disease:        	NC8
Operator:          	TL
Comments:          	RO.NC.8.1.
M-SCAN DATA (7.1-1.6m)
Scanpts: 31, 34, 555, 560
Stim. (mA)     	Amp. (mV)
MS.1           	23.5           	4.465
MS.2           	23.5           	4.469
MS.3           	23.5           	4.471
MS.4           	23.5           	4.461
MS.5           	23.5           	4.459
MS.6           	23.5           	4.451
MS.7           	23.5           	4.439
MS.8           	23.5           	4.453
MS.9           	23.5           	4.457
MS.10          	23.5           	4.447
MS.11          	23.5           	4.449
MS.12          	23.5           	4.441
MS.13          	23.5           	4.457
MS.14          	23.5           	4.455
MS.15          	23.5           	4.455
MS.16          	23.5           	4.455
MS.17          	23.5           	4.445
MS.18          	23.5           	4.455
MS.19          	23.5           	4.457
MS.20          	23.5           	4.453
MS.21          	23.5           	4.469
MS.22          	23.5           	4.453
MS.23          	23.5           	4.463
MS.24          	23.405         	4.461
MS.25          	23.36          	4.455
MS.26          	23.312         	4.461
MS.27          	23.265         	4.455
MS.28          	23.22          	4.447
MS.29          	23.172         	4.449
MS.30          	23.127         	4.441
MS.31          	23.08          	4.443
MS.32          	23.035         	4.443
MS.33          	22.987         	4.449
MS.34          	22.942         	4.433
MS.35          	22.897         	4.451
MS.36          	22.85          	4.439
MS.37          	22.805         	4.451
MS.38          	22.76          	4.439
MS.39          	22.715         	4.431
MS.40          	22.67          	4.457
MS.41          	22.622         	4.457
MS.42          	22.577         	4.453
MS.43          	22.532         	4.435
MS.44          	22.487         	4.439
MS.45          	22.442         	4.453
MS.46          	22.397         	4.447
MS.47          	22.355         	4.445
MS.48          	22.31          	4.443
MS.49          	22.265         	4.437
MS.50          	22.22          	4.447
MS.51          	22.175         	4.461
MS.52          	22.132         	4.461
MS.53          	22.087         	4.453
MS.54          	22.042         	4.431
MS.55          	22             	4.431
MS.56          	21.955         	4.453
MS.57          	21.91          	4.435
MS.58          	21.868         	4.455
MS.59          	21.823         	4.439
MS.60          	21.78          	4.425
MS.61          	21.737         	4.417
MS.62          	21.692         	4.413
MS.63          	21.65          	4.429
MS.64          	21.608         	4.387
MS.65          	21.562         	4.429
MS.66          	21.52          	4.437
MS.67          	21.477         	4.449
MS.68          	21.435         	4.423
MS.69          	21.392         	4.381
MS.70          	21.35          	4.399
MS.71          	21.305         	4.427
MS.72          	21.262         	4.425
MS.73          	21.22          	4.401
MS.74          	21.177         	4.399
MS.75          	21.137         	4.405
MS.76          	21.095         	4.397
MS.77          	21.052         	4.411
MS.78          	21.01          	4.379
MS.79          	20.967         	4.405
MS.80          	20.925         	4.409
MS.81          	20.885         	4.391
MS.82          	20.842         	4.401
MS.83          	20.8           	4.381
MS.84          	20.76          	4.417
MS.85          	20.717         	4.391
MS.86          	20.677         	4.385
MS.87          	20.635         	4.401
MS.88          	20.595         	4.379
MS.89          	20.552         	4.393
MS.90          	20.512         	4.379
MS.91          	20.47          	4.381
MS.92          	20.43          	4.373
MS.93          	20.39          	4.373
MS.94          	20.347         	4.381
MS.95          	20.307         	4.383
MS.96          	20.267         	4.379
MS.97          	20.227         	4.365
MS.98          	20.185         	4.387
MS.99          	20.145         	4.375
MS.100         	20.105         	4.383
MS.101         	20.065         	4.355
MS.102         	20.025         	4.375
MS.103         	19.985         	4.363
MS.104         	19.945         	4.357
MS.105         	19.905         	4.351
MS.106         	19.865         	4.373
MS.107         	19.825         	4.367
MS.108         	19.788         	4.367
MS.109         	19.747         	4.341
MS.110         	19.708         	4.361
MS.111         	19.667         	4.351
MS.112         	19.63          	4.347
MS.113         	19.59          	4.349
MS.114         	19.55          	4.33
MS.115         	19.512         	4.341
MS.116         	19.472         	4.322
MS.117         	19.432         	4.33
MS.118         	19.395         	4.328
MS.119         	19.355         	4.349
MS.120         	19.317         	4.318
MS.121         	19.278         	4.322
MS.122         	19.24          	4.332
MS.123         	19.202         	4.324
MS.124         	19.163         	4.298
MS.125         	19.125         	4.332
MS.126         	19.087         	4.33
MS.127         	19.047         	4.316
MS.128         	19.01          	4.302
MS.129         	18.972         	4.284
MS.130         	18.935         	4.284
MS.131         	18.897         	4.314
MS.132         	18.86          	4.302
MS.133         	18.823         	4.286
MS.134         	18.785         	4.292
MS.135         	18.747         	4.284
MS.136         	18.71          	4.288
MS.137         	18.672         	4.28
MS.138         	18.635         	4.31
MS.139         	18.597         	4.298
MS.140         	18.56          	4.268
MS.141         	18.522         	4.258
MS.142         	18.485         	4.254
MS.143         	18.448         	4.276
MS.144         	18.413         	4.26
MS.145         	18.375         	4.266
MS.146         	18.337         	4.282
MS.147         	18.302         	4.246
MS.148         	18.265         	4.262
MS.149         	18.227         	4.248
MS.150         	18.192         	4.258
MS.151         	18.155         	4.26
MS.152         	18.12          	4.254
MS.153         	18.083         	4.234
MS.154         	18.047         	4.232
MS.155         	18.01          	4.242
MS.156         	17.975         	4.232
MS.157         	17.94          	4.252
MS.158         	17.903         	4.256
MS.159         	17.868         	4.24
MS.160         	17.833         	4.224
MS.161         	17.797         	4.22
MS.162         	17.76          	4.216
MS.163         	17.725         	4.234
MS.164         	17.69          	4.222
MS.165         	17.655         	4.21
MS.166         	17.62          	4.232
MS.167         	17.585         	4.214
MS.168         	17.55          	4.224
MS.169         	17.515         	4.226
MS.170         	17.48          	4.218
MS.171         	17.445         	4.191
MS.172         	17.41          	4.202
MS.173         	17.375         	4.195
MS.174         	17.34          	4.212
MS.175         	17.305         	4.195
MS.176         	17.27          	4.198
MS.177         	17.235         	4.183
MS.178         	17.202         	4.204
MS.179         	17.167         	4.193
MS.180         	17.132         	4.167
MS.181         	17.097         	4.183
MS.182         	17.065         	4.175
MS.183         	17.03          	4.159
MS.184         	16.997         	4.159
MS.185         	16.962         	4.143
MS.186         	16.927         	4.127
MS.187         	16.895         	4.107
MS.188         	16.86          	4.121
MS.189         	16.827         	4.121
MS.190         	16.792         	4.121
MS.191         	16.76          	4.097
MS.192         	16.727         	4.103
MS.193         	16.692         	4.097
MS.194         	16.66          	4.073
MS.195         	16.628         	4.061
MS.196         	16.592         	4.071
MS.197         	16.56          	4.028
MS.198         	16.528         	4.044
MS.199         	16.495         	4.046
MS.200         	16.46          	4.057
MS.201         	16.427         	4.014
MS.202         	16.395         	3.996
MS.203         	16.362         	4.01
MS.204         	16.33          	3.968
MS.205         	16.297         	3.958
MS.206         	16.265         	4.04
MS.207         	16.233         	3.996
MS.208         	16.2           	3.98
MS.209         	16.167         	3.944
MS.210         	16.135         	3.964
MS.211         	16.102         	3.94
MS.212         	16.07          	3.98
MS.213         	16.038         	3.962
MS.214         	16.007         	3.994
MS.215         	15.975         	3.968
MS.216         	15.943         	3.944
MS.217         	15.91          	3.958
MS.218         	15.88          	3.934
MS.219         	15.847         	3.964
MS.220         	15.815         	3.952
MS.221         	15.785         	3.895
MS.222         	15.752         	3.918
MS.223         	15.72          	3.855
MS.224         	15.69          	3.863
MS.225         	15.657         	3.867
MS.226         	15.627         	3.877
MS.227         	15.595         	3.867
MS.228         	15.565         	3.849
MS.229         	15.532         	3.839
MS.230         	15.502         	3.821
MS.231         	15.472         	3.797
MS.232         	15.44          	3.841
MS.233         	15.41          	3.771
MS.234         	15.38          	3.787
MS.235         	15.347         	3.843
MS.236         	15.318         	3.738
MS.237         	15.287         	3.722
MS.238         	15.257         	3.742
MS.239         	15.225         	3.791
MS.240         	15.195         	3.805
MS.241         	15.165         	3.71
MS.242         	15.135         	3.694
MS.243         	15.105         	3.696
MS.244         	15.075         	3.678
MS.245         	15.045         	3.734
MS.246         	15.015         	3.668
MS.247         	14.985         	3.694
MS.248         	14.955         	3.658
MS.249         	14.925         	3.636
MS.250         	14.895         	3.617
MS.251         	14.865         	3.595
MS.252         	14.835         	3.487
MS.253         	14.805         	3.545
MS.254         	14.775         	3.525
MS.255         	14.747         	3.569
MS.256         	14.717         	3.577
MS.257         	14.688         	3.535
MS.258         	14.657         	3.519
MS.259         	14.63          	3.43
MS.260         	14.6           	3.497
MS.261         	14.57          	3.424
MS.262         	14.542         	3.497
MS.263         	14.512         	3.38
MS.264         	14.483         	3.346
MS.265         	14.455         	3.422
MS.266         	14.425         	3.406
MS.267         	14.398         	3.364
MS.268         	14.367         	3.283
MS.269         	14.34          	3.301
MS.270         	14.31          	3.36
MS.271         	14.282         	3.295
MS.272         	14.252         	3.285
MS.273         	14.225         	3.313
MS.274         	14.197         	3.251
MS.275         	14.167         	3.285
MS.276         	14.14          	3.207
MS.277         	14.112         	3.217
MS.278         	14.082         	3.162
MS.279         	14.055         	3.19
MS.280         	14.028         	3.102
MS.281         	14             	3.152
MS.282         	13.97          	3.178
MS.283         	13.943         	3.132
MS.284         	13.915         	3.086
MS.285         	13.887         	3.021
MS.286         	13.86          	3.031
MS.287         	13.832         	2.959
MS.288         	13.805         	2.927
MS.289         	13.778         	3.066
MS.290         	13.75          	2.921
MS.291         	13.722         	2.898
MS.292         	13.695         	2.755
MS.293         	13.667         	2.878
MS.294         	13.64          	2.925
MS.295         	13.612         	2.798
MS.296         	13.585         	2.763
MS.297         	13.557         	2.802
MS.298         	13.53          	2.63
MS.299         	13.505         	2.719
MS.300         	13.477         	2.552
MS.301         	13.45          	2.594
MS.302         	13.422         	2.536
MS.303         	13.398         	2.546
MS.304         	13.37          	2.635
MS.305         	13.342         	2.534
MS.306         	13.318         	2.538
MS.307         	13.29          	2.51
MS.308         	13.262         	2.548
MS.309         	13.237         	2.461
MS.310         	13.21          	2.459
MS.311         	13.185         	2.33
MS.312         	13.157         	2.409
MS.313         	13.132         	2.349
MS.314         	13.105         	2.236
MS.315         	13.08          	2.332
MS.316         	13.052         	2.353
MS.317         	13.028         	2.286
MS.318         	13             	2.167
MS.319         	12.975         	2.27
MS.320         	12.947         	2.234
MS.321         	12.922         	2.157
MS.322         	12.898         	2.203
MS.323         	12.87          	2.008
MS.324         	12.845         	1.968
MS.325         	12.82          	2.155
MS.326         	12.795         	2.258
MS.327         	12.767         	2.04
MS.328         	12.742         	2.05
MS.329         	12.717         	2.149
MS.330         	12.693         	1.974
MS.331         	12.667         	1.871
MS.332         	12.642         	1.978
MS.333         	12.617         	2.032
MS.334         	12.59          	1.897
MS.335         	12.565         	1.972
MS.336         	12.54          	1.797
MS.337         	12.515         	1.863
MS.338         	12.49          	1.859
MS.339         	12.465         	1.837
MS.340         	12.44          	1.827
MS.341         	12.415         	1.774
MS.342         	12.392         	1.889
MS.343         	12.367         	1.732
MS.344         	12.342         	1.774
MS.345         	12.318         	1.77
MS.346         	12.292         	1.714
MS.347         	12.267         	1.611
MS.348         	12.242         	1.615
MS.349         	12.22          	1.716
MS.350         	12.195         	1.625
MS.351         	12.17          	1.67
MS.352         	12.145         	1.567
MS.353         	12.122         	1.587
MS.354         	12.097         	1.595
MS.355         	12.072         	1.593
MS.356         	12.05          	1.595
MS.357         	12.025         	1.559
MS.358         	12             	1.547
MS.359         	11.977         	1.497
MS.360         	11.952         	1.541
MS.361         	11.93          	1.575
MS.362         	11.905         	1.623
MS.363         	11.882         	1.523
MS.364         	11.858         	1.488
MS.365         	11.835         	1.486
MS.366         	11.81          	1.476
MS.367         	11.787         	1.454
MS.368         	11.762         	1.422
MS.369         	11.74          	1.484
MS.370         	11.717         	1.484
MS.371         	11.693         	1.456
MS.372         	11.67          	1.422
MS.373         	11.648         	1.406
MS.374         	11.622         	1.418
MS.375         	11.6           	1.4
MS.376         	11.577         	1.356
MS.377         	11.552         	1.358
MS.378         	11.53          	1.384
MS.379         	11.507         	1.283
MS.380         	11.485         	1.229
MS.381         	11.462         	1.277
MS.382         	11.438         	1.315
MS.383         	11.415         	1.285
MS.384         	11.392         	1.237
MS.385         	11.37          	1.265
MS.386         	11.347         	1.281
MS.387         	11.325         	1.229
MS.388         	11.302         	0.971
MS.389         	11.28          	1.158
MS.390         	11.257         	1.255
MS.391         	11.235         	1.11
MS.392         	11.212         	1.146
MS.393         	11.19          	1.223
MS.394         	11.167         	1.134
MS.395         	11.145         	1.102
MS.396         	11.122         	1.072
MS.397         	11.1           	1.059
MS.398         	11.077         	1.023
MS.399         	11.055         	1.118
MS.400         	11.035         	1.102
MS.401         	11.012         	1.092
MS.402         	10.99          	0.894
MS.403         	10.967         	0.945
MS.404         	10.945         	0.955
MS.405         	10.925         	0.796
MS.406         	10.903         	1.039
MS.407         	10.88          	0.779
MS.408         	10.86          	0.834
MS.409         	10.837         	0.888
MS.410         	10.815         	0.838
MS.411         	10.795         	0.864
MS.412         	10.773         	0.886
MS.413         	10.75          	0.854
MS.414         	10.73          	0.828
MS.415         	10.707         	0.826
MS.416         	10.688         	0.904
MS.417         	10.665         	0.767
MS.418         	10.645         	0.826
MS.419         	10.622         	0.689
MS.420         	10.602         	0.777
MS.421         	10.58          	0.679
MS.422         	10.56          	0.786
MS.423         	10.537         	0.749
MS.424         	10.517         	0.757
MS.425         	10.495         	0.723
MS.426         	10.475         	0.632
MS.427         	10.455         	0.626
MS.428         	10.432         	0.649
MS.429         	10.412         	0.645
MS.430         	10.392         	0.675
MS.431         	10.37          	0.624
MS.432         	10.35          	0.628
MS.433         	10.33          	0.59
MS.434         	10.31          	0.655
MS.435         	10.287         	0.574
MS.436         	10.267         	0.602
MS.437         	10.247         	0.6
MS.438         	10.227         	0.512
MS.439         	10.205         	0.522
MS.440         	10.185         	0.691
MS.441         	10.165         	0.55
MS.442         	10.145         	0.57
MS.443         	10.125         	0.564
MS.444         	10.105         	0.616
MS.445         	10.085         	0.564
MS.446         	10.065         	0.491
MS.447         	10.045         	0.54
MS.448         	10.025         	0.518
MS.449         	10.005         	0.552
MS.450         	9.985          	0.504
MS.451         	9.965          	0.441
MS.452         	9.945          	0.451
MS.453         	9.925          	0.463
MS.454         	9.905          	0.463
MS.455         	9.885          	0.455
MS.456         	9.865          	0.455
MS.457         	9.845          	0.455
MS.458         	9.825          	0.475
MS.459         	9.805          	0.437
MS.460         	9.787          	0.455
MS.461         	9.767          	0.455
MS.462         	9.747          	0.451
MS.463         	9.727          	0.463
MS.464         	9.707          	0.371
MS.465         	9.69           	0.377
MS.466         	9.67           	0.377
MS.467         	9.65           	0.411
MS.468         	9.63           	0.371
MS.469         	9.613          	0.383
MS.470         	9.592          	0.357
MS.471         	9.573          	0.447
MS.472         	9.555          	0.348
MS.473         	9.535          	0.334
MS.474         	9.515          	0.33
MS.475         	9.497          	0.35
MS.476         	9.477          	0.334
MS.477         	9.46           	0.357
MS.478         	9.44           	0.312
MS.479         	9.422          	0.357
MS.480         	9.403          	0.34
MS.481         	9.385          	0.342
MS.482         	9.365          	0.379
MS.483         	9.347          	0.282
MS.484         	9.327          	0.298
MS.485         	9.31           	0.268
MS.486         	9.29           	0.387
MS.487         	9.273          	0.264
MS.488         	9.252          	0.324
MS.489         	9.235          	0.258
MS.490         	9.217          	0.318
MS.491         	9.198          	0.236
MS.492         	9.18           	0.31
MS.493         	9.162          	0.312
MS.494         	9.142          	0.282
MS.495         	9.125          	0.252
MS.496         	9.108          	0.264
MS.497         	9.087          	0.264
MS.498         	9.07           	0.262
MS.499         	9.052          	0.302
MS.500         	9.035          	0.346
MS.501         	9.015          	0.29
MS.502         	8.997          	0.266
MS.503         	8.98           	0.344
MS.504         	8.962          	0.236
MS.505         	8.945          	0.336
MS.506         	8.925          	0.246
MS.507         	8.908          	0.234
MS.508         	8.89           	0.23
MS.509         	8.872          	0.242
MS.510         	8.855          	0.234
MS.511         	8.837          	0.224
MS.512         	8.82           	0.191
MS.513         	8.802          	0.224
MS.514         	8.785          	0.244
MS.515         	8.767          	0.234
MS.516         	8.75           	0.214
MS.517         	8.733          	0.197
MS.518         	8.715          	0.185
MS.519         	8.698          	0.203
MS.520         	8.68           	0.205
MS.521         	8.662          	0.197
MS.522         	8.645          	0.181
MS.523         	8.627          	0.179
MS.524         	8.61           	0.038
MS.525         	8.592          	0.197
MS.526         	8.575          	0.052
MS.527         	8.56           	0.177
MS.528         	8.542          	0.181
MS.529         	8.525          	0.203
MS.530         	8.507          	0.177
MS.531         	8.49           	0.179
MS.532         	8.475          	0.03
MS.533         	8.457          	0.026
MS.534         	8.44           	0.028
MS.535         	8.422          	0.175
MS.536         	8.408          	0.03
MS.537         	8.39           	0.03
MS.538         	8.372          	0.036
MS.539         	8.355          	0.032
MS.540         	8.34           	0.03
MS.541         	8.323          	0.03
MS.542         	8.305          	0.026
MS.543         	8.29           	0.026
MS.544         	8.273          	0.028
MS.545         	8.257          	0.032
MS.546         	8.24           	0.032
MS.547         	8.222          	0.03
MS.548         	8.207          	0.026
MS.549         	8.19           	0.085
MS.550         	8.175          	0.073
MS.551         	8.158          	0.032
MS.552         	8.142          	0.032
MS.553         	8.125          	0.032
MS.554         	8.11           	0.028
MS.555         	8.092          	0.03
MS.556         	8.077          	0.034
MS.557         	8.06           	0.028
MS.558         	8.045          	0.024
MS.559         	8.028          	0.03
MS.560         	8.012          	0.02
MS.561         	7.997          	0.032
MS.562         	7.98           	0.024
MS.563         	7.965          	0.024
MS.564         	7.947          	0.028
MS.565         	7.932          	0.026
MS.566         	7.918          	0.044
MS.567         	7.9            	0.026
MS.568         	7.885          	0.028
MS.569         	7.87           	0.02
MS.570         	7.855          	0.036
MS.571         	7.837          	0.024
MS.572         	7.822          	0.026
MS.573         	7.807          	0.022
MS.574         	7.79           	0.028
MS.575         	7.775          	0.018
MS.576         	7.76           	0.024
MS.577         	7.745          	0.026
MS.578         	7.73           	0.018
MS.579         	7.712          	0.173
MS.580         	7.697          	0.042
MS.581         	7.682          	0.026
MS.582         	7.668          	0.026
MS.583         	7.652          	0.032
MS.584         	7.637          	0.026
MS.585         	7.622          	0.02
MS.586         	7.607          	0.022
MS.587         	7.59           	0.026
MS.588         	7.575          	0.022
MS.589         	7.56           	0.022
MS.590         	7.545          	0.026
MS.591         	7.53           	0.024
MS.592         	7.515          	0.024
MS.593         	7.5            	0.026
MS.594         	7.485          	0.03
MS.595         	7.47           	0.026
DERIVED EXCITABILITY VARIABLES
Program = QTracP 3/4/2020
Threshold method = 6 (optimised for CAP, using data for present condition only)
SR method = 1 (using actual data values)
6.                 	0.000               	Peak response\(mV)
9.                 	35.8                	Temperature ( C)
17.                	36                  	Age (years)
18.                	2                   	Sex (M=1, F=2)

EXTRA VARIABLES

MScPeak(mV) = 4.42
MScS5(mA) = 8.8
MScS50(mA) = 12.91
MScS95(mA) = 17.31
MScNSteps = 2
MScSteps(%) = 4.2
MScStepMax(%) = 2.2
MScD50 = 61
MScSlope = 4.08
MSFPeakAmp(mV) = 4.41
MSFNUnits = 159
MSFMeanUnitAmp(uV) = 27.8
MSFHuntTime(m) = 3.4
MSFError(%) = 0.788
MSFNLarge = 48.83
MSFMedianAmp(%) = 0.549
MSFMedianAmp(mV) = 0.0242
MSFHalfAmpAmp(%) = 0.655
MSFHalfAmpAmp(mV) = 0.0289
MSFLargestAmp(%) = 3.14
MSFLargestAmp(mV) = 0.139
MSFMeanRS(%) = 2
MSFOpts = 10106121
MScDuration(min) = 5.5
MSFTraces = 530
MSFSizeLimit(uV) = 11
MSFLimitType = 1
MSFSmallestAmp(uV) = 11.2

EXTRA WAVEFORMS


!MScan Model
!159
	1	8.35	0.29	2
	2	8.56	3.14	2
	3	8.75	1.03	2
	4	8.85	0.66	2
	5	9.23	1.39	2
	6	9.45	0.96	2
	7	9.59	0.66	2
	8	9.66	0.66	2
	9	9.74	0.55	2
	10	9.84	0.71	2
	11	9.9	0.41	2
	12	9.95	0.52	2
	13	10.03	0.59	2
	14	10.27	1.94	2
	15	10.39	0.86	2
	16	10.46	0.58	2
	17	10.51	0.67	2
	18	10.56	0.82	2
	19	10.63	0.85	2
	20	10.81	1.56	2
	21	10.81	0.39	2
	22	10.9	1.15	2
	23	10.97	1.06	2
	24	11.03	1.3	2
	25	11.13	2.31	2
	26	11.31	1.69	2
	27	11.4	1.08	2
	28	11.44	0.71	2
	29	11.47	0.67	2
	30	11.51	0.58	2
	31	11.54	0.45	2
	32	11.57	0.49	2
	33	11.63	0.43	2
	34	11.67	0.48	2
	35	11.71	0.66	2
	36	11.75	0.51	2
	37	11.82	0.72	2
	38	11.89	0.59	2
	39	11.98	0.74	2
	40	12.05	0.53	2
	41	12.15	0.45	2
	42	12.19	0.55	2
	43	12.23	0.56	2
	44	12.26	0.61	2
	45	12.31	0.6	2
	46	12.35	0.62	2
	47	12.35	0.59	2
	48	12.4	0.88	2
	49	12.48	1.22	2
	50	12.53	0.69	2
	51	12.57	0.99	2
	52	12.62	1.01	2
	53	12.73	1.58	2
	54	12.82	1.5	2
	55	12.9	1.63	2
	56	12.91	0.59	2
	57	12.99	1.47	2
	58	13.02	0.52	2
	59	13.05	0.39	2
	60	13.07	0.64	2
	61	13.09	0.54	2
	62	13.12	0.47	2
	63	13.15	0.72	2
	64	13.2	0.84	2.1
	65	13.25	0.79	2
	66	13.29	0.61	2
	67	13.32	0.48	2
	68	13.35	1.04	2
	69	13.38	0.57	2
	70	13.42	0.63	2
	71	13.48	0.6	2
	72	13.51	0.65	2
	73	13.54	0.66	2
	74	13.57	0.65	2
	75	13.6	0.62	2
	76	13.62	0.59	2
	77	13.65	0.68	2
	78	13.68	0.7	2.2
	79	13.72	0.66	2
	80	13.75	0.96	2
	81	13.78	0.61	2
	82	13.81	0.59	2
	83	13.83	0.46	2
	84	13.86	0.45	2
	85	13.88	0.47	2
	86	13.9	0.43	2
	87	13.93	0.41	2
	88	13.95	0.38	2
	89	13.97	0.31	2
	90	13.98	0.3	2
	91	14	0.31	2
	92	14.02	0.35	2
	93	14.04	0.3	2
	94	14.06	0.27	2
	95	14.08	0.27	2
	96	14.1	0.31	2
	97	14.12	0.35	2
	98	14.14	0.36	2
	99	14.19	0.33	2
	100	14.21	0.32	2
	101	14.24	0.36	2
	102	14.28	0.53	2
	103	14.32	0.51	2
	104	14.36	0.47	2
	105	14.39	0.4	2
	106	14.43	0.4	2
	107	14.46	0.31	2
	108	14.49	0.45	2
	109	14.54	0.6	2
	110	14.6	0.61	2
	111	14.66	0.67	2
	112	14.7	0.36	2
	113	14.74	0.51	2
	114	14.77	0.47	2
	115	14.81	0.46	2
	116	14.85	0.56	2
	117	14.9	0.3	2
	118	14.94	0.52	2
	119	14.99	0.55	2
	120	15.05	0.61	2
	121	15.1	0.44	2
	122	15.19	0.66	2
	123	15.28	0.58	2
	124	15.36	0.69	2
	125	15.43	0.41	2
	126	15.52	0.56	2
	127	15.57	0.3	2
	128	15.62	0.34	2
	129	15.67	0.3	2
	130	15.72	0.36	2
	131	15.77	0.42	2
	132	15.83	0.26	2
	133	15.95	0.64	2
	134	16.19	0.75	2
	135	16.33	0.38	2
	136	16.42	0.47	2
	137	16.5	0.46	2
	138	16.56	0.43	2
	139	16.69	0.56	2
	140	16.76	0.33	2
	141	16.83	0.42	2
	142	16.9	0.32	2
	143	16.96	0.25	2
	144	17.04	0.36	2
	145	17.13	0.34	2
	146	17.23	0.31	2
	147	17.36	0.34	2
	148	17.55	0.28	2
	149	17.86	0.45	2
	150	18.19	0.42	2
	151	18.39	0.35	2
	152	18.7	0.4	2
	153	18.97	0.42	2
	154	19.23	0.37	2
	155	19.52	0.46	2
	156	19.8	0.32	2
	157	20.13	0.38	2
	158	20.94	0.66	2
	159	21.71	0.67	2

