File:              	C:\Qtrac\Data\Daniel M Sørensen\MScan multicentre study\Data from centres\Odense\Processed data\TKC01021A.QZD
Name:              	DK.ODE.NC.6.2
Protocol:          	MSCAN-R2
Date:              	21/10/20
Start time:        	11:25:09
Age:               	50
Sex:               	F
Temperature:       	31.8
S/R sites:         	APB
NC/disease:        	NC
Operator:          	TK
Comments:
M-SCAN DATA (8.6-0.8m)
Scanpts: 340, 349, 759, 771
Stim. (mA)     	Amp. (mV)
MS.1           	16.5           	10.47
MS.2           	16.5           	10.562
MS.3           	16.5           	10.699
MS.4           	16.5           	10.778
MS.5           	16.5           	10.675
MS.6           	16.5           	10.649
MS.7           	16.5           	10.893
MS.8           	16.5           	11.038
MS.9           	16.5           	11.038
MS.10          	16.5           	10.973
MS.11          	16.5           	10.838
MS.12          	16.5           	10.905
MS.13          	16.5           	11.009
MS.14          	16.5           	10.941
MS.15          	16.5           	10.943
MS.16          	16.5           	10.83
MS.17          	16.5           	10.983
MS.18          	16.5           	10.947
MS.19          	16.5           	11.193
MS.20          	16.5           	11.064
MS.21          	16.5           	10.967
MS.22          	16.5           	10.856
MS.23          	16.435         	10.868
MS.24          	16.4           	10.868
MS.25          	16.368         	10.874
MS.26          	16.335         	10.965
MS.27          	16.302         	10.822
MS.28          	16.27          	10.725
MS.29          	16.237         	10.623
MS.30          	16.205         	10.657
MS.31          	16.172         	10.584
MS.32          	16.14          	10.627
MS.33          	16.108         	10.588
MS.34          	16.077         	10.651
MS.35          	16.045         	10.667
MS.36          	16.012         	10.576
MS.37          	15.98          	10.681
MS.38          	15.947         	10.609
MS.39          	15.917         	10.643
MS.40          	15.885         	10.699
MS.41          	15.852         	10.639
MS.42          	15.822         	10.671
MS.43          	15.79          	10.715
MS.44          	15.757         	10.631
MS.45          	15.727         	10.689
MS.46          	15.695         	10.675
MS.47          	15.665         	10.655
MS.48          	15.632         	10.619
MS.49          	15.602         	10.657
MS.50          	15.57          	10.733
MS.51          	15.54          	10.649
MS.52          	15.507         	10.78
MS.53          	15.477         	10.788
MS.54          	15.445         	10.748
MS.55          	15.415         	10.774
MS.56          	15.385         	10.752
MS.57          	15.352         	10.766
MS.58          	15.322         	10.75
MS.59          	15.292         	10.762
MS.60          	15.262         	10.798
MS.61          	15.233         	10.796
MS.62          	15.2           	10.816
MS.63          	15.17          	10.748
MS.64          	15.14          	10.723
MS.65          	15.11          	10.709
MS.66          	15.08          	10.683
MS.67          	15.05          	10.74
MS.68          	15.02          	10.663
MS.69          	14.99          	10.703
MS.70          	14.96          	10.786
MS.71          	14.93          	10.752
MS.72          	14.9           	10.754
MS.73          	14.87          	10.782
MS.74          	14.84          	10.752
MS.75          	14.81          	10.669
MS.76          	14.78          	10.802
MS.77          	14.752         	10.766
MS.78          	14.722         	10.663
MS.79          	14.693         	10.695
MS.80          	14.662         	10.703
MS.81          	14.635         	10.701
MS.82          	14.605         	10.681
MS.83          	14.575         	10.637
MS.84          	14.547         	10.607
MS.85          	14.517         	10.552
MS.86          	14.487         	10.514
MS.87          	14.46          	10.514
MS.88          	14.43          	10.57
MS.89          	14.403         	10.562
MS.90          	14.372         	10.627
MS.91          	14.345         	10.689
MS.92          	14.315         	10.599
MS.93          	14.287         	10.54
MS.94          	14.257         	10.601
MS.95          	14.23          	10.631
MS.96          	14.202         	10.627
MS.97          	14.172         	10.605
MS.98          	14.145         	10.637
MS.99          	14.117         	10.594
MS.100         	14.087         	10.526
MS.101         	14.06          	10.607
MS.102         	14.032         	10.629
MS.103         	14.005         	10.601
MS.104         	13.975         	10.623
MS.105         	13.947         	10.621
MS.106         	13.92          	10.822
MS.107         	13.892         	10.723
MS.108         	13.865         	10.641
MS.109         	13.837         	10.599
MS.110         	13.81          	10.649
MS.111         	13.782         	10.609
MS.112         	13.755         	10.574
MS.113         	13.727         	10.554
MS.114         	13.7           	10.629
MS.115         	13.672         	10.552
MS.116         	13.645         	10.592
MS.117         	13.617         	10.627
MS.118         	13.59          	10.564
MS.119         	13.562         	10.542
MS.120         	13.535         	10.564
MS.121         	13.51          	10.605
MS.122         	13.483         	10.584
MS.123         	13.455         	10.625
MS.124         	13.427         	10.689
MS.125         	13.403         	10.651
MS.126         	13.375         	10.592
MS.127         	13.347         	10.685
MS.128         	13.32          	10.667
MS.129         	13.295         	10.639
MS.130         	13.267         	10.661
MS.131         	13.242         	10.677
MS.132         	13.215         	10.766
MS.133         	13.188         	10.774
MS.134         	13.162         	10.768
MS.135         	13.135         	10.768
MS.136         	13.11          	10.826
MS.137         	13.082         	10.74
MS.138         	13.057         	10.889
MS.139         	13.032         	10.725
MS.140         	13.005         	10.818
MS.141         	12.98          	10.782
MS.142         	12.952         	10.794
MS.143         	12.927         	10.802
MS.144         	12.903         	10.772
MS.145         	12.875         	10.79
MS.146         	12.85          	10.77
MS.147         	12.825         	10.788
MS.148         	12.8           	10.721
MS.149         	12.773         	10.697
MS.150         	12.747         	10.735
MS.151         	12.722         	10.735
MS.152         	12.697         	10.762
MS.153         	12.672         	10.8
MS.154         	12.645         	10.729
MS.155         	12.62          	10.752
MS.156         	12.595         	10.744
MS.157         	12.57          	10.748
MS.158         	12.545         	10.709
MS.159         	12.52          	10.742
MS.160         	12.495         	10.768
MS.161         	12.47          	10.782
MS.162         	12.445         	10.786
MS.163         	12.42          	10.735
MS.164         	12.395         	10.762
MS.165         	12.37          	10.77
MS.166         	12.347         	10.76
MS.167         	12.322         	10.74
MS.168         	12.297         	10.731
MS.169         	12.273         	10.746
MS.170         	12.247         	10.733
MS.171         	12.222         	10.77
MS.172         	12.2           	10.828
MS.173         	12.175         	10.774
MS.174         	12.15          	10.796
MS.175         	12.125         	10.756
MS.176         	12.102         	10.796
MS.177         	12.077         	10.81
MS.178         	12.052         	10.762
MS.179         	12.03          	10.768
MS.180         	12.005         	10.816
MS.181         	11.983         	10.79
MS.182         	11.957         	10.784
MS.183         	11.932         	10.792
MS.184         	11.91          	10.754
MS.185         	11.885         	10.8
MS.186         	11.863         	10.804
MS.187         	11.837         	10.76
MS.188         	11.815         	10.828
MS.189         	11.79          	10.75
MS.190         	11.767         	10.836
MS.191         	11.745         	10.776
MS.192         	11.72          	10.87
MS.193         	11.697         	10.796
MS.194         	11.675         	10.786
MS.195         	11.65          	10.794
MS.196         	11.627         	10.862
MS.197         	11.605         	10.798
MS.198         	11.58          	10.766
MS.199         	11.557         	10.822
MS.200         	11.535         	10.862
MS.201         	11.512         	10.826
MS.202         	11.488         	10.836
MS.203         	11.465         	10.824
MS.204         	11.443         	10.599
MS.205         	11.42          	10.909
MS.206         	11.398         	10.913
MS.207         	11.375         	10.834
MS.208         	11.352         	10.746
MS.209         	11.33          	10.907
MS.210         	11.307         	10.893
MS.211         	11.282         	10.74
MS.212         	11.26          	10.788
MS.213         	11.238         	10.814
MS.214         	11.215         	10.854
MS.215         	11.195         	10.816
MS.216         	11.172         	10.81
MS.217         	11.15          	10.858
MS.218         	11.127         	10.752
MS.219         	11.105         	10.858
MS.220         	11.082         	10.784
MS.221         	11.06          	10.798
MS.222         	11.037         	10.792
MS.223         	11.015         	10.76
MS.224         	10.995         	10.812
MS.225         	10.972         	10.824
MS.226         	10.95          	10.8
MS.227         	10.927         	10.868
MS.228         	10.907         	10.776
MS.229         	10.885         	10.852
MS.230         	10.863         	10.852
MS.231         	10.84          	10.883
MS.232         	10.82          	10.889
MS.233         	10.797         	10.858
MS.234         	10.778         	10.816
MS.235         	10.755         	10.84
MS.236         	10.733         	10.889
MS.237         	10.712         	10.832
MS.238         	10.69          	10.868
MS.239         	10.67          	10.921
MS.240         	10.648         	10.893
MS.241         	10.627         	10.885
MS.242         	10.605         	10.897
MS.243         	10.585         	10.874
MS.244         	10.562         	10.84
MS.245         	10.542         	10.905
MS.246         	10.52          	10.87
MS.247         	10.5           	10.836
MS.248         	10.48          	10.852
MS.249         	10.457         	10.885
MS.250         	10.438         	10.826
MS.251         	10.415         	10.836
MS.252         	10.395         	10.796
MS.253         	10.375         	10.901
MS.254         	10.355         	10.796
MS.255         	10.332         	10.81
MS.256         	10.312         	10.792
MS.257         	10.292         	10.796
MS.258         	10.273         	10.836
MS.259         	10.25          	10.834
MS.260         	10.23          	10.887
MS.261         	10.21          	10.866
MS.262         	10.19          	10.87
MS.263         	10.17          	10.838
MS.264         	10.15          	10.83
MS.265         	10.127         	10.83
MS.266         	10.108         	10.838
MS.267         	10.087         	10.834
MS.268         	10.068         	10.814
MS.269         	10.047         	10.8
MS.270         	10.028         	10.876
MS.271         	10.007         	10.866
MS.272         	9.988          	10.84
MS.273         	9.967          	10.8
MS.274         	9.948          	10.864
MS.275         	9.927          	10.842
MS.276         	9.907          	10.883
MS.277         	9.887          	10.917
MS.278         	9.867          	10.792
MS.279         	9.85           	10.963
MS.280         	9.83           	10.925
MS.281         	9.81           	10.872
MS.282         	9.79           	10.854
MS.283         	9.77           	10.85
MS.284         	9.75           	10.874
MS.285         	9.733          	10.854
MS.286         	9.712          	10.925
MS.287         	9.693          	10.923
MS.288         	9.672          	10.903
MS.289         	9.655          	10.868
MS.290         	9.635          	10.949
MS.291         	9.615          	10.935
MS.292         	9.595          	10.88
MS.293         	9.577          	10.969
MS.294         	9.557          	10.943
MS.295         	9.537          	10.973
MS.296         	9.52           	10.959
MS.297         	9.5            	10.953
MS.298         	9.483          	10.87
MS.299         	9.462          	10.911
MS.300         	9.445          	10.891
MS.301         	9.425          	10.967
MS.302         	9.405          	10.969
MS.303         	9.387          	10.921
MS.304         	9.367          	10.927
MS.305         	9.35           	10.981
MS.306         	9.33           	10.923
MS.307         	9.312          	10.929
MS.308         	9.295          	10.977
MS.309         	9.275          	10.973
MS.310         	9.257          	11.021
MS.311         	9.238          	10.987
MS.312         	9.22           	10.969
MS.313         	9.202          	11.104
MS.314         	9.182          	10.949
MS.315         	9.165          	11.048
MS.316         	9.148          	11.023
MS.317         	9.127          	11.092
MS.318         	9.11           	11.167
MS.319         	9.092          	11.094
MS.320         	9.073          	11.034
MS.321         	9.055          	10.949
MS.322         	9.037          	10.971
MS.323         	9.02           	10.943
MS.324         	9              	11.005
MS.325         	8.983          	10.993
MS.326         	8.965          	11.019
MS.327         	8.948          	10.981
MS.328         	8.93           	11.007
MS.329         	8.912          	11.048
MS.330         	8.895          	10.991
MS.331         	8.875          	11.032
MS.332         	8.858          	11.134
MS.333         	8.84           	11.07
MS.334         	8.823          	11.013
MS.335         	8.805          	11.058
MS.336         	8.787          	10.983
MS.337         	8.77           	11.007
MS.338         	8.752          	11.046
MS.339         	8.735          	11.009
MS.340         	8.717          	11.07
MS.341         	8.7            	11.013
MS.342         	8.682          	11.032
MS.343         	8.665          	11.078
MS.344         	8.648          	11.074
MS.345         	8.63           	11.015
MS.346         	8.613          	10.973
MS.347         	8.597          	11.026
MS.348         	8.58           	10.983
MS.349         	8.562          	11.034
MS.350         	8.545          	11.052
MS.351         	8.528          	11.015
MS.352         	8.51           	11.06
MS.353         	8.495          	11.074
MS.354         	8.477          	11.08
MS.355         	8.46           	11.056
MS.356         	8.443          	11.064
MS.357         	8.427          	11.122
MS.358         	8.41           	10.993
MS.359         	8.392          	11.088
MS.360         	8.375          	11.054
MS.361         	8.36           	11.104
MS.362         	8.342          	11.1
MS.363         	8.325          	11.082
MS.364         	8.31           	11.028
MS.365         	8.292          	11.205
MS.366         	8.275          	11.269
MS.367         	8.26           	11.211
MS.368         	8.242          	11.217
MS.369         	8.227          	11.152
MS.370         	8.21           	11.134
MS.371         	8.193          	11.023
MS.372         	8.177          	11.108
MS.373         	8.16           	11.015
MS.374         	8.145          	11.221
MS.375         	8.127          	11.237
MS.376         	8.113          	11.275
MS.377         	8.095          	11.001
MS.378         	8.08           	11.086
MS.379         	8.062          	11.094
MS.380         	8.047          	10.945
MS.381         	8.033          	11.118
MS.382         	8.015          	10.975
MS.383         	8              	11.128
MS.384         	7.982          	10.937
MS.385         	7.967          	10.989
MS.386         	7.952          	10.949
MS.387         	7.935          	11.062
MS.388         	7.92           	10.939
MS.389         	7.905          	10.991
MS.390         	7.887          	10.953
MS.391         	7.872          	10.935
MS.392         	7.857          	10.981
MS.393         	7.84           	11.001
MS.394         	7.825          	10.933
MS.395         	7.81           	10.949
MS.396         	7.795          	10.999
MS.397         	7.777          	10.911
MS.398         	7.762          	10.963
MS.399         	7.747          	10.963
MS.400         	7.732          	10.985
MS.401         	7.717          	10.955
MS.402         	7.7            	10.937
MS.403         	7.685          	10.907
MS.404         	7.67           	10.923
MS.405         	7.655          	10.919
MS.406         	7.64           	10.971
MS.407         	7.625          	10.923
MS.408         	7.61           	10.923
MS.409         	7.595          	10.949
MS.410         	7.58           	10.889
MS.411         	7.562          	10.987
MS.412         	7.547          	10.957
MS.413         	7.532          	10.925
MS.414         	7.517          	10.735
MS.415         	7.503          	10.893
MS.416         	7.487          	10.677
MS.417         	7.472          	10.911
MS.418         	7.457          	10.822
MS.419         	7.442          	10.693
MS.420         	7.427          	10.957
MS.421         	7.415          	11.026
MS.422         	7.4            	10.864
MS.423         	7.385          	10.915
MS.424         	7.37           	10.625
MS.425         	7.355          	10.84
MS.426         	7.34           	10.909
MS.427         	7.325          	10.592
MS.428         	7.31           	10.838
MS.429         	7.295          	10.588
MS.430         	7.282          	10.834
MS.431         	7.267          	10.331
MS.432         	7.253          	10.689
MS.433         	7.237          	10.536
MS.434         	7.222          	10.679
MS.435         	7.21           	10.596
MS.436         	7.195          	10.631
MS.437         	7.18           	10.671
MS.438         	7.165          	10.804
MS.439         	7.152          	10.276
MS.440         	7.137          	10.397
MS.441         	7.122          	10.437
MS.442         	7.11           	10.703
MS.443         	7.095          	10.492
MS.444         	7.08           	10.482
MS.445         	7.067          	10.796
MS.446         	7.052          	10.482
MS.447         	7.037          	10.415
MS.448         	7.025          	10.439
MS.449         	7.01           	10.419
MS.450         	6.995          	10.391
MS.451         	6.983          	10.538
MS.452         	6.967          	10.472
MS.453         	6.955          	10.439
MS.454         	6.94           	10.51
MS.455         	6.927          	10.456
MS.456         	6.912          	10.377
MS.457         	6.9            	10.476
MS.458         	6.885          	10.29
MS.459         	6.872          	10.319
MS.460         	6.858          	10.393
MS.461         	6.845          	10.47
MS.462         	6.83           	10.331
MS.463         	6.817          	10.389
MS.464         	6.802          	10.192
MS.465         	6.79           	10.278
MS.466         	6.775          	10.099
MS.467         	6.762          	10.119
MS.468         	6.747          	10.125
MS.469         	6.735          	10.109
MS.470         	6.722          	10.024
MS.471         	6.707          	10.226
MS.472         	6.695          	10.033
MS.473         	6.682          	10.031
MS.474         	6.668          	10.214
MS.475         	6.655          	9.885
MS.476         	6.642          	10.039
MS.477         	6.628          	10.21
MS.478         	6.615          	9.896
MS.479         	6.602          	10.075
MS.480         	6.587          	10.004
MS.481         	6.575          	9.926
MS.482         	6.562          	10.204
MS.483         	6.55           	9.279
MS.484         	6.535          	9.829
MS.485         	6.523          	9.855
MS.486         	6.51           	9.509
MS.487         	6.497          	9.799
MS.488         	6.485          	9.837
MS.489         	6.47           	9.89
MS.490         	6.457          	9.545
MS.491         	6.445          	9.839
MS.492         	6.432          	9.543
MS.493         	6.42           	9.465
MS.494         	6.407          	9.515
MS.495         	6.395          	9.11
MS.496         	6.38           	9.183
MS.497         	6.367          	9.11
MS.498         	6.355          	9.41
MS.499         	6.342          	8.611
MS.500         	6.33           	8.693
MS.501         	6.317          	8.824
MS.502         	6.305          	8.925
MS.503         	6.293          	8.858
MS.504         	6.28           	9.005
MS.505         	6.267          	8.929
MS.506         	6.255          	9.134
MS.507         	6.242          	8.155
MS.508         	6.23           	8.635
MS.509         	6.217          	8.478
MS.510         	6.205          	8.333
MS.511         	6.192          	8.586
MS.512         	6.18           	8.099
MS.513         	6.168          	8.171
MS.514         	6.155          	8.135
MS.515         	6.142          	8.192
MS.516         	6.13           	7.902
MS.517         	6.117          	7.99
MS.518         	6.108          	7.418
MS.519         	6.095          	7.487
MS.520         	6.082          	7.323
MS.521         	6.07           	7.434
MS.522         	6.057          	6.997
MS.523         	6.045          	7.422
MS.524         	6.032          	7.193
MS.525         	6.023          	7.108
MS.526         	6.01           	6.693
MS.527         	5.997          	6.804
MS.528         	5.985          	7.223
MS.529         	5.972          	6.584
MS.530         	5.963          	6.888
MS.531         	5.95           	6.886
MS.532         	5.938          	6.705
MS.533         	5.925          	6.671
MS.534         	5.915          	6.681
MS.535         	5.902          	6.737
MS.536         	5.89           	6.627
MS.537         	5.88           	6.409
MS.538         	5.867          	6.536
MS.539         	5.855          	6.451
MS.540         	5.842          	6.508
MS.541         	5.832          	5.94
MS.542         	5.82           	6.393
MS.543         	5.807          	6.308
MS.544         	5.797          	6.149
MS.545         	5.785          	6.117
MS.546         	5.775          	5.857
MS.547         	5.762          	5.96
MS.548         	5.75           	5.402
MS.549         	5.74           	5.811
MS.550         	5.727          	5.464
MS.551         	5.717          	5.521
MS.552         	5.705          	5.791
MS.553         	5.692          	5.686
MS.554         	5.682          	5.474
MS.555         	5.67           	5.525
MS.556         	5.66           	5.319
MS.557         	5.648          	5.201
MS.558         	5.637          	5.456
MS.559         	5.625          	5.116
MS.560         	5.615          	4.798
MS.561         	5.602          	4.703
MS.562         	5.592          	4.782
MS.563         	5.58           	4.842
MS.564         	5.57           	4.711
MS.565         	5.557          	5.031
MS.566         	5.547          	4.846
MS.567         	5.537          	4.506
MS.568         	5.525          	4.703
MS.569         	5.515          	4.125
MS.570         	5.503          	3.752
MS.571         	5.492          	4.369
MS.572         	5.483          	4.133
MS.573         	5.47           	4.087
MS.574         	5.46           	3.716
MS.575         	5.447          	4.316
MS.576         	5.438          	3.63
MS.577         	5.427          	4.147
MS.578         	5.415          	3.954
MS.579         	5.405          	3.652
MS.580         	5.395          	3.932
MS.581         	5.382          	3.547
MS.582         	5.372          	3.632
MS.583         	5.362          	3.283
MS.584         	5.352          	3.422
MS.585         	5.34           	3.229
MS.586         	5.33           	3.289
MS.587         	5.32           	2.991
MS.588         	5.307          	2.711
MS.589         	5.297          	2.794
MS.590         	5.287          	2.862
MS.591         	5.277          	2.564
MS.592         	5.267          	2.455
MS.593         	5.255          	2.868
MS.594         	5.245          	2.514
MS.595         	5.235          	2.286
MS.596         	5.225          	2.49
MS.597         	5.215          	2.83
MS.598         	5.202          	2.554
MS.599         	5.193          	1.932
MS.600         	5.182          	2.131
MS.601         	5.172          	2.381
MS.602         	5.162          	1.996
MS.603         	5.152          	2.189
MS.604         	5.142          	2.026
MS.605         	5.132          	2.129
MS.606         	5.12           	1.922
MS.607         	5.11           	2.123
MS.608         	5.1            	2.058
MS.609         	5.09           	1.893
MS.610         	5.08           	2.03
MS.611         	5.07           	1.593
MS.612         	5.06           	1.595
MS.613         	5.05           	1.73
MS.614         	5.04           	1.573
MS.615         	5.03           	1.621
MS.616         	5.02           	1.356
MS.617         	5.01           	1.39
MS.618         	5              	1.41
MS.619         	4.99           	1.452
MS.620         	4.98           	1.575
MS.621         	4.97           	1.561
MS.622         	4.96           	1.42
MS.623         	4.95           	1.208
MS.624         	4.94           	1.247
MS.625         	4.93           	1.44
MS.626         	4.92           	1.2
MS.627         	4.91           	1.13
MS.628         	4.9            	1.196
MS.629         	4.89           	1.158
MS.630         	4.88           	1.027
MS.631         	4.872          	1.257
MS.632         	4.862          	1.14
MS.633         	4.852          	0.89
MS.634         	4.842          	0.894
MS.635         	4.832          	0.802
MS.636         	4.822          	0.876
MS.637         	4.812          	0.987
MS.638         	4.802          	0.628
MS.639         	4.795          	0.858
MS.640         	4.785          	0.886
MS.641         	4.775          	0.665
MS.642         	4.765          	0.723
MS.643         	4.755          	0.848
MS.644         	4.747          	0.773
MS.645         	4.737          	0.735
MS.646         	4.727          	0.657
MS.647         	4.717          	0.612
MS.648         	4.707          	0.489
MS.649         	4.7            	0.395
MS.650         	4.69           	0.624
MS.651         	4.68           	0.469
MS.652         	4.67           	0.473
MS.653         	4.662          	0.711
MS.654         	4.652          	0.598
MS.655         	4.642          	0.582
MS.656         	4.632          	0.463
MS.657         	4.625          	0.504
MS.658         	4.615          	0.62
MS.659         	4.605          	0.439
MS.660         	4.597          	0.645
MS.661         	4.588          	0.435
MS.662         	4.577          	0.419
MS.663         	4.57           	0.403
MS.664         	4.56           	0.479
MS.665         	4.55           	0.489
MS.666         	4.543          	0.389
MS.667         	4.532          	0.397
MS.668         	4.525          	0.346
MS.669         	4.515          	0.447
MS.670         	4.505          	0.397
MS.671         	4.497          	0.429
MS.672         	4.487          	0.371
MS.673         	4.48           	0.471
MS.674         	4.47           	0.338
MS.675         	4.46           	0.445
MS.676         	4.452          	0.449
MS.677         	4.443          	0.389
MS.678         	4.435          	0.276
MS.679         	4.425          	0.344
MS.680         	4.418          	0.31
MS.681         	4.407          	0.425
MS.682         	4.4            	0.328
MS.683         	4.39           	0.205
MS.684         	4.382          	0.254
MS.685         	4.372          	0.205
MS.686         	4.365          	0.246
MS.687         	4.355          	0.181
MS.688         	4.347          	0.27
MS.689         	4.338          	0.288
MS.690         	4.33           	0.27
MS.691         	4.32           	0.252
MS.692         	4.312          	0.292
MS.693         	4.302          	0.288
MS.694         	4.295          	0.167
MS.695         	4.285          	0.336
MS.696         	4.277          	0.085
MS.697         	4.27           	0.284
MS.698         	4.26           	0.258
MS.699         	4.253          	0.201
MS.700         	4.242          	0.109
MS.701         	4.235          	0.197
MS.702         	4.227          	0.093
MS.703         	4.217          	0.068
MS.704         	4.21           	0.161
MS.705         	4.2            	0.099
MS.706         	4.193          	0.115
MS.707         	4.185          	0.137
MS.708         	4.175          	0.066
MS.709         	4.168          	0.077
MS.710         	4.16           	0.046
MS.711         	4.15           	0.052
MS.712         	4.142          	0.034
MS.713         	4.135          	0.081
MS.714         	4.125          	0.075
MS.715         	4.117          	0.07
MS.716         	4.11           	0.105
MS.717         	4.102          	0.058
MS.718         	4.092          	0.079
MS.719         	4.085          	0.04
MS.720         	4.077          	0.044
MS.721         	4.07           	0.068
MS.722         	4.06           	0.06
MS.723         	4.052          	0.085
MS.724         	4.045          	0.129
MS.725         	4.037          	0.091
MS.726         	4.027          	0.062
MS.727         	4.02           	0.085
MS.728         	4.012          	0.058
MS.729         	4.005          	0.085
MS.730         	3.995          	0.036
MS.731         	3.987          	0.058
MS.732         	3.98           	0.06
MS.733         	3.972          	0.075
MS.734         	3.965          	0.054
MS.735         	3.957          	0.058
MS.736         	3.947          	0.139
MS.737         	3.94           	0.02
MS.738         	3.932          	0.062
MS.739         	3.925          	0.068
MS.740         	3.918          	0.109
MS.741         	3.91           	0.091
MS.742         	3.902          	0.042
MS.743         	3.892          	0.075
MS.744         	3.885          	0.056
MS.745         	3.877          	0.077
MS.746         	3.87           	0.064
MS.747         	3.862          	0.036
MS.748         	3.855          	0.062
MS.749         	3.847          	0.032
MS.750         	3.84           	0.109
MS.751         	3.832          	0.068
MS.752         	3.825          	0.034
MS.753         	3.817          	0.02
MS.754         	3.81           	0.077
MS.755         	3.803          	0.038
MS.756         	3.795          	0.022
MS.757         	3.785          	0.073
MS.758         	3.777          	0.034
MS.759         	3.77           	0.054
MS.760         	3.762          	0.008
MS.761         	3.755          	0.04
MS.762         	3.747          	0.054
MS.763         	3.74           	0.036
MS.764         	3.732          	0.068
MS.765         	3.725          	0.012
MS.766         	3.717          	0.048
MS.767         	3.71           	0.03
MS.768         	3.705          	0.05
MS.769         	3.697          	0.026
MS.770         	3.69           	0.077
MS.771         	3.682          	0.018
MS.772         	3.675          	0.032
MS.773         	3.668          	0.022
MS.774         	3.66           	0.022
MS.775         	3.652          	0.036
MS.776         	3.645          	0.01
MS.777         	3.637          	0.056
MS.778         	3.63           	0.028
MS.779         	3.622          	0.028
MS.780         	3.615          	0.066
MS.781         	3.607          	0.008
MS.782         	3.602          	0.012
MS.783         	3.595          	0.048
MS.784         	3.587          	0.016
MS.785         	3.58           	0.054
MS.786         	3.572          	0.02
MS.787         	3.565          	0.077
MS.788         	3.557          	0.044
MS.789         	3.553          	0.062
MS.790         	3.545          	0.058
MS.791         	3.537          	0.034
MS.792         	3.53           	0.032
MS.793         	3.523          	0.052
MS.794         	3.515          	0.066
MS.795         	3.51           	0.012
MS.796         	3.502          	0.028
MS.797         	3.495          	0.042
MS.798         	3.487          	0.03
MS.799         	3.48           	0.024
MS.800         	3.475          	0.04
MS.801         	3.467          	0.032
MS.802         	3.46           	0.058
MS.803         	3.452          	0.024
MS.804         	3.447          	0.014
MS.805         	3.44           	0.002
MS.806         	3.432          	0.073
MS.807         	3.425          	0.044
MS.808         	3.42           	0.038
MS.809         	3.412          	0.048
MS.810         	3.405          	0.089
MS.811         	3.398          	0.018
MS.812         	3.392          	0.048
MS.813         	3.385          	0.01
MS.814         	3.377          	0.016
MS.815         	3.372          	0.044
MS.816         	3.365          	0.042
MS.817         	3.357          	0.032
MS.818         	3.352          	0.07
MS.819         	3.345          	0.018
MS.820         	3.337          	0.05
MS.821         	3.332          	0.062
MS.822         	3.325          	0.064
MS.823         	3.317          	0.016
MS.824         	3.312          	0.03
MS.825         	3.305          	0.073
MS.826         	3.297          	0.044
DERIVED EXCITABILITY VARIABLES
Program = QTracP 9/10/2021
Threshold method = 6 (optimised for CAP, using data for present condition only)
SR method = 1 (using actual data values)
6.                 	0.000               	Peak response\(mV)
9.                 	31.8                	Temperature ( C)
17.                	50                  	Age (years)
18.                	2                   	Sex (M=1, F=2)

EXTRA VARIABLES

MScPeak(mV) = 10.83
MScS5(mA) = 4.65
MScS50(mA) = 5.69
MScS95(mA) = 6.98
MScNSteps = 3
MScSteps(%) = 8.4
MScStepMax(%) = 3.8
MScD50 = 41
MScSlope = 6.17
MScDuration(min) = 7.8
MSFTraces = 432
MSFPeakAmp(mV) = 11
MSFNUnits = 99
MSFMeanUnitAmp(uV) = 111
MSFHuntTime(m) = 2.4
MSFError(%) = 6.26
MSFNLarge = 32.05
MSFMedianAmp(%) = 0.919
MSFMedianAmp(mV) = 0.101
MSFHalfAmpAmp(%) = 1.08
MSFHalfAmpAmp(mV) = 0.119
MSFLargestAmp(%) = 3.52
MSFLargestAmp(mV) = 0.387
MSFMeanRS(%) = 2
MSFSizeLimit(uV) = 27.5
MSFLimitType = 1
MSFSmallestAmp(uV) = 33.4
MSFOpts = 10106121

EXTRA WAVEFORMS


!MScan Model
!99
	1	4.15	0.35	2
	2	4.18	0.3	2
	3	4.22	0.32	2
	4	4.26	1.02	2
	5	4.41	0.84	2
	6	4.53	0.85	2
	7	4.69	1.55	2
	8	4.74	0.78	2
	9	4.77	0.54	2
	10	4.8	0.77	2
	11	4.82	0.74	2
	12	4.84	0.5	2
	13	4.86	0.55	2
	14	4.88	0.63	2
	15	4.91	0.76	2
	16	4.94	0.93	2
	17	4.97	0.99	2
	18	5	0.87	2
	19	5.02	1.04	2
	20	5.04	0.59	2
	21	5.05	0.42	2
	22	5.07	0.61	2
	23	5.09	0.82	2
	24	5.11	1.1	2
	25	5.16	2.11	2
	26	5.2	1.31	2
	27	5.23	1.24	2
	28	5.24	0.73	2
	29	5.26	0.84	2
	30	5.28	0.99	2
	31	5.29	0.89	2
	32	5.3	0.6	2
	33	5.31	0.44	2
	34	5.32	0.6	2
	35	5.33	0.71	2
	36	5.34	0.86	2
	37	5.35	0.92	2
	38	5.36	0.79	2
	39	5.38	0.72	2
	40	5.39	0.83	2
	41	5.41	1.22	2
	42	5.43	1.77	2
	43	5.47	2.08	2
	44	5.51	1.96	2
	45	5.53	1.19	2
	46	5.55	1.3	2
	47	5.57	1.07	2
	48	5.59	0.97	2
	49	5.6	1.12	2
	50	5.62	1.26	2
	51	5.64	1.14	2
	52	5.67	1.07	2
	53	5.69	1.1	2
	54	5.71	1.3	2
	55	5.73	1	2
	56	5.75	1.03	2
	57	5.77	1.08	2
	58	5.78	0.78	2
	59	5.8	0.72	2
	60	5.81	0.44	2
	61	5.83	0.63	2
	62	5.84	0.76	2
	63	5.88	1.99	2
	64	5.92	0.82	2
	65	5.92	0.55	2
	66	5.96	1.61	2
	67	5.98	0.94	2
	68	6.01	1.18	2
	69	6.02	0.65	2
	70	6.03	0.63	2
	71	6.05	0.5	2
	72	6.06	1.01	2
	73	6.07	0.45	2
	74	6.09	0.92	2
	75	6.1	0.71	2
	76	6.11	0.92	2
	77	6.13	0.92	2
	78	6.14	1.12	2
	79	6.16	1.11	2
	80	6.18	0.94	2
	81	6.19	1.03	2
	82	6.2	0.42	2
	83	6.22	1.68	2
	84	6.27	1.99	2
	85	6.31	1.88	2
	86	6.34	1.64	2
	87	6.38	1.42	2
	88	6.43	1.64	2
	89	6.5	3.52	2
	90	6.66	1.14	2
	91	6.66	1.19	2
	92	6.73	1.07	2
	93	6.78	0.4	2
	94	6.81	0.44	2
	95	6.84	0.32	2
	96	6.9	0.89	2
	97	7.23	2.2	2
	98	7.25	1.9	2
	99	7.9	0.87	2

