File:              	C:\Qtrac\Data\Daniel M Sørensen\MScan multicentre study\Data from centres\Odense\Processed data\TKC01123A.QZD
Name:              	DK.ODE.NC.9.2
Protocol:          	MSCAN-R2
Date:              	23/11/20
Start time:        	11:12:34
Age:               	69
Sex:               	M
Temperature:       	32.4
S/R sites:         	APB
NC/disease:        	NC
Operator:          	TK
Comments:
M-SCAN DATA (7.6-1.9m)
Scanpts: 148, 154, 569, 583
Stim. (mA)     	Amp. (mV)
MS.1           	29             	8.965
MS.2           	29             	8.951
MS.3           	29             	8.882
MS.4           	29             	8.882
MS.5           	29             	8.921
MS.6           	29             	8.939
MS.7           	29             	8.921
MS.8           	29             	8.874
MS.9           	29             	8.939
MS.10          	29             	8.943
MS.11          	29             	8.903
MS.12          	29             	8.983
MS.13          	29             	8.963
MS.14          	29             	8.927
MS.15          	29             	8.971
MS.16          	29             	8.995
MS.17          	29             	8.979
MS.18          	29             	9.042
MS.19          	29             	8.951
MS.20          	29             	8.993
MS.21          	29             	9.029
MS.22          	29             	9.005
MS.23          	28.885         	9.04
MS.24          	28.827         	9.021
MS.25          	28.77          	9.031
MS.26          	28.712         	9.078
MS.27          	28.655         	9.019
MS.28          	28.597         	9.042
MS.29          	28.54          	9.086
MS.30          	28.483         	9.102
MS.31          	28.425         	9.021
MS.32          	28.37          	9.092
MS.33          	28.312         	9.084
MS.34          	28.255         	9.023
MS.35          	28.2           	9.072
MS.36          	28.142         	9.052
MS.37          	28.087         	9.046
MS.38          	28.03          	9.07
MS.39          	27.975         	8.951
MS.40          	27.917         	8.945
MS.41          	27.862         	9.029
MS.42          	27.807         	8.943
MS.43          	27.752         	8.969
MS.44          	27.695         	9.06
MS.45          	27.64          	9.136
MS.46          	27.585         	9.11
MS.47          	27.53          	9.17
MS.48          	27.475         	9.213
MS.49          	27.42          	9.177
MS.50          	27.365         	9.16
MS.51          	27.31          	9.15
MS.52          	27.257         	9.201
MS.53          	27.202         	9.179
MS.54          	27.147         	9.209
MS.55          	27.092         	9.235
MS.56          	27.04          	9.235
MS.57          	26.985         	9.237
MS.58          	26.932         	9.249
MS.59          	26.877         	9.265
MS.60          	26.825         	9.249
MS.61          	26.77          	9.225
MS.62          	26.717         	9.225
MS.63          	26.662         	9.261
MS.64          	26.61          	9.281
MS.65          	26.557         	9.322
MS.66          	26.505         	9.307
MS.67          	26.45          	9.318
MS.68          	26.397         	9.289
MS.69          	26.345         	9.295
MS.70          	26.292         	9.275
MS.71          	26.24          	9.275
MS.72          	26.188         	9.342
MS.73          	26.135         	9.338
MS.74          	26.082         	9.358
MS.75          	26.03          	9.309
MS.76          	25.98          	9.291
MS.77          	25.927         	9.338
MS.78          	25.875         	9.299
MS.79          	25.823         	9.368
MS.80          	25.772         	9.342
MS.81          	25.72          	9.334
MS.82          	25.67          	9.307
MS.83          	25.618         	9.249
MS.84          	25.567         	9.291
MS.85          	25.515         	9.315
MS.86          	25.465         	9.334
MS.87          	25.415         	9.315
MS.88          	25.362         	9.255
MS.89          	25.312         	9.311
MS.90          	25.262         	9.328
MS.91          	25.212         	9.243
MS.92          	25.16          	9.301
MS.93          	25.11          	9.283
MS.94          	25.06          	9.324
MS.95          	25.01          	9.271
MS.96          	24.96          	9.334
MS.97          	24.91          	9.313
MS.98          	24.86          	9.277
MS.99          	24.81          	9.32
MS.100         	24.762         	9.326
MS.101         	24.712         	9.344
MS.102         	24.663         	9.311
MS.103         	24.612         	9.285
MS.104         	24.565         	9.338
MS.105         	24.515         	9.297
MS.106         	24.465         	9.275
MS.107         	24.417         	9.354
MS.108         	24.368         	9.315
MS.109         	24.32          	9.328
MS.110         	24.27          	9.315
MS.111         	24.222         	9.295
MS.112         	24.175         	9.315
MS.113         	24.125         	9.35
MS.114         	24.077         	9.35
MS.115         	24.03          	9.394
MS.116         	23.983         	9.332
MS.117         	23.935         	9.346
MS.118         	23.885         	9.35
MS.119         	23.837         	9.368
MS.120         	23.79          	9.344
MS.121         	23.743         	9.402
MS.122         	23.695         	9.301
MS.123         	23.647         	9.344
MS.124         	23.6           	9.36
MS.125         	23.555         	9.388
MS.126         	23.507         	9.324
MS.127         	23.46          	9.434
MS.128         	23.413         	9.428
MS.129         	23.365         	9.467
MS.130         	23.32          	9.43
MS.131         	23.272         	9.384
MS.132         	23.227         	9.42
MS.133         	23.18          	9.444
MS.134         	23.132         	9.477
MS.135         	23.087         	9.473
MS.136         	23.042         	9.452
MS.137         	22.995         	9.442
MS.138         	22.95          	9.465
MS.139         	22.903         	9.513
MS.140         	22.858         	9.434
MS.141         	22.812         	9.503
MS.142         	22.767         	9.485
MS.143         	22.72          	9.456
MS.144         	22.675         	9.458
MS.145         	22.63          	9.521
MS.146         	22.585         	9.471
MS.147         	22.54          	9.465
MS.148         	22.495         	9.456
MS.149         	22.45          	9.495
MS.150         	22.405         	9.45
MS.151         	22.36          	9.485
MS.152         	22.315         	9.483
MS.153         	22.27          	9.493
MS.154         	22.227         	9.519
MS.155         	22.182         	9.483
MS.156         	22.137         	9.525
MS.157         	22.092         	9.495
MS.158         	22.05          	9.515
MS.159         	22.005         	9.497
MS.160         	21.962         	9.406
MS.161         	21.917         	9.527
MS.162         	21.875         	9.515
MS.163         	21.83          	9.487
MS.164         	21.788         	9.454
MS.165         	21.743         	9.398
MS.166         	21.7           	9.517
MS.167         	21.655         	9.384
MS.168         	21.612         	9.454
MS.169         	21.57          	9.563
MS.170         	21.528         	9.434
MS.171         	21.483         	9.422
MS.172         	21.44          	9.402
MS.173         	21.397         	9.557
MS.174         	21.355         	9.412
MS.175         	21.312         	9.485
MS.176         	21.27          	9.422
MS.177         	21.227         	9.479
MS.178         	21.185         	9.37
MS.179         	21.142         	9.452
MS.180         	21.1           	9.43
MS.181         	21.057         	9.461
MS.182         	21.015         	9.428
MS.183         	20.975         	9.372
MS.184         	20.932         	9.384
MS.185         	20.89          	9.346
MS.186         	20.847         	9.388
MS.187         	20.807         	9.485
MS.188         	20.765         	9.36
MS.189         	20.725         	9.338
MS.190         	20.682         	9.334
MS.191         	20.642         	9.388
MS.192         	20.6           	9.382
MS.193         	20.56          	9.414
MS.194         	20.517         	9.295
MS.195         	20.477         	9.4
MS.196         	20.435         	9.432
MS.197         	20.395         	9.414
MS.198         	20.355         	9.364
MS.199         	20.312         	9.289
MS.200         	20.272         	9.354
MS.201         	20.233         	9.324
MS.202         	20.192         	9.32
MS.203         	20.153         	9.356
MS.204         	20.112         	9.17
MS.205         	20.073         	9.164
MS.206         	20.03          	9.346
MS.207         	19.99          	9.193
MS.208         	19.952         	9.315
MS.209         	19.913         	9.187
MS.210         	19.872         	9.126
MS.211         	19.833         	9.108
MS.212         	19.792         	9.152
MS.213         	19.752         	9.229
MS.214         	19.712         	9.17
MS.215         	19.675         	9.152
MS.216         	19.635         	9.166
MS.217         	19.595         	9.136
MS.218         	19.555         	9.211
MS.219         	19.517         	9.207
MS.220         	19.477         	9.17
MS.221         	19.44          	9.148
MS.222         	19.4           	9.098
MS.223         	19.362         	9.148
MS.224         	19.323         	9.058
MS.225         	19.285         	9.177
MS.226         	19.245         	9.086
MS.227         	19.208         	9.054
MS.228         	19.17          	9.074
MS.229         	19.13          	8.953
MS.230         	19.092         	8.983
MS.231         	19.055         	8.973
MS.232         	19.015         	8.941
MS.233         	18.977         	8.979
MS.234         	18.94          	8.876
MS.235         	18.903         	8.989
MS.236         	18.865         	8.925
MS.237         	18.827         	8.969
MS.238         	18.79          	8.876
MS.239         	18.753         	8.905
MS.240         	18.715         	8.907
MS.241         	18.677         	8.915
MS.242         	18.64          	8.893
MS.243         	18.602         	8.989
MS.244         	18.565         	8.888
MS.245         	18.528         	8.899
MS.246         	18.49          	8.897
MS.247         	18.455         	8.858
MS.248         	18.417         	8.496
MS.249         	18.38          	8.552
MS.250         	18.345         	8.52
MS.251         	18.307         	8.878
MS.252         	18.27          	8.556
MS.253         	18.235         	8.882
MS.254         	18.198         	8.921
MS.255         	18.163         	8.508
MS.256         	18.125         	8.496
MS.257         	18.09          	8.25
MS.258         	18.052         	8.445
MS.259         	18.017         	8.486
MS.260         	17.98          	8.482
MS.261         	17.945         	8.212
MS.262         	17.91          	8.236
MS.263         	17.872         	8.194
MS.264         	17.837         	8.157
MS.265         	17.802         	8.121
MS.266         	17.765         	8.528
MS.267         	17.73          	8.218
MS.268         	17.695         	8.125
MS.269         	17.66          	8.115
MS.270         	17.625         	8.196
MS.271         	17.59          	8.175
MS.272         	17.555         	8.065
MS.273         	17.52          	8.141
MS.274         	17.485         	8.161
MS.275         	17.45          	8.149
MS.276         	17.415         	7.968
MS.277         	17.38          	7.994
MS.278         	17.345         	8.153
MS.279         	17.31          	7.942
MS.280         	17.275         	8.073
MS.281         	17.24          	8.03
MS.282         	17.208         	7.833
MS.283         	17.172         	8.109
MS.284         	17.137         	7.881
MS.285         	17.102         	7.732
MS.286         	17.07          	7.807
MS.287         	17.035         	7.763
MS.288         	17.003         	7.833
MS.289         	16.967         	7.698
MS.290         	16.932         	7.535
MS.291         	16.9           	7.495
MS.292         	16.865         	7.607
MS.293         	16.833         	7.549
MS.294         	16.797         	7.454
MS.295         	16.765         	7.42
MS.296         	16.733         	7.571
MS.297         	16.698         	7.398
MS.298         	16.665         	7.358
MS.299         	16.632         	7.366
MS.300         	16.597         	7.213
MS.301         	16.565         	7.225
MS.302         	16.532         	7.05
MS.303         	16.5           	7.172
MS.304         	16.465         	7.144
MS.305         	16.432         	7.271
MS.306         	16.4           	7.13
MS.307         	16.368         	7.241
MS.308         	16.335         	7.154
MS.309         	16.302         	6.665
MS.310         	16.27          	7.122
MS.311         	16.237         	6.697
MS.312         	16.205         	7.033
MS.313         	16.172         	6.057
MS.314         	16.14          	6.651
MS.315         	16.108         	5.769
MS.316         	16.075         	6.425
MS.317         	16.042         	5.549
MS.318         	16.012         	6.518
MS.319         	15.98          	6.471
MS.320         	15.947         	5.66
MS.321         	15.915         	5.517
MS.322         	15.882         	5.507
MS.323         	15.852         	5.481
MS.324         	15.82          	5.501
MS.325         	15.787         	5.213
MS.326         	15.757         	5.088
MS.327         	15.725         	5.503
MS.328         	15.695         	5.491
MS.329         	15.662         	4.826
MS.330         	15.632         	5.4
MS.331         	15.6           	5.509
MS.332         	15.57          	5.068
MS.333         	15.537         	5.11
MS.334         	15.507         	5.392
MS.335         	15.475         	5.104
MS.336         	15.445         	5.001
MS.337         	15.415         	4.929
MS.338         	15.382         	4.355
MS.339         	15.352         	4.236
MS.340         	15.322         	4.139
MS.341         	15.292         	4.208
MS.342         	15.26          	4.028
MS.343         	15.23          	4.193
MS.344         	15.2           	4.113
MS.345         	15.17          	4.21
MS.346         	15.14          	4.083
MS.347         	15.11          	3.887
MS.348         	15.08          	3.817
MS.349         	15.047         	3.962
MS.350         	15.017         	3.766
MS.351         	14.987         	3.704
MS.352         	14.957         	3.638
MS.353         	14.93          	3.773
MS.354         	14.9           	3.634
MS.355         	14.87          	3.478
MS.356         	14.84          	3.954
MS.357         	14.81          	3.676
MS.358         	14.78          	3.76
MS.359         	14.75          	3.605
MS.360         	14.722         	3.414
MS.361         	14.693         	3.325
MS.362         	14.662         	3.291
MS.363         	14.632         	3.384
MS.364         	14.605         	3.263
MS.365         	14.575         	3.303
MS.366         	14.545         	3.36
MS.367         	14.517         	3.108
MS.368         	14.487         	3.136
MS.369         	14.457         	3.144
MS.370         	14.43          	2.957
MS.371         	14.4           	3.18
MS.372         	14.372         	3.168
MS.373         	14.342         	2.741
MS.374         	14.315         	2.669
MS.375         	14.285         	2.969
MS.376         	14.257         	2.951
MS.377         	14.23          	2.61
MS.378         	14.2           	2.778
MS.379         	14.172         	2.671
MS.380         	14.145         	2.618
MS.381         	14.115         	2.596
MS.382         	14.087         	2.866
MS.383         	14.06          	2.61
MS.384         	14.032         	2.552
MS.385         	14.002         	2.582
MS.386         	13.975         	2.473
MS.387         	13.947         	2.54
MS.388         	13.92          	2.451
MS.389         	13.892         	2.387
MS.390         	13.865         	2.344
MS.391         	13.837         	2.272
MS.392         	13.807         	2.328
MS.393         	13.78          	2.248
MS.394         	13.752         	2.349
MS.395         	13.725         	2.302
MS.396         	13.697         	2.292
MS.397         	13.67          	2.23
MS.398         	13.645         	1.978
MS.399         	13.617         	1.984
MS.400         	13.59          	2.113
MS.401         	13.562         	1.948
MS.402         	13.535         	2.109
MS.403         	13.507         	2.137
MS.404         	13.48          	2.103
MS.405         	13.455         	2.155
MS.406         	13.427         	1.944
MS.407         	13.4           	2.087
MS.408         	13.372         	2.101
MS.409         	13.347         	1.873
MS.410         	13.32          	1.897
MS.411         	13.292         	2.056
MS.412         	13.267         	1.946
MS.413         	13.24          	1.887
MS.414         	13.215         	1.895
MS.415         	13.188         	1.766
MS.416         	13.162         	1.869
MS.417         	13.135         	1.809
MS.418         	13.11          	1.73
MS.419         	13.082         	1.738
MS.420         	13.057         	1.748
MS.421         	13.03          	1.718
MS.422         	13.005         	1.623
MS.423         	12.977         	1.734
MS.424         	12.952         	1.613
MS.425         	12.927         	1.408
MS.426         	12.9           	1.533
MS.427         	12.875         	1.452
MS.428         	12.85          	1.293
MS.429         	12.822         	1.297
MS.430         	12.797         	1.329
MS.431         	12.773         	1.456
MS.432         	12.747         	1.219
MS.433         	12.722         	1.382
MS.434         	12.695         	1.313
MS.435         	12.67          	1.221
MS.436         	12.645         	1.303
MS.437         	12.62          	1.188
MS.438         	12.595         	1.283
MS.439         	12.57          	1.182
MS.440         	12.545         	1.148
MS.441         	12.52          	1.166
MS.442         	12.495         	1.168
MS.443         	12.47          	1.16
MS.444         	12.445         	1.223
MS.445         	12.42          	1.211
MS.446         	12.395         	1.061
MS.447         	12.37          	0.993
MS.448         	12.345         	0.995
MS.449         	12.32          	1.1
MS.450         	12.295         	1.033
MS.451         	12.273         	1.035
MS.452         	12.247         	0.973
MS.453         	12.222         	0.975
MS.454         	12.197         	0.995
MS.455         	12.175         	0.935
MS.456         	12.15          	0.929
MS.457         	12.125         	0.985
MS.458         	12.1           	0.914
MS.459         	12.077         	0.842
MS.460         	12.052         	0.852
MS.461         	12.028         	0.812
MS.462         	12.005         	0.83
MS.463         	11.98          	0.79
MS.464         	11.957         	0.878
MS.465         	11.932         	0.824
MS.466         	11.91          	0.784
MS.467         	11.885         	0.826
MS.468         	11.863         	0.816
MS.469         	11.837         	0.794
MS.470         	11.815         	0.769
MS.471         	11.79          	0.822
MS.472         	11.767         	0.737
MS.473         	11.742         	0.761
MS.474         	11.72          	0.838
MS.475         	11.697         	0.711
MS.476         	11.672         	0.731
MS.477         	11.65          	0.681
MS.478         	11.627         	0.683
MS.479         	11.602         	0.747
MS.480         	11.58          	0.546
MS.481         	11.557         	0.735
MS.482         	11.535         	0.489
MS.483         	11.51          	0.54
MS.484         	11.488         	0.395
MS.485         	11.465         	0.485
MS.486         	11.443         	0.318
MS.487         	11.42          	0.391
MS.488         	11.398         	0.312
MS.489         	11.372         	0.32
MS.490         	11.35          	0.354
MS.491         	11.327         	0.306
MS.492         	11.305         	0.298
MS.493         	11.282         	0.371
MS.494         	11.26          	0.276
MS.495         	11.238         	0.211
MS.496         	11.215         	0.207
MS.497         	11.193         	0.197
MS.498         	11.17          	0.191
MS.499         	11.148         	0.121
MS.500         	11.125         	0.107
MS.501         	11.105         	0.236
MS.502         	11.082         	0.141
MS.503         	11.06          	0.093
MS.504         	11.037         	0.087
MS.505         	11.015         	0.066
MS.506         	10.992         	0.123
MS.507         	10.972         	0.075
MS.508         	10.95          	0.127
MS.509         	10.927         	0.081
MS.510         	10.905         	0.062
MS.511         	10.885         	0.048
MS.512         	10.863         	0.139
MS.513         	10.84          	0.097
MS.514         	10.82          	0.093
MS.515         	10.797         	0.062
MS.516         	10.775         	0.099
MS.517         	10.755         	0.068
MS.518         	10.733         	0.081
MS.519         	10.71          	0.046
MS.520         	10.69          	0.077
MS.521         	10.667         	0.048
MS.522         	10.648         	0.107
MS.523         	10.625         	0.07
MS.524         	10.605         	0.064
MS.525         	10.582         	0.091
MS.526         	10.562         	0.089
MS.527         	10.54          	0.05
MS.528         	10.52          	0.044
MS.529         	10.5           	0.066
MS.530         	10.477         	0.022
MS.531         	10.457         	0.077
MS.532         	10.438         	0.111
MS.533         	10.415         	0.087
MS.534         	10.395         	0.044
MS.535         	10.375         	0.03
MS.536         	10.352         	0.032
MS.537         	10.332         	0.062
MS.538         	10.312         	0.044
MS.539         	10.29          	0.036
MS.540         	10.27          	0.097
MS.541         	10.25          	0.028
MS.542         	10.23          	0.075
MS.543         	10.21          	0.05
MS.544         	10.19          	0.03
MS.545         	10.167         	0.054
MS.546         	10.148         	0.054
MS.547         	10.127         	0.066
MS.548         	10.108         	0.022
MS.549         	10.087         	0.05
MS.550         	10.068         	0.07
MS.551         	10.047         	0.034
MS.552         	10.028         	0.038
MS.553         	10.007         	0.03
MS.554         	9.988          	0.054
MS.555         	9.967          	0.06
MS.556         	9.948          	0.024
MS.557         	9.927          	0.04
MS.558         	9.907          	0.032
MS.559         	9.887          	0.075
MS.560         	9.867          	0.032
MS.561         	9.847          	0.036
MS.562         	9.827          	0.018
MS.563         	9.81           	0.034
MS.564         	9.79           	0.038
MS.565         	9.77           	0.075
MS.566         	9.75           	0.075
MS.567         	9.73           	0.02
MS.568         	9.712          	0.026
MS.569         	9.693          	0.032
MS.570         	9.672          	0.026
MS.571         	9.653          	0.024
MS.572         	9.635          	0.000
MS.573         	9.615          	0.03
MS.574         	9.595          	0.032
MS.575         	9.577          	0.048
MS.576         	9.557          	-0.016
MS.577         	9.537          	0.034
MS.578         	9.52           	0.058
MS.579         	9.5            	0.036
MS.580         	9.48           	0.022
MS.581         	9.462          	0.032
MS.582         	9.443          	0.04
MS.583         	9.425          	0.032
MS.584         	9.405          	0.022
MS.585         	9.387          	0.04
MS.586         	9.367          	0.042
MS.587         	9.35           	0.034
MS.588         	9.33           	0.014
MS.589         	9.312          	0.056
MS.590         	9.292          	0.075
MS.591         	9.275          	0.085
MS.592         	9.255          	0.036
MS.593         	9.238          	0.028
MS.594         	9.22           	0.032
MS.595         	9.2            	0.028
MS.596         	9.182          	0.024
MS.597         	9.165          	0.042
MS.598         	9.145          	0.032
MS.599         	9.127          	0.018
MS.600         	9.11           	0.04
MS.601         	9.09           	0.044
MS.602         	9.073          	0.046
MS.603         	9.055          	0.01
MS.604         	9.037          	0.028
MS.605         	9.017          	0.024
MS.606         	9              	0.028
MS.607         	8.983          	0.03
MS.608         	8.965          	0.038
MS.609         	8.948          	0.066
MS.610         	8.93           	0.018
MS.611         	8.91           	0.034
MS.612         	8.892          	0.032
DERIVED EXCITABILITY VARIABLES
Program = QTracP 9/10/2021
Threshold method = 6 (optimised for CAP, using data for present condition only)
SR method = 1 (using actual data values)
6.                 	0.000               	Peak response\(mV)
9.                 	32.4                	Temperature ( C)
17.                	69                  	Age (years)
18.                	1                   	Sex (M=1, F=2)

EXTRA VARIABLES

MScPeak(mV) = 8.92
MScS5(mA) = 11.48
MScS50(mA) = 15.39
MScS95(mA) = 17.93
MScNSteps = 6
MScSteps(%) = 20.8
MScStepMax(%) = 5.3
MScD50 = 37
MScSlope = 5.93
MScDuration(min) = 5.7
MSFTraces = 436
MSFPeakAmp(mV) = 9.45
MSFNUnits = 114
MSFMeanUnitAmp(uV) = 82.9
MSFHuntTime(m) = 2.16
MSFError(%) = 7.42
MSFNLarge = 24.18
MSFMedianAmp(%) = 0.566
MSFMedianAmp(mV) = 0.0535
MSFHalfAmpAmp(%) = 1.14
MSFHalfAmpAmp(mV) = 0.108
MSFLargestAmp(%) = 4.65
MSFLargestAmp(mV) = 0.44
MSFMeanRS(%) = 2
MSFSizeLimit(uV) = 23.6
MSFLimitType = 1
MSFSmallestAmp(uV) = 25.9
MSFOpts = 10106121

EXTRA WAVEFORMS


!MScan Model
!114
	1	10.48	0.35	2
	2	11.02	0.66	2
	3	11.11	0.37	2
	4	11.14	0.29	2
	5	11.19	0.32	2
	6	11.24	0.33	2
	7	11.29	0.33	2
	8	11.33	0.37	2
	9	11.36	0.53	2
	10	11.4	0.42	2
	11	11.43	0.36	2
	12	11.47	0.38	2
	13	11.5	0.44	2
	14	11.54	0.58	2
	15	11.61	0.49	2
	16	11.66	0.86	2
	17	11.77	0.66	2
	18	11.88	0.44	2
	19	11.93	0.33	2
	20	12.05	0.56	2
	21	12.1	0.34	2
	22	12.18	0.35	2
	23	12.22	0.34	2
	24	12.26	0.37	2
	25	12.31	0.32	2
	26	12.36	0.3	2
	27	12.4	0.3	2
	28	12.45	0.34	2
	29	12.54	0.57	2
	30	12.62	0.57	2
	31	12.7	0.59	2
	32	12.74	0.32	2
	33	12.78	0.45	2
	34	12.82	0.57	2
	35	12.86	0.47	2
	36	12.89	0.34	2
	37	12.92	0.27	2
	38	12.95	0.41	2
	39	12.98	0.44	2
	40	13.01	0.42	2
	41	13.05	0.35	2
	42	13.08	0.38	2
	43	13.11	0.4	2
	44	13.16	0.74	2
	45	13.22	0.59	2
	46	13.36	1.01	2
	47	13.52	1.31	2
	48	13.65	1	2
	49	13.7	0.28	2
	50	13.75	0.49	2
	51	13.79	0.52	2
	52	13.84	0.56	2
	53	13.89	0.57	2
	54	13.94	0.62	2
	55	14	0.61	2
	56	14.08	0.87	2
	57	14.16	1.25	2
	58	14.24	0.92	2
	59	14.3	0.94	2
	60	14.36	0.8	2
	61	14.42	0.66	2
	62	14.47	0.78	2
	63	14.54	0.89	2
	64	14.6	1.49	2
	65	14.68	1.01	2
	66	14.76	0.87	2
	67	14.83	0.91	2
	68	14.9	1.07	2
	69	14.97	1.06	2
	70	15.09	1.48	2
	71	15.14	0.56	2
	72	15.18	1.23	2
	73	15.23	1.42	2
	74	15.27	1.36	2
	75	15.29	2.52	2
	76	15.33	1.27	2
	77	15.4	1.75	2
	78	15.5	2.12	2
	79	15.62	3.37	2
	80	15.8	3.14	2
	81	16	2.6	2
	82	16.08	3.07	2
	83	16.16	2.87	2
	84	16.25	1	2
	85	16.25	1.04	2
	86	16.49	4.65	2
	87	16.64	2.29	2
	88	16.69	0.47	2
	89	16.72	0.34	2
	90	16.79	0.55	2
	91	16.82	0.39	2
	92	16.85	0.42	2
	93	16.89	0.49	2
	94	16.93	0.51	2
	95	16.97	0.45	2
	96	17.02	0.53	2
	97	17.07	0.67	2
	98	17.13	0.38	2
	99	17.19	0.56	2
	100	17.29	0.92	2
	101	17.52	1.4	2
	102	17.73	1.14	2
	103	17.88	1.23	2
	104	18.11	1.65	2
	105	18.41	3.77	2
	106	18.94	1.32	2
	107	19.03	0.31	2
	108	19.16	0.48	2
	109	19.24	0.34	2
	110	19.4	0.42	2
	111	19.86	0.98	2
	112	20.05	0.51	2
	113	20.26	0.66	2
	114	21.13	1.24	2

