File:              	C:\Qtrac\Data\Daniel M Sørensen\MScan multicentre study\Data from centres\Odense\Processed data\TKC00221A.QZD
Name:              	DK.ODE.NC.2.1
Protocol:          	MSCAN-R2
Date:              	21/2/20
Start time:        	11:28:06
Age:               	74
Sex:               	M
Temperature:       	32.1
S/R sites:         	APB
NC/disease:        	NC
Operator:          	TK
Comments:
M-SCAN DATA (8.9-1.6m)
Scanpts: 21, 31, 720, 731
Stim. (mA)     	Amp. (mV)
MS.1           	30.5           	6.314
MS.2           	30.5           	6.31
MS.3           	30.5           	6.335
MS.4           	30.5           	6.264
MS.5           	30.5           	6.302
MS.6           	30.5           	6.298
MS.7           	30.5           	6.302
MS.8           	30.5           	6.264
MS.9           	30.5           	6.157
MS.10          	30.5           	6.316
MS.11          	30.5           	5.916
MS.12          	30.5           	6.331
MS.13          	30.5           	6.312
MS.14          	30.5           	6.425
MS.15          	30.5           	6.31
MS.16          	30.5           	6.395
MS.17          	30.5           	6.399
MS.18          	30.5           	6.107
MS.19          	30.5           	6.347
MS.20          	30.5           	6.328
MS.21          	30.5           	6.328
MS.22          	30.5           	6.3
MS.23          	30.5           	6.353
MS.24          	30.377         	6.339
MS.25          	30.317         	6.331
MS.26          	30.257         	6.282
MS.27          	30.198         	6.308
MS.28          	30.135         	6.292
MS.29          	30.075         	6.314
MS.30          	30.015         	6.067
MS.31          	29.955         	6.353
MS.32          	29.895         	6.369
MS.33          	29.835         	6.192
MS.34          	29.778         	6.308
MS.35          	29.717         	6.234
MS.36          	29.657         	6.308
MS.37          	29.597         	6.322
MS.38          	29.54          	6.306
MS.39          	29.48          	6.29
MS.40          	29.422         	6.244
MS.41          	29.362         	6.049
MS.42          	29.305         	6.391
MS.43          	29.245         	6.272
MS.44          	29.188         	5.938
MS.45          	29.127         	6.304
MS.46          	29.07          	6.236
MS.47          	29.012         	6.359
MS.48          	28.955         	6.27
MS.49          	28.897         	6.363
MS.50          	28.84          	6.357
MS.51          	28.78          	6.236
MS.52          	28.722         	6.302
MS.53          	28.667         	6.28
MS.54          	28.61          	6.202
MS.55          	28.552         	6.312
MS.56          	28.495         	6.222
MS.57          	28.438         	6.232
MS.58          	28.38          	5.843
MS.59          	28.325         	6.326
MS.60          	28.267         	6.063
MS.61          	28.212         	6.121
MS.62          	28.155         	5.591
MS.63          	28.097         	6.216
MS.64          	28.042         	6.286
MS.65          	27.987         	6.322
MS.66          	27.93          	6.204
MS.67          	27.875         	6.171
MS.68          	27.82          	5.775
MS.69          	27.762         	6.212
MS.70          	27.707         	6.242
MS.71          	27.653         	6.306
MS.72          	27.597         	6.073
MS.73          	27.542         	6.22
MS.74          	27.487         	6.224
MS.75          	27.432         	6.125
MS.76          	27.377         	6.163
MS.77          	27.323         	5.597
MS.78          	27.267         	6.131
MS.79          	27.215         	6.276
MS.80          	27.16          	5.384
MS.81          	27.105         	4.987
MS.82          	27.05          	6.208
MS.83          	26.997         	6.234
MS.84          	26.942         	5.408
MS.85          	26.89          	6.246
MS.86          	26.835         	6.163
MS.87          	26.782         	6.226
MS.88          	26.727         	6.242
MS.89          	26.675         	6.264
MS.90          	26.622         	5.976
MS.91          	26.567         	6.226
MS.92          	26.515         	6.169
MS.93          	26.462         	6.248
MS.94          	26.41          	6.214
MS.95          	26.358         	6.24
MS.96          	26.305         	6.236
MS.97          	26.252         	6.232
MS.98          	26.2           	6.349
MS.99          	26.147         	6.123
MS.100         	26.095         	6.341
MS.101         	26.042         	6.226
MS.102         	25.99          	6.204
MS.103         	25.938         	6.234
MS.104         	25.887         	6.119
MS.105         	25.835         	6.445
MS.106         	25.782         	6.113
MS.107         	25.733         	6.022
MS.108         	25.68          	6.057
MS.109         	25.63          	6.228
MS.110         	25.577         	6.266
MS.111         	25.528         	6.198
MS.112         	25.475         	5.72
MS.113         	25.425         	6.234
MS.114         	25.375         	6.2
MS.115         	25.323         	6.171
MS.116         	25.272         	6.196
MS.117         	25.222         	6.135
MS.118         	25.172         	6.04
MS.119         	25.122         	6.079
MS.120         	25.073         	5.704
MS.121         	25.02          	6.123
MS.122         	24.97          	6.256
MS.123         	24.922         	6.008
MS.124         	24.872         	6.107
MS.125         	24.823         	6
MS.126         	24.772         	6.129
MS.127         	24.722         	6.167
MS.128         	24.672         	6.133
MS.129         	24.625         	6.057
MS.130         	24.575         	6.145
MS.131         	24.525         	6.069
MS.132         	24.477         	6.127
MS.133         	24.427         	6.165
MS.134         	24.38          	5.885
MS.135         	24.33          	6.067
MS.136         	24.282         	6.042
MS.137         	24.233         	6.077
MS.138         	24.185         	6.127
MS.139         	24.137         	6
MS.140         	24.087         	6.004
MS.141         	24.04          	6.057
MS.142         	23.993         	6.002
MS.143         	23.945         	5.982
MS.144         	23.897         	6.004
MS.145         	23.847         	6.018
MS.146         	23.8           	6.077
MS.147         	23.752         	6.024
MS.148         	23.705         	6.105
MS.149         	23.657         	6.254
MS.150         	23.61          	5.954
MS.151         	23.565         	6.044
MS.152         	23.517         	5.926
MS.153         	23.47          	6.049
MS.154         	23.422         	6.044
MS.155         	23.377         	5.962
MS.156         	23.33          	6.02
MS.157         	23.282         	5.972
MS.158         	23.237         	5.994
MS.159         	23.19          	5.855
MS.160         	23.142         	6.018
MS.161         	23.097         	5.998
MS.162         	23.052         	6.049
MS.163         	23.005         	5.763
MS.164         	22.96          	6.014
MS.165         	22.913         	6.067
MS.166         	22.868         	6.107
MS.167         	22.823         	6.065
MS.168         	22.778         	6.03
MS.169         	22.73          	5.662
MS.170         	22.685         	5.716
MS.171         	22.64          	6.067
MS.172         	22.595         	6.002
MS.173         	22.55          	6.087
MS.174         	22.505         	6.065
MS.175         	22.46          	6.016
MS.176         	22.415         	6.059
MS.177         	22.37          	6.049
MS.178         	22.325         	6
MS.179         	22.28          	6.075
MS.180         	22.235         	6.081
MS.181         	22.192         	6.034
MS.182         	22.147         	5.998
MS.183         	22.102         	6.067
MS.184         	22.06          	5.996
MS.185         	22.015         	5.899
MS.186         	21.97          	6.121
MS.187         	21.927         	5.893
MS.188         	21.882         	5.901
MS.189         	21.84          	5.962
MS.190         	21.795         	5.503
MS.191         	21.752         	5.944
MS.192         	21.71          	5.906
MS.193         	21.665         	4.967
MS.194         	21.622         	5.74
MS.195         	21.58          	5.523
MS.196         	21.535         	5.853
MS.197         	21.493         	5.36
MS.198         	21.45          	5.39
MS.199         	21.407         	5.452
MS.200         	21.365         	5.406
MS.201         	21.323         	5.46
MS.202         	21.28          	5.056
MS.203         	21.237         	5.758
MS.204         	21.195         	5.517
MS.205         	21.153         	5.787
MS.206         	21.11          	5.303
MS.207         	21.067         	5.674
MS.208         	21.025         	5.44
MS.209         	20.983         	5.434
MS.210         	20.942         	5.37
MS.211         	20.9           	5.426
MS.212         	20.858         	5.505
MS.213         	20.815         	5.428
MS.214         	20.775         	5.47
MS.215         	20.733         	5.406
MS.216         	20.692         	5.436
MS.217         	20.65          	5.487
MS.218         	20.61          	5.477
MS.219         	20.567         	5.456
MS.220         	20.528         	5.597
MS.221         	20.485         	5.517
MS.222         	20.445         	5.509
MS.223         	20.405         	5.533
MS.224         	20.362         	5.515
MS.225         	20.323         	5.432
MS.226         	20.282         	5.46
MS.227         	20.243         	5.533
MS.228         	20.2           	5.477
MS.229         	20.16          	5.321
MS.230         	20.12          	5.545
MS.231         	20.08          	4.931
MS.232         	20.04          	5.416
MS.233         	20             	5.418
MS.234         	19.96          	5.333
MS.235         	19.92          	5.479
MS.236         	19.88          	5.392
MS.237         	19.84          	4.8
MS.238         	19.8           	4.842
MS.239         	19.76          	5.245
MS.240         	19.722         	5.386
MS.241         	19.682         	4.8
MS.242         	19.642         	5.243
MS.243         	19.605         	4.806
MS.244         	19.565         	5.315
MS.245         	19.525         	4.782
MS.246         	19.487         	4.77
MS.247         	19.448         	4.824
MS.248         	19.407         	4.792
MS.249         	19.37          	4.739
MS.250         	19.33          	4.774
MS.251         	19.292         	4.792
MS.252         	19.255         	4.717
MS.253         	19.215         	4.784
MS.254         	19.177         	4.733
MS.255         	19.14          	4.49
MS.256         	19.1           	4.671
MS.257         	19.062         	4.625
MS.258         	19.025         	4.695
MS.259         	18.987         	4.687
MS.260         	18.948         	4.741
MS.261         	18.91          	4.578
MS.262         	18.872         	4.681
MS.263         	18.835         	4.522
MS.264         	18.797         	4.625
MS.265         	18.76          	4.405
MS.266         	18.722         	4.612
MS.267         	18.685         	4.336
MS.268         	18.647         	4.435
MS.269         	18.61          	4.415
MS.270         	18.573         	4.479
MS.271         	18.535         	4.522
MS.272         	18.5           	4.399
MS.273         	18.462         	4.302
MS.274         	18.425         	4.506
MS.275         	18.387         	4.332
MS.276         	18.352         	4.385
MS.277         	18.315         	4.268
MS.278         	18.278         	4.453
MS.279         	18.243         	4.421
MS.280         	18.205         	4.169
MS.281         	18.17          	4.264
MS.282         	18.132         	3.897
MS.283         	18.097         	4.03
MS.284         	18.06          	4.111
MS.285         	18.025         	4.25
MS.286         	17.987         	4.278
MS.287         	17.952         	4.048
MS.288         	17.917         	4.097
MS.289         	17.88          	3.837
MS.290         	17.845         	3.889
MS.291         	17.81          	3.732
MS.292         	17.772         	3.533
MS.293         	17.737         	3.42
MS.294         	17.702         	4.133
MS.295         	17.667         	3.593
MS.296         	17.632         	4.099
MS.297         	17.597         	3.803
MS.298         	17.562         	3.422
MS.299         	17.528         	4.135
MS.300         	17.493         	3.932
MS.301         	17.458         	3.936
MS.302         	17.422         	3.94
MS.303         	17.387         	4.036
MS.304         	17.352         	4.069
MS.305         	17.317         	4.109
MS.306         	17.282         	4.002
MS.307         	17.247         	3.988
MS.308         	17.215         	3.839
MS.309         	17.18          	3.942
MS.310         	17.145         	4.042
MS.311         	17.11          	3.869
MS.312         	17.077         	3.946
MS.313         	17.042         	3.557
MS.314         	17.007         	3.364
MS.315         	16.975         	3.986
MS.316         	16.94          	3.744
MS.317         	16.907         	3.789
MS.318         	16.872         	3.764
MS.319         	16.84          	3.684
MS.320         	16.805         	3.44
MS.321         	16.772         	3.962
MS.322         	16.737         	3.384
MS.323         	16.705         	3.764
MS.324         	16.672         	3.64
MS.325         	16.637         	3.734
MS.326         	16.605         	3.364
MS.327         	16.573         	3.325
MS.328         	16.54          	3.853
MS.329         	16.505         	3.523
MS.330         	16.472         	3.72
MS.331         	16.44          	3.557
MS.332         	16.407         	3.505
MS.333         	16.375         	3.265
MS.334         	16.342         	3.521
MS.335         	16.31          	3.47
MS.336         	16.278         	3.386
MS.337         	16.245         	3.45
MS.338         	16.212         	3.555
MS.339         	16.18          	3.307
MS.340         	16.147         	3.581
MS.341         	16.115         	3.275
MS.342         	16.083         	3.442
MS.343         	16.05          	3.364
MS.344         	16.017         	2.987
MS.345         	15.985         	3.354
MS.346         	15.955         	3.42
MS.347         	15.922         	3.229
MS.348         	15.89          	2.967
MS.349         	15.86          	3.354
MS.350         	15.827         	3.013
MS.351         	15.795         	3.18
MS.352         	15.765         	3.076
MS.353         	15.733         	2.927
MS.354         	15.7           	3.386
MS.355         	15.67          	2.552
MS.356         	15.637         	2.314
MS.357         	15.608         	2.804
MS.358         	15.575         	2.959
MS.359         	15.545         	2.443
MS.360         	15.512         	2.622
MS.361         	15.483         	3.035
MS.362         	15.452         	3.07
MS.363         	15.42          	2.598
MS.364         	15.39          	2.991
MS.365         	15.36          	3.033
MS.366         	15.327         	2.979
MS.367         	15.297         	3.178
MS.368         	15.267         	3.062
MS.369         	15.237         	2.931
MS.370         	15.207         	3.567
MS.371         	15.175         	2.765
MS.372         	15.145         	2.947
MS.373         	15.115         	2.016
MS.374         	15.085         	2.665
MS.375         	15.055         	2.558
MS.376         	15.025         	2.806
MS.377         	14.995         	2.725
MS.378         	14.965         	2.88
MS.379         	14.935         	3.166
MS.380         	14.905         	2.912
MS.381         	14.875         	3.082
MS.382         	14.845         	3.096
MS.383         	14.815         	2.967
MS.384         	14.787         	3.102
MS.385         	14.757         	3.066
MS.386         	14.727         	3.041
MS.387         	14.697         	2.939
MS.388         	14.67          	2.802
MS.389         	14.64          	2.763
MS.390         	14.61          	2.655
MS.391         	14.58          	3.047
MS.392         	14.552         	3.019
MS.393         	14.523         	2.848
MS.394         	14.495         	2.933
MS.395         	14.465         	2.842
MS.396         	14.435         	2.987
MS.397         	14.407         	2.904
MS.398         	14.377         	2.955
MS.399         	14.35          	2.941
MS.400         	14.32          	2.806
MS.401         	14.292         	2.854
MS.402         	14.265         	2.874
MS.403         	14.235         	2.647
MS.404         	14.207         	2.451
MS.405         	14.177         	2.655
MS.406         	14.15          	2.604
MS.407         	14.122         	2.699
MS.408         	14.092         	2.697
MS.409         	14.065         	2.753
MS.410         	14.037         	2.743
MS.411         	14.01          	2.727
MS.412         	13.983         	2.715
MS.413         	13.952         	2.961
MS.414         	13.925         	2.763
MS.415         	13.898         	2.707
MS.416         	13.87          	2.778
MS.417         	13.842         	2.624
MS.418         	13.815         	2.876
MS.419         	13.787         	2.558
MS.420         	13.76          	2.516
MS.421         	13.733         	2.836
MS.422         	13.705         	3.033
MS.423         	13.677         	2.56
MS.424         	13.65          	2.461
MS.425         	13.622         	2.546
MS.426         	13.595         	2.373
MS.427         	13.568         	1.913
MS.428         	13.54          	2.216
MS.429         	13.515         	2.367
MS.430         	13.487         	2.681
MS.431         	13.46          	1.928
MS.432         	13.432         	2.304
MS.433         	13.407         	2.381
MS.434         	13.38          	2.381
MS.435         	13.352         	2.5
MS.436         	13.325         	2.294
MS.437         	13.3           	1.509
MS.438         	13.273         	2.435
MS.439         	13.247         	2.151
MS.440         	13.22          	2.435
MS.441         	13.193         	1.513
MS.442         	13.167         	2.054
MS.443         	13.14          	2.276
MS.444         	13.115         	2.399
MS.445         	13.087         	2.232
MS.446         	13.062         	1.895
MS.447         	13.035         	2.258
MS.448         	13.01          	2.274
MS.449         	12.985         	2.312
MS.450         	12.957         	2.058
MS.451         	12.932         	1.98
MS.452         	12.907         	2.141
MS.453         	12.88          	1.833
MS.454         	12.855         	2.278
MS.455         	12.83          	1.72
MS.456         	12.802         	1.909
MS.457         	12.778         	1.819
MS.458         	12.752         	1.855
MS.459         	12.727         	1.936
MS.460         	12.702         	1.68
MS.461         	12.675         	1.797
MS.462         	12.65          	1.67
MS.463         	12.625         	1.797
MS.464         	12.6           	1.789
MS.465         	12.575         	1.642
MS.466         	12.55          	1.736
MS.467         	12.525         	1.776
MS.468         	12.5           	1.891
MS.469         	12.475         	1.845
MS.470         	12.45          	1.746
MS.471         	12.425         	1.7
MS.472         	12.4           	1.702
MS.473         	12.375         	1.638
MS.474         	12.35          	1.66
MS.475         	12.325         	1.744
MS.476         	12.302         	1.74
MS.477         	12.278         	1.738
MS.478         	12.252         	1.742
MS.479         	12.227         	1.698
MS.480         	12.202         	1.742
MS.481         	12.18          	1.603
MS.482         	12.155         	1.521
MS.483         	12.13          	1.517
MS.484         	12.108         	1.269
MS.485         	12.082         	1.646
MS.486         	12.057         	1.875
MS.487         	12.035         	1.537
MS.488         	12.01          	1.579
MS.489         	11.985         	1.519
MS.490         	11.962         	1.585
MS.491         	11.938         	1.605
MS.492         	11.915         	1.585
MS.493         	11.89          	1.575
MS.494         	11.867         	1.438
MS.495         	11.842         	1.358
MS.496         	11.82          	1.44
MS.497         	11.795         	1.488
MS.498         	11.773         	1.394
MS.499         	11.747         	1.362
MS.500         	11.725         	1.505
MS.501         	11.702         	1.444
MS.502         	11.677         	1.333
MS.503         	11.655         	1.343
MS.504         	11.632         	1.38
MS.505         	11.608         	1.333
MS.506         	11.585         	1.356
MS.507         	11.562         	1.382
MS.508         	11.54          	1.374
MS.509         	11.515         	1.299
MS.510         	11.492         	1.267
MS.511         	11.47          	1.271
MS.512         	11.447         	1.215
MS.513         	11.425         	1.15
MS.514         	11.403         	1.237
MS.515         	11.377         	1.172
MS.516         	11.355         	1.406
MS.517         	11.332         	1.16
MS.518         	11.31          	1.124
MS.519         	11.287         	1.126
MS.520         	11.265         	1.09
MS.521         	11.242         	1.124
MS.522         	11.22          	1.047
MS.523         	11.197         	1.152
MS.524         	11.175         	1.16
MS.525         	11.153         	1.132
MS.526         	11.13          	1.293
MS.527         	11.108         	1.106
MS.528         	11.087         	1.14
MS.529         	11.065         	1.231
MS.530         	11.042         	1.027
MS.531         	11.02          	1.07
MS.532         	10.997         	0.993
MS.533         	10.975         	0.941
MS.534         	10.955         	1.049
MS.535         	10.932         	0.848
MS.536         	10.91          	0.981
MS.537         	10.887         	0.914
MS.538         	10.867         	0.949
MS.539         	10.845         	1.162
MS.540         	10.823         	0.836
MS.541         	10.802         	0.852
MS.542         	10.78          	0.463
MS.543         	10.76          	0.85
MS.544         	10.738         	0.663
MS.545         	10.715         	0.669
MS.546         	10.695         	0.691
MS.547         	10.672         	0.735
MS.548         	10.653         	0.554
MS.549         	10.63          	0.713
MS.550         	10.61          	0.588
MS.551         	10.587         	0.634
MS.552         	10.568         	0.653
MS.553         	10.545         	0.735
MS.554         	10.525         	0.548
MS.555         	10.502         	0.536
MS.556         	10.483         	0.518
MS.557         	10.462         	0.685
MS.558         	10.44          	0.487
MS.559         	10.42          	0.542
MS.560         	10.4           	0.445
MS.561         	10.377         	0.157
MS.562         	10.358         	0.572
MS.563         	10.337         	0.469
MS.564         	10.318         	0.58
MS.565         	10.295         	0.544
MS.566         	10.275         	0.489
MS.567         	10.255         	0.471
MS.568         	10.235         	0.453
MS.569         	10.212         	0.354
MS.570         	10.193         	0.5
MS.571         	10.172         	0.542
MS.572         	10.153         	0.401
MS.573         	10.132         	0.417
MS.574         	10.113         	0.29
MS.575         	10.092         	0.578
MS.576         	10.073         	0.419
MS.577         	10.052         	0.453
MS.578         	10.032         	0.359
MS.579         	10.012         	0.441
MS.580         	9.992          	0.35
MS.581         	9.972          	0.417
MS.582         	9.952          	0.405
MS.583         	9.932          	0.485
MS.584         	9.912          	0.336
MS.585         	9.892          	0.421
MS.586         	9.872          	0.389
MS.587         	9.852          	0.298
MS.588         	9.832          	0.367
MS.589         	9.812          	0.135
MS.590         	9.792          	0.238
MS.591         	9.775          	0.3
MS.592         	9.755          	0.445
MS.593         	9.735          	0.29
MS.594         	9.715          	0.153
MS.595         	9.695          	0.23
MS.596         	9.677          	0.296
MS.597         	9.657          	0.268
MS.598         	9.637          	0.274
MS.599         	9.62           	0.328
MS.600         	9.6            	0.169
MS.601         	9.58           	0.167
MS.602         	9.562          	0.24
MS.603         	9.542          	0.306
MS.604         	9.523          	0.238
MS.605         	9.505          	0.197
MS.606         	9.485          	0.268
MS.607         	9.465          	0.32
MS.608         	9.448          	0.314
MS.609         	9.427          	0.296
MS.610         	9.41           	0.284
MS.611         	9.39           	0.218
MS.612         	9.372          	0.288
MS.613         	9.352          	0.236
MS.614         	9.335          	0.34
MS.615         	9.315          	0.218
MS.616         	9.297          	0.284
MS.617         	9.278          	0.22
MS.618         	9.26           	0.242
MS.619         	9.242          	0.22
MS.620         	9.222          	0.28
MS.621         	9.205          	0.26
MS.622         	9.188          	0.369
MS.623         	9.167          	0.157
MS.624         	9.15           	0.175
MS.625         	9.132          	0.256
MS.626         	9.113          	0.201
MS.627         	9.095          	0.248
MS.628         	9.077          	0.252
MS.629         	9.057          	0.185
MS.630         	9.04           	0.173
MS.631         	9.023          	0.177
MS.632         	9.005          	0.244
MS.633         	8.988          	0.209
MS.634         	8.967          	0.189
MS.635         	8.95           	0.169
MS.636         	8.932          	0.254
MS.637         	8.915          	0.171
MS.638         	8.898          	0.181
MS.639         	8.88           	0.191
MS.640         	8.863          	0.159
MS.641         	8.845          	0.145
MS.642         	8.825          	0.129
MS.643         	8.807          	0.203
MS.644         	8.79           	0.161
MS.645         	8.773          	0.22
MS.646         	8.755          	0.167
MS.647         	8.738          	0.167
MS.648         	8.72           	0.167
MS.649         	8.702          	0.032
MS.650         	8.685          	0.054
MS.651         	8.667          	0.006
MS.652         	8.653          	0.016
MS.653         	8.635          	0.181
MS.654         	8.617          	0.008
MS.655         	8.6            	0.038
MS.656         	8.582          	0.04
MS.657         	8.565          	0.046
MS.658         	8.547          	0.07
MS.659         	8.53           	0.05
MS.660         	8.515          	0.002
MS.661         	8.497          	0.042
MS.662         	8.48           	0.062
MS.663         	8.462          	0.07
MS.664         	8.448          	0.028
MS.665         	8.43           	0.022
MS.666         	8.412          	0.077
MS.667         	8.395          	0.022
MS.668         	8.38           	0.014
MS.669         	8.363          	0.012
MS.670         	8.345          	0.024
MS.671         	8.33           	0.032
MS.672         	8.312          	0.032
MS.673         	8.295          	0.006
MS.674         	8.28           	0.155
MS.675         	8.262          	0.111
MS.676         	8.245          	0.117
MS.677         	8.23           	0.036
MS.678         	8.212          	0.205
MS.679         	8.198          	0.079
MS.680         	8.18           	0.024
MS.681         	8.165          	0.197
MS.682         	8.148          	0.058
MS.683         	8.132          	0.042
MS.684         	8.115          	0.014
MS.685         	8.1            	0.044
MS.686         	8.082          	0.038
MS.687         	8.068          	0.105
MS.688         	8.05           	0.085
MS.689         	8.035          	0.04
MS.690         	8.017          	0.018
MS.691         	8.002          	0.034
MS.692         	7.987          	0.05
MS.693         	7.97           	0.105
MS.694         	7.955          	0.03
MS.695         	7.938          	0.149
MS.696         	7.922          	0.06
MS.697         	7.907          	0.066
MS.698         	7.89           	0.044
MS.699         	7.875          	0.016
MS.700         	7.86           	0.181
MS.701         	7.845          	0.087
MS.702         	7.827          	0.044
MS.703         	7.812          	0.000
MS.704         	7.797          	0.135
MS.705         	7.782          	0.117
MS.706         	7.765          	0.068
MS.707         	7.75           	0.064
MS.708         	7.735          	-0.002
MS.709         	7.72           	0.028
MS.710         	7.705          	0.02
MS.711         	7.688          	0.105
MS.712         	7.672          	0.109
MS.713         	7.657          	0.036
MS.714         	7.642          	0.038
MS.715         	7.628          	0.054
MS.716         	7.612          	0.226
MS.717         	7.597          	0.046
MS.718         	7.582          	0.046
MS.719         	7.567          	0.038
MS.720         	7.552          	0.006
MS.721         	7.535          	0.024
MS.722         	7.52           	0.018
MS.723         	7.505          	0.02
MS.724         	7.49           	0.014
MS.725         	7.475          	0.012
MS.726         	7.462          	0.014
MS.727         	7.447          	0.012
MS.728         	7.432          	0.077
MS.729         	7.418          	0.042
MS.730         	7.402          	0.046
MS.731         	7.387          	0.05
MS.732         	7.372          	0.087
MS.733         	7.357          	0.056
MS.734         	7.342          	0.03
MS.735         	7.327          	0.038
MS.736         	7.312          	0.014
MS.737         	7.3            	0.099
MS.738         	7.285          	0.008
MS.739         	7.27           	-0.004
MS.740         	7.255          	0.032
MS.741         	7.24           	0.056
MS.742         	7.227          	0.008
MS.743         	7.212          	0.089
MS.744         	7.197          	0.012
MS.745         	7.182          	0.089
MS.746         	7.168          	0.04
MS.747         	7.155          	0.024
MS.748         	7.14           	0.07
MS.749         	7.125          	0.028
MS.750         	7.112          	0.042
MS.751         	7.097          	0.091
MS.752         	7.082          	0.077
MS.753         	7.07           	0.046
MS.754         	7.055          	0.095
MS.755         	7.04           	0.044
MS.756         	7.027          	0.018
MS.757         	7.012          	0.123
MS.758         	6.997          	0.036
MS.759         	6.985          	0.004
MS.760         	6.97           	0.042
MS.761         	6.957          	0.006
MS.762         	6.942          	0.075
MS.763         	6.93           	0.008
MS.764         	6.915          	0.02
MS.765         	6.902          	0.026
MS.766         	6.887          	0.105
MS.767         	6.875          	0.022
MS.768         	6.86           	0.054
MS.769         	6.847          	0.044
MS.770         	6.832          	0.026
MS.771         	6.82           	0.052
MS.772         	6.805          	0.028
MS.773         	6.793          	0.006
MS.774         	6.777          	0.032
MS.775         	6.765          	0.062
MS.776         	6.75           	0.064
MS.777         	6.737          	-0.026
MS.778         	6.725          	0.091
MS.779         	6.71           	0.034
MS.780         	6.697          	-0.006
MS.781         	6.685          	0.07
MS.782         	6.67           	0.073
MS.783         	6.657          	0.048
DERIVED EXCITABILITY VARIABLES
Program = QTracP 9/10/2021
Threshold method = 6 (optimised for CAP, using data for present condition only)
SR method = 1 (using actual data values)
6.                 	0.000               	Peak response\(mV)
9.                 	32.1                	Temperature ( C)
17.                	74                  	Age (years)
18.                	1                   	Sex (M=1, F=2)

EXTRA VARIABLES

MScPeak(mV) = 6.25
MScS5(mA) = 9.72
MScS50(mA) = 15.57
MScS95(mA) = 25.15
MScNSteps = 1
MScSteps(%) = 3
MScStepMax(%) = 3
MScD50 = 84
MScSlope = 2.37
MScDuration(min) = 7.3
MSFTraces = 711
MSFPeakAmp(mV) = 6.27
MSFNUnits = 41
MSFMeanUnitAmp(uV) = 152.9
MSFHuntTime(m) = 4.15
MSFError(%) = 7.15
MSFNLarge = 10.91
MSFMedianAmp(%) = 1.99
MSFMedianAmp(mV) = 0.125
MSFHalfAmpAmp(%) = 2.84
MSFHalfAmpAmp(mV) = 0.178
MSFLargestAmp(%) = 8.41
MSFLargestAmp(mV) = 0.527
MSFMeanRS(%) = 2.01
MSFSizeLimit(uV) = 30.6
MSFLimitType = 3
MSFSmallestAmp(uV) = 32.8
MSFOpts = 10106121

EXTRA WAVEFORMS


!MScan Model
!41
	1	8.63	0.69	1.97
	2	8.72	0.67	1.97
	3	8.84	1.02	1.97
	4	9.29	1.36	1.97
	5	9.79	0.78	1.97
	6	9.96	1.46	1.97
	7	10.49	2.48	1.97
	8	10.68	2.12	1.97
	9	10.77	1.99	1.97
	10	10.87	1.49	1.97
	11	10.99	2.62	1.97
	12	11.31	2.16	1.97
	13	11.39	0.52	1.97
	14	11.53	1.56	1.97
	15	11.6	0.73	1.97
	16	11.71	1.11	1.97
	17	11.84	1.73	1.97
	18	12.04	2.84	1.97
	19	12.73	3.41	1.97
	20	12.85	4.81	1.97
	21	13.61	4.06	1.97
	22	13.65	4.61	1.97
	23	14.5	2.55	1.97
	24	15.85	4.17	1.97
	25	16.17	3.99	1.97
	26	16.98	6.33	1.97
	27	17.79	1.73	1.97
	28	17.99	2.38	1.97
	29	18.12	2.34	1.97
	30	18.37	3.04	1.97
	31	18.59	1.51	1.97
	32	18.74	1.12	1.97
	33	18.95	1.7	1.97
	34	19.23	1.59	1.97
	35	19.52	1.25	1.97
	36	20.03	8.41	2.37
	37	21.59	4.55	1.97
	38	21.93	2.84	1.97
	39	21.93	1.89	1.97
	40	25.22	2.76	1.97
	41	28.25	1.59	1.97

