File:              	C:\Qtrac\Data\Daniel M Sørensen\MScan multicentre study\Data from centres\Odense\Processed data\TKC00227C.QZD
Name:              	DK.ODE.NC.2.2
Protocol:          	MSCAN-R2
Date:              	27/2/20
Start time:        	11:32:22
Age:               	74
Sex:               	m
Temperature:       	31.9
S/R sites:         	ADM
NC/disease:        	NC
Operator:          	TK
Comments:
M-SCAN DATA (9.9-0.9m)
Scanpts: 49, 54, 603, 629
Stim. (mA)     	Amp. (mV)
MS.1           	34.5           	6.238
MS.2           	34.5           	6.234
MS.3           	34.5           	6.264
MS.4           	34.5           	6.258
MS.5           	34.5           	6.276
MS.6           	34.5           	6.238
MS.7           	34.5           	6.278
MS.8           	34.5           	6.226
MS.9           	34.5           	6.286
MS.10          	34.5           	6.288
MS.11          	34.5           	6.296
MS.12          	34.5           	6.276
MS.13          	34.5           	6.312
MS.14          	34.5           	6.333
MS.15          	34.5           	6.238
MS.16          	34.5           	6.322
MS.17          	34.5           	6.31
MS.18          	34.5           	6.296
MS.19          	34.5           	6.262
MS.20          	34.5           	6.294
MS.21          	34.5           	6.272
MS.22          	34.5           	6.286
MS.23          	34.362         	6.343
MS.24          	34.292         	6.3
MS.25          	34.225         	6.288
MS.26          	34.157         	6.379
MS.27          	34.087         	6.345
MS.28          	34.02          	6.351
MS.29          	33.952         	6.326
MS.30          	33.885         	6.32
MS.31          	33.818         	6.359
MS.32          	33.75          	6.373
MS.33          	33.682         	6.339
MS.34          	33.615         	6.314
MS.35          	33.548         	6.339
MS.36          	33.48          	6.373
MS.37          	33.412         	6.431
MS.38          	33.347         	6.403
MS.39          	33.28          	6.399
MS.40          	33.212         	6.401
MS.41          	33.147         	6.383
MS.42          	33.08          	6.389
MS.43          	33.015         	6.401
MS.44          	32.95          	6.415
MS.45          	32.882         	6.381
MS.46          	32.818         	6.417
MS.47          	32.752         	6.427
MS.48          	32.688         	6.405
MS.49          	32.62          	6.385
MS.50          	32.555         	6.381
MS.51          	32.49          	6.453
MS.52          	32.425         	6.459
MS.53          	32.36          	6.405
MS.54          	32.298         	6.369
MS.55          	32.232         	6.469
MS.56          	32.167         	6.455
MS.57          	32.103         	6.387
MS.58          	32.04          	6.401
MS.59          	31.975         	6.403
MS.60          	31.91          	6.431
MS.61          	31.847         	6.415
MS.62          	31.782         	6.322
MS.63          	31.72          	6.29
MS.64          	31.657         	6.369
MS.65          	31.592         	6.385
MS.66          	31.53          	6.359
MS.67          	31.467         	6.304
MS.68          	31.405         	6.365
MS.69          	31.342         	6.345
MS.70          	31.28          	6.32
MS.71          	31.217         	6.389
MS.72          	31.155         	6.359
MS.73          	31.092         	6.377
MS.74          	31.03          	6.365
MS.75          	30.967         	6.304
MS.76          	30.905         	6.331
MS.77          	30.845         	6.357
MS.78          	30.782         	6.298
MS.79          	30.722         	6.335
MS.80          	30.66          	6.399
MS.81          	30.597         	6.423
MS.82          	30.537         	6.294
MS.83          	30.477         	6.26
MS.84          	30.415         	6.3
MS.85          	30.355         	6.425
MS.86          	30.295         	6.423
MS.87          	30.233         	6.314
MS.88          	30.172         	6.326
MS.89          	30.112         	6.407
MS.90          	30.052         	6.316
MS.91          	29.992         	6.357
MS.92          	29.932         	6.369
MS.93          	29.872         	6.284
MS.94          	29.812         	6.365
MS.95          	29.755         	6.294
MS.96          	29.695         	6.341
MS.97          	29.635         	6.26
MS.98          	29.575         	6.339
MS.99          	29.517         	6.302
MS.100         	29.457         	6.234
MS.101         	29.4           	6.308
MS.102         	29.34          	6.316
MS.103         	29.282         	6.214
MS.104         	29.222         	6.236
MS.105         	29.165         	6.24
MS.106         	29.108         	6.236
MS.107         	29.047         	6.214
MS.108         	28.99          	6.159
MS.109         	28.932         	6.149
MS.110         	28.875         	6.185
MS.111         	28.817         	6.036
MS.112         	28.76          	6.091
MS.113         	28.702         	6.26
MS.114         	28.645         	6.125
MS.115         	28.587         	6.055
MS.116         	28.53          	6.22
MS.117         	28.472         	6.02
MS.118         	28.415         	6.022
MS.119         	28.36          	5.906
MS.120         	28.302         	6.016
MS.121         	28.245         	6.042
MS.122         	28.19          	5.958
MS.123         	28.132         	5.916
MS.124         	28.077         	5.94
MS.125         	28.02          	6.097
MS.126         	27.965         	5.96
MS.127         	27.91          	5.912
MS.128         	27.852         	5.901
MS.129         	27.797         	5.777
MS.130         	27.743         	5.769
MS.131         	27.688         	5.869
MS.132         	27.632         	5.899
MS.133         	27.577         	5.686
MS.134         	27.52          	5.809
MS.135         	27.465         	5.793
MS.136         	27.412         	5.899
MS.137         	27.358         	5.821
MS.138         	27.302         	5.823
MS.139         	27.247         	5.773
MS.140         	27.192         	5.73
MS.141         	27.137         	5.694
MS.142         	27.085         	5.696
MS.143         	27.03          	5.75
MS.144         	26.975         	5.728
MS.145         	26.922         	5.68
MS.146         	26.868         	5.748
MS.147         	26.815         	5.712
MS.148         	26.762         	5.674
MS.149         	26.707         	5.754
MS.150         	26.655         	5.732
MS.151         	26.6           	5.678
MS.152         	26.547         	5.789
MS.153         	26.495         	5.706
MS.154         	26.442         	5.686
MS.155         	26.39          	5.712
MS.156         	26.337         	5.68
MS.157         	26.285         	5.724
MS.158         	26.233         	5.668
MS.159         	26.18          	5.736
MS.160         	26.127         	5.758
MS.161         	26.075         	5.775
MS.162         	26.022         	5.724
MS.163         	25.97          	5.716
MS.164         	25.917         	5.698
MS.165         	25.868         	5.666
MS.166         	25.815         	5.662
MS.167         	25.762         	5.684
MS.168         	25.712         	5.583
MS.169         	25.66          	5.656
MS.170         	25.61          	5.644
MS.171         	25.557         	5.626
MS.172         	25.507         	5.543
MS.173         	25.455         	5.66
MS.174         	25.405         	5.571
MS.175         	25.355         	5.66
MS.176         	25.305         	5.62
MS.177         	25.252         	5.601
MS.178         	25.202         	5.63
MS.179         	25.153         	5.555
MS.180         	25.102         	5.613
MS.181         	25.052         	5.664
MS.182         	25.002         	5.646
MS.183         	24.952         	5.551
MS.184         	24.903         	5.561
MS.185         	24.852         	5.549
MS.186         	24.802         	5.493
MS.187         	24.752         	5.485
MS.188         	24.705         	5.503
MS.189         	24.655         	5.331
MS.190         	24.605         	5.368
MS.191         	24.555         	5.289
MS.192         	24.507         	5.412
MS.193         	24.457         	5.374
MS.194         	24.41          	5.309
MS.195         	24.36          	5.448
MS.196         	24.312         	5.315
MS.197         	24.262         	5.366
MS.198         	24.215         	5.253
MS.199         	24.165         	5.215
MS.200         	24.118         	5.209
MS.201         	24.07          	5.247
MS.202         	24.022         	5.269
MS.203         	23.972         	5.106
MS.204         	23.925         	5.273
MS.205         	23.877         	5.209
MS.206         	23.83          	5.13
MS.207         	23.782         	5.114
MS.208         	23.735         	5.35
MS.209         	23.688         	5.035
MS.210         	23.64          	5.049
MS.211         	23.592         	5.009
MS.212         	23.545         	5.066
MS.213         	23.5           	4.979
MS.214         	23.452         	5.047
MS.215         	23.405         	5.066
MS.216         	23.358         	4.935
MS.217         	23.312         	5.013
MS.218         	23.265         	4.951
MS.219         	23.217         	5.021
MS.220         	23.172         	5.114
MS.221         	23.125         	4.886
MS.222         	23.08          	4.979
MS.223         	23.032         	5.035
MS.224         	22.987         	4.902
MS.225         	22.942         	4.856
MS.226         	22.895         	4.937
MS.227         	22.85          	5.023
MS.228         	22.805         	5.035
MS.229         	22.76          	4.919
MS.230         	22.712         	5.068
MS.231         	22.667         	4.836
MS.232         	22.622         	4.778
MS.233         	22.577         	4.677
MS.234         	22.532         	4.788
MS.235         	22.487         	4.906
MS.236         	22.442         	4.892
MS.237         	22.397         	4.737
MS.238         	22.352         	4.79
MS.239         	22.307         	4.622
MS.240         	22.262         	4.822
MS.241         	22.22          	4.868
MS.242         	22.175         	4.534
MS.243         	22.13          	4.566
MS.244         	22.085         	4.691
MS.245         	22.042         	4.906
MS.246         	21.997         	4.484
MS.247         	21.955         	4.534
MS.248         	21.91          	4.369
MS.249         	21.868         	4.484
MS.250         	21.823         	4.163
MS.251         	21.78          	4.363
MS.252         	21.735         	4.302
MS.253         	21.692         	4.125
MS.254         	21.65          	4.165
MS.255         	21.605         	4.32
MS.256         	21.562         	4.292
MS.257         	21.52          	4.145
MS.258         	21.477         	4.161
MS.259         	21.432         	3.986
MS.260         	21.39          	4.238
MS.261         	21.347         	4.155
MS.262         	21.305         	3.984
MS.263         	21.262         	4.034
MS.264         	21.22          	4.042
MS.265         	21.177         	3.978
MS.266         	21.135         	4.016
MS.267         	21.092         	3.94
MS.268         	21.05          	3.946
MS.269         	21.01          	3.992
MS.270         	20.967         	3.944
MS.271         	20.925         	3.96
MS.272         	20.882         	3.64
MS.273         	20.842         	3.93
MS.274         	20.8           	3.593
MS.275         	20.757         	3.946
MS.276         	20.717         	3.916
MS.277         	20.675         	3.994
MS.278         	20.635         	3.926
MS.279         	20.592         	3.587
MS.280         	20.552         	3.587
MS.281         	20.51          	3.585
MS.282         	20.47          	3.589
MS.283         	20.43          	3.565
MS.284         	20.387         	3.583
MS.285         	20.347         	3.525
MS.286         	20.307         	3.569
MS.287         	20.265         	3.539
MS.288         	20.225         	3.589
MS.289         	20.185         	3.569
MS.290         	20.145         	3.569
MS.291         	20.105         	3.539
MS.292         	20.065         	3.529
MS.293         	20.025         	3.545
MS.294         	19.985         	3.521
MS.295         	19.945         	3.501
MS.296         	19.905         	3.545
MS.297         	19.865         	3.541
MS.298         	19.825         	3.515
MS.299         	19.785         	3.501
MS.300         	19.745         	3.557
MS.301         	19.708         	3.497
MS.302         	19.667         	3.484
MS.303         	19.627         	3.535
MS.304         	19.587         	3.497
MS.305         	19.55          	3.499
MS.306         	19.51          	3.515
MS.307         	19.472         	3.507
MS.308         	19.432         	3.482
MS.309         	19.395         	3.428
MS.310         	19.355         	3.448
MS.311         	19.317         	3.535
MS.312         	19.278         	3.47
MS.313         	19.24          	3.497
MS.314         	19.2           	3.424
MS.315         	19.163         	3.414
MS.316         	19.125         	3.456
MS.317         	19.085         	3.436
MS.318         	19.047         	3.535
MS.319         	19.01          	3.188
MS.320         	18.972         	3.201
MS.321         	18.935         	3.198
MS.322         	18.895         	3.456
MS.323         	18.858         	3.448
MS.324         	18.82          	3.271
MS.325         	18.782         	3.188
MS.326         	18.745         	3.213
MS.327         	18.708         	3.198
MS.328         	18.67          	3.19
MS.329         	18.632         	3.205
MS.330         	18.595         	3.196
MS.331         	18.56          	3.209
MS.332         	18.522         	3.08
MS.333         	18.485         	3.166
MS.334         	18.448         	3.192
MS.335         	18.41          	3.203
MS.336         	18.375         	3.07
MS.337         	18.337         	3.207
MS.338         	18.3           	3.033
MS.339         	18.265         	3.074
MS.340         	18.227         	3.066
MS.341         	18.192         	3.072
MS.342         	18.155         	3.088
MS.343         	18.12          	2.886
MS.344         	18.083         	3.007
MS.345         	18.047         	3.029
MS.346         	18.01          	3.057
MS.347         	17.975         	2.987
MS.348         	17.938         	3.039
MS.349         	17.903         	3.031
MS.350         	17.868         	3.039
MS.351         	17.833         	2.846
MS.352         	17.795         	2.882
MS.353         	17.76          	2.969
MS.354         	17.725         	2.85
MS.355         	17.69          	2.876
MS.356         	17.655         	2.953
MS.357         	17.618         	2.796
MS.358         	17.583         	2.808
MS.359         	17.547         	2.828
MS.360         	17.512         	2.977
MS.361         	17.477         	2.806
MS.362         	17.442         	2.884
MS.363         	17.407         	2.959
MS.364         	17.372         	2.856
MS.365         	17.34          	2.582
MS.366         	17.305         	2.951
MS.367         	17.27          	2.572
MS.368         	17.235         	2.802
MS.369         	17.2           	2.733
MS.370         	17.167         	2.645
MS.371         	17.132         	2.59
MS.372         	17.097         	2.582
MS.373         	17.062         	2.576
MS.374         	17.03          	2.397
MS.375         	16.995         	2.536
MS.376         	16.962         	2.534
MS.377         	16.927         	2.391
MS.378         	16.895         	2.524
MS.379         	16.86          	2.093
MS.380         	16.827         	2.429
MS.381         	16.792         	2.411
MS.382         	16.76          	2.447
MS.383         	16.725         	2.282
MS.384         	16.692         	2.268
MS.385         	16.66          	2.284
MS.386         	16.625         	2.284
MS.387         	16.592         	2.266
MS.388         	16.56          	2.393
MS.389         	16.528         	2.151
MS.390         	16.493         	2.153
MS.391         	16.46          	2.294
MS.392         	16.427         	2.145
MS.393         	16.395         	2.151
MS.394         	16.362         	2.113
MS.395         	16.33          	2.159
MS.396         	16.297         	2.163
MS.397         	16.265         	2.163
MS.398         	16.233         	2.149
MS.399         	16.2           	2.153
MS.400         	16.167         	2.161
MS.401         	16.135         	2.167
MS.402         	16.102         	1.831
MS.403         	16.07          	1.954
MS.404         	16.038         	1.831
MS.405         	16.005         	1.952
MS.406         	15.975         	1.891
MS.407         	15.943         	1.855
MS.408         	15.91          	1.865
MS.409         	15.877         	2.006
MS.410         	15.847         	1.839
MS.411         	15.815         	1.793
MS.412         	15.782         	1.803
MS.413         	15.752         	1.758
MS.414         	15.72          	1.766
MS.415         	15.69          	1.75
MS.416         	15.657         	1.656
MS.417         	15.627         	1.758
MS.418         	15.595         	1.756
MS.419         	15.565         	1.746
MS.420         	15.532         	1.74
MS.421         	15.502         	1.617
MS.422         	15.47          	1.726
MS.423         	15.44          	1.65
MS.424         	15.41          	1.646
MS.425         	15.377         	1.732
MS.426         	15.347         	1.611
MS.427         	15.318         	1.736
MS.428         	15.287         	1.631
MS.429         	15.255         	1.631
MS.430         	15.225         	1.631
MS.431         	15.195         	1.694
MS.432         	15.165         	1.698
MS.433         	15.135         	1.567
MS.434         	15.105         	1.599
MS.435         	15.075         	1.561
MS.436         	15.042         	1.587
MS.437         	15.012         	1.591
MS.438         	14.983         	1.595
MS.439         	14.952         	1.537
MS.440         	14.925         	1.613
MS.441         	14.895         	1.587
MS.442         	14.865         	1.525
MS.443         	14.835         	1.698
MS.444         	14.805         	1.557
MS.445         	14.775         	1.595
MS.446         	14.745         	1.432
MS.447         	14.717         	1.525
MS.448         	14.688         	1.513
MS.449         	14.657         	1.589
MS.450         	14.627         	1.523
MS.451         	14.6           	1.511
MS.452         	14.57          	1.45
MS.453         	14.54          	1.527
MS.454         	14.512         	1.462
MS.455         	14.483         	1.537
MS.456         	14.455         	1.458
MS.457         	14.425         	1.523
MS.458         	14.395         	1.299
MS.459         	14.367         	1.476
MS.460         	14.337         	1.466
MS.461         	14.31          	1.297
MS.462         	14.282         	1.293
MS.463         	14.252         	1.255
MS.464         	14.225         	1.261
MS.465         	14.195         	1.221
MS.466         	14.167         	1.215
MS.467         	14.14          	1.313
MS.468         	14.11          	1.249
MS.469         	14.082         	1.194
MS.470         	14.055         	1.174
MS.471         	14.028         	1.07
MS.472         	13.997         	1.156
MS.473         	13.97          	1.241
MS.474         	13.943         	1.005
MS.475         	13.915         	1.204
MS.476         	13.887         	1.039
MS.477         	13.86          	1.138
MS.478         	13.832         	1.019
MS.479         	13.805         	1.023
MS.480         	13.778         	0.908
MS.481         	13.75          	1.023
MS.482         	13.722         	0.757
MS.483         	13.695         	0.663
MS.484         	13.667         	0.943
MS.485         	13.64          	0.777
MS.486         	13.612         	0.767
MS.487         	13.585         	0.769
MS.488         	13.557         	0.701
MS.489         	13.53          	0.612
MS.490         	13.502         	0.663
MS.491         	13.477         	0.564
MS.492         	13.45          	0.63
MS.493         	13.422         	0.757
MS.494         	13.395         	0.822
MS.495         	13.37          	0.592
MS.496         	13.342         	0.536
MS.497         	13.315         	0.675
MS.498         	13.29          	0.602
MS.499         	13.262         	0.548
MS.500         	13.235         	0.528
MS.501         	13.21          	0.532
MS.502         	13.182         	0.683
MS.503         	13.157         	0.584
MS.504         	13.13          	0.536
MS.505         	13.105         	0.59
MS.506         	13.077         	0.651
MS.507         	13.052         	0.528
MS.508         	13.025         	0.584
MS.509         	13             	0.534
MS.510         	12.975         	0.538
MS.511         	12.947         	0.536
MS.512         	12.922         	0.328
MS.513         	12.898         	0.417
MS.514         	12.87          	0.532
MS.515         	12.845         	0.332
MS.516         	12.82          	0.328
MS.517         	12.792         	0.326
MS.518         	12.767         	0.534
MS.519         	12.742         	0.538
MS.520         	12.717         	0.336
MS.521         	12.693         	0.53
MS.522         	12.667         	0.334
MS.523         	12.64          	0.336
MS.524         	12.615         	0.338
MS.525         	12.59          	0.338
MS.526         	12.565         	0.328
MS.527         	12.54          	0.336
MS.528         	12.515         	0.282
MS.529         	12.49          	0.332
MS.530         	12.465         	0.34
MS.531         	12.44          	0.332
MS.532         	12.415         	0.338
MS.533         	12.39          	0.306
MS.534         	12.365         	0.326
MS.535         	12.342         	0.336
MS.536         	12.318         	0.308
MS.537         	12.292         	0.298
MS.538         	12.267         	0.306
MS.539         	12.242         	0.322
MS.540         	12.217         	0.32
MS.541         	12.195         	0.322
MS.542         	12.17          	0.286
MS.543         	12.145         	0.294
MS.544         	12.12          	0.294
MS.545         	12.097         	0.318
MS.546         	12.072         	0.32
MS.547         	12.047         	0.288
MS.548         	12.025         	0.29
MS.549         	12             	0.292
MS.550         	11.977         	0.195
MS.551         	11.952         	0.29
MS.552         	11.93          	0.298
MS.553         	11.905         	0.288
MS.554         	11.88          	0.197
MS.555         	11.858         	0.193
MS.556         	11.832         	0.3
MS.557         	11.81          	0.278
MS.558         	11.787         	0.197
MS.559         	11.762         	0.201
MS.560         	11.74          	0.296
MS.561         	11.715         	0.197
MS.562         	11.693         	0.292
MS.563         	11.67          	0.199
MS.564         	11.645         	0.296
MS.565         	11.622         	0.203
MS.566         	11.6           	0.302
MS.567         	11.575         	0.191
MS.568         	11.552         	0.101
MS.569         	11.53          	0.187
MS.570         	11.507         	0.185
MS.571         	11.485         	0.113
MS.572         	11.46          	0.115
MS.573         	11.438         	0.296
MS.574         	11.415         	0.113
MS.575         	11.392         	0.117
MS.576         	11.37          	0.117
MS.577         	11.347         	0.203
MS.578         	11.325         	0.113
MS.579         	11.302         	0.099
MS.580         	11.28          	0.201
MS.581         	11.257         	0.093
MS.582         	11.235         	0.115
MS.583         	11.212         	0.103
MS.584         	11.19          	0.117
MS.585         	11.167         	0.089
MS.586         	11.145         	0.099
MS.587         	11.122         	0.115
MS.588         	11.1           	0.115
MS.589         	11.077         	0.097
MS.590         	11.055         	0.097
MS.591         	11.032         	0.109
MS.592         	11.012         	0.097
MS.593         	10.99          	0.099
MS.594         	10.967         	0.105
MS.595         	10.945         	0.093
MS.596         	10.925         	0.095
MS.597         	10.903         	0.105
MS.598         	10.88          	0.097
MS.599         	10.858         	0.099
MS.600         	10.837         	0.095
MS.601         	10.815         	0.095
MS.602         	10.792         	0.099
MS.603         	10.773         	0.097
MS.604         	10.75          	0.101
MS.605         	10.73          	0.097
MS.606         	10.707         	0.101
MS.607         	10.685         	0.101
MS.608         	10.665         	0.099
MS.609         	10.642         	0.099
MS.610         	10.622         	0.101
MS.611         	10.6           	0.103
MS.612         	10.58          	0.099
MS.613         	10.56          	0.103
MS.614         	10.537         	0.099
MS.615         	10.517         	0.099
MS.616         	10.495         	0.097
MS.617         	10.475         	0.101
MS.618         	10.452         	0.097
MS.619         	10.432         	0.101
MS.620         	10.412         	0.105
MS.621         	10.39          	0.099
MS.622         	10.37          	0.103
MS.623         	10.35          	0.105
MS.624         	10.33          	0.103
MS.625         	10.307         	0.101
MS.626         	10.287         	0.103
MS.627         	10.267         	0.099
MS.628         	10.247         	0.103
MS.629         	10.225         	0.107
MS.630         	10.205         	0.105
MS.631         	10.185         	0.103
MS.632         	10.165         	0.107
MS.633         	10.145         	0.105
MS.634         	10.125         	0.107
MS.635         	10.105         	0.105
MS.636         	10.085         	0.099
MS.637         	10.065         	0.113
MS.638         	10.045         	0.105
MS.639         	10.023         	0.109
MS.640         	10.002         	0.105
MS.641         	9.983          	0.115
MS.642         	9.965          	0.107
MS.643         	9.945          	0.115
MS.644         	9.925          	0.117
MS.645         	9.905          	0.111
MS.646         	9.885          	0.105
MS.647         	9.865          	0.103
MS.648         	9.845          	0.113
MS.649         	9.825          	0.109
MS.650         	9.805          	0.266
MS.651         	9.785          	0.115
MS.652         	9.767          	0.115
MS.653         	9.747          	0.113
MS.654         	9.727          	0.111
MS.655         	9.707          	0.109
MS.656         	9.688          	0.109
MS.657         	9.67           	0.109
MS.658         	9.65           	0.127
MS.659         	9.63           	0.121
MS.660         	9.613          	0.099
MS.661         	9.592          	0.117
MS.662         	9.573          	0.113
MS.663         	9.555          	0.111
MS.664         	9.535          	0.115
MS.665         	9.515          	0.101
MS.666         	9.497          	0.111
MS.667         	9.477          	0.109
MS.668         	9.46           	0.115
MS.669         	9.44           	0.103
MS.670         	9.42           	0.099
MS.671         	9.403          	0.137
MS.672         	9.382          	0.107
MS.673         	9.365          	0.115
MS.674         	9.345          	0.109
MS.675         	9.327          	0.101
MS.676         	9.31           	0.113
MS.677         	9.29           	0.113
MS.678         	9.273          	0.099
MS.679         	9.252          	0.099
MS.680         	9.235          	0.119
MS.681         	9.215          	0.103
MS.682         	9.198          	0.093
MS.683         	9.18           	0.101
MS.684         	9.16           	0.107
MS.685         	9.142          	0.105
MS.686         	9.125          	0.099
MS.687         	9.105          	0.113
MS.688         	9.087          	0.117
MS.689         	9.07           	0.103
MS.690         	9.052          	0.101
MS.691         	9.033          	0.105
MS.692         	9.015          	0.105
MS.693         	8.997          	0.105
MS.694         	8.98           	0.103
MS.695         	8.962          	0.101
MS.696         	8.945          	0.105
MS.697         	8.925          	0.103
MS.698         	8.908          	0.109
MS.699         	8.89           	0.109
MS.700         	8.872          	0.107
MS.701         	8.855          	0.105
MS.702         	8.837          	0.105
MS.703         	8.82           	0.109
MS.704         	8.802          	0.109
MS.705         	8.785          	0.109
MS.706         	8.767          	0.107
MS.707         	8.75           	0.103
MS.708         	8.733          	0.105
MS.709         	8.715          	0.105
MS.710         	8.698          	0.109
MS.711         	8.68           	0.099
MS.712         	8.662          	0.111
MS.713         	8.645          	0.117
MS.714         	8.627          	0.119
MS.715         	8.61           	0.109
MS.716         	8.592          	0.105
MS.717         	8.575          	0.105
MS.718         	8.56           	0.115
MS.719         	8.542          	0.129
MS.720         	8.525          	0.127
MS.721         	8.507          	0.127
MS.722         	8.49           	0.125
MS.723         	8.472          	0.121
MS.724         	8.457          	0.105
MS.725         	8.44           	0.107
MS.726         	8.422          	0.099
MS.727         	8.405          	0.105
MS.728         	8.39           	0.139
MS.729         	8.372          	0.115
MS.730         	8.355          	0.135
MS.731         	8.34           	0.119
MS.732         	8.323          	0.115
MS.733         	8.305          	0.155
MS.734         	8.29           	0.099
MS.735         	8.273          	0.141
MS.736         	8.255          	0.123
MS.737         	8.24           	0.143
MS.738         	8.222          	0.123
MS.739         	8.207          	0.141
MS.740         	8.19           	0.133
MS.741         	8.175          	0.175
MS.742         	8.158          	0.119
MS.743         	8.142          	0.117
MS.744         	8.125          	0.131
MS.745         	8.11           	0.123
MS.746         	8.092          	0.109
MS.747         	8.077          	0.068
MS.748         	8.06           	0.145
MS.749         	8.045          	0.119
MS.750         	8.028          	0.115
MS.751         	8.012          	0.131
MS.752         	7.995          	0.145
MS.753         	7.98           	0.125
MS.754         	7.965          	0.117
MS.755         	7.947          	0.115
MS.756         	7.932          	0.119
MS.757         	7.918          	0.141
MS.758         	7.9            	0.115
MS.759         	7.885          	0.135
MS.760         	7.87           	0.139
MS.761         	7.852          	0.181
MS.762         	7.837          	0.185
MS.763         	7.822          	0.117
MS.764         	7.807          	0.117
MS.765         	7.79           	0.125
MS.766         	7.775          	0.157
MS.767         	7.76           	0.111
MS.768         	7.745          	0.123
MS.769         	7.73           	0.113
MS.770         	7.712          	0.123
MS.771         	7.697          	0.121
MS.772         	7.682          	0.137
MS.773         	7.668          	0.139
MS.774         	7.652          	0.119
MS.775         	7.637          	0.157
MS.776         	7.622          	0.107
MS.777         	7.605          	0.135
MS.778         	7.59           	0.113
MS.779         	7.575          	0.129
MS.780         	7.56           	0.131
MS.781         	7.545          	0.117
MS.782         	7.53           	0.119
MS.783         	7.515          	0.125
MS.784         	7.5            	0.125
MS.785         	7.485          	0.111
MS.786         	7.47           	0.129
MS.787         	7.455          	0.133
MS.788         	7.44           	0.117
MS.789         	7.425          	0.119
MS.790         	7.41           	0.121
MS.791         	7.395          	0.123
MS.792         	7.382          	0.097
MS.793         	7.367          	0.151
MS.794         	7.352          	0.119
MS.795         	7.337          	0.149
MS.796         	7.322          	0.177
MS.797         	7.307          	0.115
MS.798         	7.293          	0.137
MS.799         	7.277          	0.107
MS.800         	7.265          	0.107
MS.801         	7.25           	0.101
MS.802         	7.235          	0.056
MS.803         	7.22           	0.117
MS.804         	7.207          	0.117
MS.805         	7.192          	0.119
MS.806         	7.177          	0.135
MS.807         	7.162          	0.115
MS.808         	7.15           	0.107
MS.809         	7.135          	0.117
MS.810         	7.12           	0.121
MS.811         	7.105          	0.127
MS.812         	7.092          	0.115
MS.813         	7.077          	0.121
MS.814         	7.062          	0.127
MS.815         	7.05           	0.097
MS.816         	7.035          	0.137
MS.817         	7.023          	0.123
MS.818         	7.007          	0.137
MS.819         	6.992          	0.127
MS.820         	6.98           	0.119
MS.821         	6.965          	0.211
MS.822         	6.952          	0.135
MS.823         	6.938          	0.135
MS.824         	6.922          	0.117
MS.825         	6.91           	0.093
MS.826         	6.895          	0.145
MS.827         	6.882          	0.131
MS.828         	6.867          	0.127
MS.829         	6.855          	0.089
MS.830         	6.84           	0.109
MS.831         	6.827          	0.131
MS.832         	6.815          	0.125
MS.833         	6.8            	0.129
MS.834         	6.787          	0.113
MS.835         	6.773          	0.119
MS.836         	6.76           	0.121
MS.837         	6.745          	0.137
MS.838         	6.733          	0.115
MS.839         	6.72           	0.131
MS.840         	6.705          	0.127
MS.841         	6.692          	0.119
MS.842         	6.68           	0.117
MS.843         	6.665          	0.123
MS.844         	6.652          	0.115
MS.845         	6.64           	0.121
MS.846         	6.625          	0.123
MS.847         	6.612          	0.111
MS.848         	6.6            	0.127
MS.849         	6.585          	0.121
MS.850         	6.572          	0.119
MS.851         	6.56           	0.123
MS.852         	6.547          	0.121
MS.853         	6.532          	0.117
MS.854         	6.52           	0.153
MS.855         	6.507          	0.129
MS.856         	6.495          	0.115
MS.857         	6.483          	0.103
MS.858         	6.467          	0.133
MS.859         	6.455          	0.131
MS.860         	6.442          	0.119
MS.861         	6.43           	0.129
MS.862         	6.418          	0.087
MS.863         	6.405          	0.151
MS.864         	6.392          	0.105
MS.865         	6.378          	0.149
MS.866         	6.365          	0.131
MS.867         	6.352          	0.125
MS.868         	6.34           	0.117
MS.869         	6.327          	0.161
MS.870         	6.315          	0.115
MS.871         	6.302          	0.123
MS.872         	6.29           	0.139
MS.873         	6.277          	0.137
MS.874         	6.265          	0.119
MS.875         	6.253          	0.131
MS.876         	6.24           	0.147
MS.877         	6.227          	0.121
MS.878         	6.215          	0.123
MS.879         	6.202          	0.127
MS.880         	6.19           	0.139
MS.881         	6.177          	0.119
MS.882         	6.165          	0.125
MS.883         	6.152          	0.141
MS.884         	6.14           	0.121
MS.885         	6.128          	0.123
MS.886         	6.117          	0.119
MS.887         	6.105          	0.125
MS.888         	6.092          	0.115
MS.889         	6.08           	0.117
MS.890         	6.067          	0.133
MS.891         	6.055          	0.121
MS.892         	6.043          	0.125
MS.893         	6.032          	0.125
MS.894         	6.02           	0.123
MS.895         	6.007          	0.121
MS.896         	5.995          	0.125
MS.897         	5.983          	0.123
MS.898         	5.97           	0.123
MS.899         	5.96           	0.129
MS.900         	5.947          	0.125
MS.901         	5.935          	0.123
MS.902         	5.922          	0.125
MS.903         	5.912          	0.135
MS.904         	5.9            	0.121
MS.905         	5.887          	0.123
MS.906         	5.878          	0.125
MS.907         	5.865          	0.137
MS.908         	5.852          	0.131
MS.909         	5.842          	0.133
MS.910         	5.83           	0.143
MS.911         	5.817          	0.137
MS.912         	5.807          	0.127
MS.913         	5.795          	0.133
MS.914         	5.782          	0.131
MS.915         	5.773          	0.127
MS.916         	5.76           	0.125
MS.917         	5.747          	0.151
MS.918         	5.737          	0.179
MS.919         	5.725          	0.121
MS.920         	5.715          	0.123
MS.921         	5.702          	0.153
MS.922         	5.692          	0.145
MS.923         	5.68           	0.133
MS.924         	5.668          	0.131
MS.925         	5.657          	0.171
MS.926         	5.645          	0.087
MS.927         	5.635          	0.159
MS.928         	5.622          	0.115
MS.929         	5.612          	0.165
MS.930         	5.6            	0.121
MS.931         	5.59           	0.153
MS.932         	5.577          	0.187
MS.933         	5.567          	0.117
MS.934         	5.557          	0.161
MS.935         	5.545          	0.151
MS.936         	5.535          	0.123
MS.937         	5.523          	0.161
MS.938         	5.512          	0.119
MS.939         	5.5            	0.149
MS.940         	5.49           	0.123
MS.941         	5.48           	0.131
MS.942         	5.467          	0.129
MS.943         	5.457          	0.145
MS.944         	5.447          	0.157
MS.945         	5.435          	0.113
MS.946         	5.425          	0.107
DERIVED EXCITABILITY VARIABLES
Program = QTracP 9/10/2021
Threshold method = 6 (optimised for CAP, using data for present condition only)
SR method = 1 (using actual data values)
6.                 	0.000               	Peak response\(mV)
9.                 	31.9                	Temperature ( C)
17.                	74                  	Age (years)
18.                	1                   	Sex (M=1, F=2)

EXTRA VARIABLES

MScPeak(mV) = 6.14
MScS5(mA) = 12.3
MScS50(mA) = 18.24
MScS95(mA) = 27.59
MScNSteps = 2
MScSteps(%) = 6.8
MScStepMax(%) = 4.5
MScD50 = 48
MScSlope = 2.46
MScDuration(min) = 9
MSFTraces = 581
MSFPeakAmp(mV) = 6.31
MSFNUnits = 89
MSFMeanUnitAmp(uV) = 70.9
MSFHuntTime(m) = 2.88
MSFError(%) = 4.07
MSFNLarge = 25.62
MSFMedianAmp(%) = 0.973
MSFMedianAmp(mV) = 0.0613
MSFHalfAmpAmp(%) = 1.3
MSFHalfAmpAmp(mV) = 0.0821
MSFLargestAmp(%) = 5.27
MSFLargestAmp(mV) = 0.332
MSFMeanRS(%) = 2
MSFSizeLimit(uV) = 15.8
MSFLimitType = 1
MSFSmallestAmp(uV) = 17.5
MSFOpts = 10106121

EXTRA WAVEFORMS


!MScan Model
!89
	1	11.27	0.33	2
	2	11.67	1.6	2
	3	11.78	0.92	2
	4	12.31	0.59	2
	5	12.64	0.78	2
	6	13.01	2.5	2
	7	13.41	2.06	2
	8	13.57	1.55	2
	9	13.64	0.87	2
	10	13.69	0.64	2
	11	13.75	1.05	2
	12	13.82	1.21	2
	13	13.9	1.18	2
	14	14.01	1.48	2
	15	14.06	0.47	2
	16	14.12	0.53	2
	17	14.18	0.65	2
	18	14.23	0.58	2
	19	14.28	0.59	2
	20	14.34	0.71	2
	21	14.4	0.39	2
	22	14.46	1.37	2
	23	14.91	1.58	2
	24	15.2	0.96	2
	25	15.49	1.01	2
	26	15.57	0.32	2
	27	15.66	0.66	2
	28	15.79	0.81	2
	29	15.88	0.7	2
	30	15.97	1.09	2
	31	16.08	1.16	2
	32	16.22	1.35	2
	33	16.42	1.85	2
	34	16.76	2.42	2
	35	16.86	0.75	2
	36	16.95	1.2	2
	37	17.05	0.91	2
	38	17.15	1.45	2
	39	17.25	1.34	2
	40	17.31	3.25	2
	41	17.94	1.14	2
	42	18.16	1.3	2
	43	18.29	0.39	2
	44	18.44	0.9	2
	45	18.81	2.03	2
	46	19.19	2.53	2
	47	19.23	1.04	2
	48	19.9	0.55	2
	49	20.34	0.6	2
	50	20.8	5.27	2
	51	21.07	0.63	2
	52	21.2	1.23	2
	53	21.3	0.97	2
	54	21.5	1.39	2
	55	21.62	0.96	2
	56	21.7	1.08	2
	57	21.79	1.36	2
	58	21.88	0.79	2
	59	21.98	1.16	2
	60	22.15	2.54	2
	61	22.42	1.93	2
	62	22.73	1.72	2
	63	23.39	1.96	2
	64	23.57	1.08	2
	65	23.81	1.04	2
	66	24.12	1.88	2
	67	24.36	0.84	2
	68	24.47	0.84	2
	69	24.55	0.46	2
	70	24.61	0.36	2
	71	24.68	0.28	2
	72	24.74	0.4	2
	73	24.8	0.47	2
	74	24.95	0.83	2
	75	25.52	1.41	2
	76	25.78	0.51	2
	77	26.97	0.98	2
	78	27.52	1.39	2
	79	27.85	1.03	2
	80	28.11	1.28	2
	81	28.34	0.99	2
	82	28.57	0.88	2
	83	28.8	0.97	2
	84	29.05	0.97	2
	85	29.18	0.45	2
	86	29.29	0.3	2
	87	29.46	0.54	2
	88	29.81	0.75	2
	89	31.78	0.75	2

