File:              	C:\Qtrac\Data\Daniel M Sørensen\MScan multicentre study\Data from centres\Antalya\Processed data\TR.NC.ANT.10.1- NCC01204C.QZD
Name:              	TR.NC.ANT.10.1
Protocol:          	MSCAN-R2
Date:              	4/12/20
Start time:        	13:55:20
Age:               	52
Sex:               	m
Temperature:       	31.2
S/R sites:         	TA
NC/disease:        	NC
Operator:          	ab
Comments:
M-SCAN DATA (6.7-0.7m)
Scanpts: 8, 13, 623, 644
Stim. (mA)     	Amp. (mV)
MS.1           	30             	6.228
MS.2           	30             	6.202
MS.3           	30             	6.222
MS.4           	30             	6.246
MS.5           	30             	6.196
MS.6           	30             	6.179
MS.7           	30             	6.198
MS.8           	30             	6.24
MS.9           	30             	6.224
MS.10          	30             	6.171
MS.11          	30             	6.194
MS.12          	30             	6.204
MS.13          	30             	6.151
MS.14          	30             	6.139
MS.15          	30             	6.161
MS.16          	30             	6.179
MS.17          	30             	6.2
MS.18          	30             	6.147
MS.19          	30             	6.135
MS.20          	30             	6.155
MS.21          	30             	6.175
MS.22          	30             	6.153
MS.23          	30             	6.125
MS.24          	29.82          	6.044
MS.25          	29.76          	6.047
MS.26          	29.702         	6.119
MS.27          	29.642         	6.103
MS.28          	29.582         	6.079
MS.29          	29.522         	6.121
MS.30          	29.465         	6.067
MS.31          	29.405         	6.091
MS.32          	29.347         	6.083
MS.33          	29.287         	6.075
MS.34          	29.23          	6.137
MS.35          	29.172         	6.024
MS.36          	29.112         	6.034
MS.37          	29.055         	6.014
MS.38          	28.997         	6.018
MS.39          	28.94          	6.022
MS.40          	28.882         	6.02
MS.41          	28.823         	5.998
MS.42          	28.765         	5.982
MS.43          	28.707         	5.942
MS.44          	28.65          	5.976
MS.45          	28.595         	6
MS.46          	28.537         	5.956
MS.47          	28.48          	5.944
MS.48          	28.422         	5.978
MS.49          	28.365         	5.968
MS.50          	28.31          	5.964
MS.51          	28.252         	5.956
MS.52          	28.198         	5.944
MS.53          	28.14          	5.968
MS.54          	28.085         	5.922
MS.55          	28.028         	5.948
MS.56          	27.972         	5.924
MS.57          	27.915         	5.91
MS.58          	27.86          	5.91
MS.59          	27.805         	5.899
MS.60          	27.75          	5.91
MS.61          	27.692         	5.906
MS.62          	27.637         	5.916
MS.63          	27.582         	5.883
MS.64          	27.528         	5.899
MS.65          	27.472         	5.871
MS.66          	27.417         	5.879
MS.67          	27.362         	5.839
MS.68          	27.307         	5.861
MS.69          	27.255         	5.849
MS.70          	27.2           	5.831
MS.71          	27.145         	5.839
MS.72          	27.09          	5.859
MS.73          	27.037         	5.797
MS.74          	26.983         	5.773
MS.75          	26.927         	5.799
MS.76          	26.875         	5.791
MS.77          	26.82          	5.805
MS.78          	26.767         	5.791
MS.79          	26.715         	5.777
MS.80          	26.66          	5.793
MS.81          	26.608         	5.825
MS.82          	26.555         	5.758
MS.83          	26.502         	5.797
MS.84          	26.448         	5.805
MS.85          	26.395         	5.744
MS.86          	26.342         	5.771
MS.87          	26.29          	5.779
MS.88          	26.237         	5.758
MS.89          	26.185         	5.769
MS.90          	26.132         	5.732
MS.91          	26.08          	5.696
MS.92          	26.028         	5.73
MS.93          	25.977         	5.688
MS.94          	25.925         	5.738
MS.95          	25.872         	5.692
MS.96          	25.82          	5.696
MS.97          	25.77          	5.692
MS.98          	25.717         	5.682
MS.99          	25.667         	5.696
MS.100         	25.615         	5.68
MS.101         	25.565         	5.652
MS.102         	25.512         	5.706
MS.103         	25.462         	5.67
MS.104         	25.413         	5.672
MS.105         	25.36          	5.66
MS.106         	25.31          	5.626
MS.107         	25.26          	5.636
MS.108         	25.21          	5.62
MS.109         	25.157         	5.617
MS.110         	25.108         	5.601
MS.111         	25.057         	5.624
MS.112         	25.007         	5.615
MS.113         	24.957         	5.593
MS.114         	24.907         	5.593
MS.115         	24.858         	5.571
MS.116         	24.807         	5.632
MS.117         	24.76          	5.579
MS.118         	24.71          	5.601
MS.119         	24.66          	5.622
MS.120         	24.61          	5.607
MS.121         	24.562         	5.617
MS.122         	24.512         	5.563
MS.123         	24.465         	5.541
MS.124         	24.415         	5.567
MS.125         	24.365         	5.567
MS.126         	24.317         	5.575
MS.127         	24.27          	5.563
MS.128         	24.22          	5.549
MS.129         	24.172         	5.523
MS.130         	24.122         	5.537
MS.131         	24.075         	5.517
MS.132         	24.028         	5.529
MS.133         	23.98          	5.477
MS.134         	23.932         	5.507
MS.135         	23.882         	5.529
MS.136         	23.835         	5.501
MS.137         	23.788         	5.491
MS.138         	23.74          	5.491
MS.139         	23.692         	5.485
MS.140         	23.645         	5.474
MS.141         	23.597         	5.477
MS.142         	23.552         	5.44
MS.143         	23.505         	5.446
MS.144         	23.457         	5.446
MS.145         	23.41          	5.432
MS.146         	23.365         	5.331
MS.147         	23.317         	5.448
MS.148         	23.27          	5.329
MS.149         	23.225         	5.489
MS.150         	23.177         	5.442
MS.151         	23.132         	5.35
MS.152         	23.085         	5.408
MS.153         	23.04          	5.414
MS.154         	22.993         	5.313
MS.155         	22.948         	5.45
MS.156         	22.903         	5.4
MS.157         	22.855         	5.368
MS.158         	22.81          	5.301
MS.159         	22.765         	5.297
MS.160         	22.72          	5.396
MS.161         	22.672         	5.319
MS.162         	22.627         	5.342
MS.163         	22.582         	5.263
MS.164         	22.538         	5.291
MS.165         	22.493         	5.251
MS.166         	22.448         	5.315
MS.167         	22.403         	5.257
MS.168         	22.358         	5.225
MS.169         	22.312         	5.261
MS.170         	22.27          	5.247
MS.171         	22.225         	5.199
MS.172         	22.18          	5.241
MS.173         	22.135         	5.221
MS.174         	22.092         	5.182
MS.175         	22.047         	5.211
MS.176         	22.002         	5.108
MS.177         	21.96          	5.247
MS.178         	21.915         	5.134
MS.179         	21.872         	5.112
MS.180         	21.827         	5.112
MS.181         	21.785         	5.16
MS.182         	21.74          	5.1
MS.183         	21.698         	5.229
MS.184         	21.655         	5.176
MS.185         	21.61          	5.138
MS.186         	21.567         	5.114
MS.187         	21.525         	5.068
MS.188         	21.483         	5.068
MS.189         	21.438         	5.058
MS.190         	21.395         	5.021
MS.191         	21.352         	5.015
MS.192         	21.31          	5.104
MS.193         	21.267         	5.132
MS.194         	21.225         	5.001
MS.195         	21.182         	5.011
MS.196         	21.14          	5.031
MS.197         	21.097         	4.983
MS.198         	21.055         	5.037
MS.199         	21.015         	4.941
MS.200         	20.972         	4.89
MS.201         	20.93          	4.993
MS.202         	20.887         	4.939
MS.203         	20.847         	4.965
MS.204         	20.805         	4.921
MS.205         	20.762         	5.001
MS.206         	20.722         	4.997
MS.207         	20.68          	4.979
MS.208         	20.64          	4.909
MS.209         	20.597         	4.83
MS.210         	20.557         	4.921
MS.211         	20.515         	4.882
MS.212         	20.475         	4.941
MS.213         	20.435         	4.953
MS.214         	20.392         	4.872
MS.215         	20.352         	4.872
MS.216         	20.312         	4.808
MS.217         	20.27          	4.882
MS.218         	20.23          	4.856
MS.219         	20.19          	4.675
MS.220         	20.15          	4.735
MS.221         	20.11          	4.784
MS.222         	20.07          	4.713
MS.223         	20.03          	4.675
MS.224         	19.99          	4.637
MS.225         	19.95          	4.699
MS.226         	19.91          	4.737
MS.227         	19.87          	4.731
MS.228         	19.83          	4.761
MS.229         	19.79          	4.635
MS.230         	19.75          	4.78
MS.231         	19.712         	4.637
MS.232         	19.672         	4.715
MS.233         	19.632         	4.681
MS.234         	19.592         	4.616
MS.235         	19.555         	4.562
MS.236         	19.515         	4.544
MS.237         	19.475         	4.556
MS.238         	19.438         	4.53
MS.239         	19.397         	4.58
MS.240         	19.36          	4.457
MS.241         	19.32          	4.556
MS.242         	19.282         	4.363
MS.243         	19.245         	4.516
MS.244         	19.205         	4.461
MS.245         	19.167         	4.492
MS.246         	19.13          	4.383
MS.247         	19.09          	4.449
MS.248         	19.052         	4.369
MS.249         	19.015         	4.443
MS.250         	18.977         	4.294
MS.251         	18.938         	4.316
MS.252         	18.9           	4.363
MS.253         	18.862         	4.294
MS.254         	18.825         	4.278
MS.255         	18.788         	4.343
MS.256         	18.75          	4.268
MS.257         	18.712         	4.292
MS.258         	18.675         	4.343
MS.259         	18.637         	4.286
MS.260         	18.6           	4.262
MS.261         	18.562         	4.218
MS.262         	18.528         	4.234
MS.263         	18.49          	4.254
MS.264         	18.452         	4.232
MS.265         	18.415         	4.175
MS.266         	18.378         	4.179
MS.267         	18.342         	4.055
MS.268         	18.305         	4.125
MS.269         	18.27          	4.157
MS.270         	18.233         	4.127
MS.271         	18.195         	4.105
MS.272         	18.16          	3.916
MS.273         	18.122         	3.944
MS.274         	18.087         	3.895
MS.275         	18.05          	3.988
MS.276         	18.015         	4.04
MS.277         	17.98          	3.863
MS.278         	17.942         	3.835
MS.279         	17.907         	4.026
MS.280         	17.87          	3.819
MS.281         	17.835         	3.835
MS.282         	17.8           	3.714
MS.283         	17.765         	3.686
MS.284         	17.73          	3.559
MS.285         	17.692         	3.688
MS.286         	17.657         	3.583
MS.287         	17.622         	3.843
MS.288         	17.587         	3.609
MS.289         	17.552         	3.646
MS.290         	17.517         	3.561
MS.291         	17.483         	3.539
MS.292         	17.448         	3.525
MS.293         	17.413         	3.497
MS.294         	17.378         	3.569
MS.295         	17.342         	3.438
MS.296         	17.307         	3.378
MS.297         	17.275         	3.428
MS.298         	17.24          	3.434
MS.299         	17.205         	3.374
MS.300         	17.17          	3.416
MS.301         	17.135         	3.398
MS.302         	17.102         	3.245
MS.303         	17.067         	3.382
MS.304         	17.032         	3.303
MS.305         	17             	3.283
MS.306         	16.965         	3.313
MS.307         	16.932         	3.348
MS.308         	16.897         	3.241
MS.309         	16.865         	3.227
MS.310         	16.83          	3.217
MS.311         	16.797         	3.15
MS.312         	16.762         	3.138
MS.313         	16.73          	3.207
MS.314         	16.698         	3.132
MS.315         	16.663         	3.035
MS.316         	16.63          	3.086
MS.317         	16.597         	3.11
MS.318         	16.562         	3.051
MS.319         	16.53          	2.999
MS.320         	16.497         	2.995
MS.321         	16.465         	2.949
MS.322         	16.432         	2.951
MS.323         	16.397         	2.989
MS.324         	16.365         	2.912
MS.325         	16.333         	2.914
MS.326         	16.3           	2.91
MS.327         	16.267         	2.858
MS.328         	16.235         	3.009
MS.329         	16.202         	2.804
MS.330         	16.17          	2.884
MS.331         	16.137         	2.838
MS.332         	16.105         	2.759
MS.333         	16.075         	2.763
MS.334         	16.042         	2.757
MS.335         	16.01          	2.79
MS.336         	15.977         	2.757
MS.337         	15.945         	2.723
MS.338         	15.915         	2.683
MS.339         	15.882         	2.679
MS.340         	15.85          	2.743
MS.341         	15.818         	2.624
MS.342         	15.787         	2.548
MS.343         	15.755         	2.504
MS.344         	15.725         	2.626
MS.345         	15.693         	2.641
MS.346         	15.662         	2.57
MS.347         	15.63          	2.455
MS.348         	15.6           	2.449
MS.349         	15.568         	2.528
MS.350         	15.537         	2.419
MS.351         	15.505         	2.451
MS.352         	15.475         	2.393
MS.353         	15.443         	2.334
MS.354         	15.412         	2.379
MS.355         	15.382         	2.375
MS.356         	15.35          	2.357
MS.357         	15.32          	2.284
MS.358         	15.29          	2.338
MS.359         	15.26          	2.272
MS.360         	15.23          	2.28
MS.361         	15.197         	2.268
MS.362         	15.167         	2.248
MS.363         	15.137         	2.256
MS.364         	15.108         	2.244
MS.365         	15.077         	2.199
MS.366         	15.047         	2.123
MS.367         	15.017         	2.145
MS.368         	14.987         	2.153
MS.369         	14.957         	2.113
MS.370         	14.927         	2.034
MS.371         	14.898         	2.089
MS.372         	14.867         	2.069
MS.373         	14.837         	2.038
MS.374         	14.807         	2.02
MS.375         	14.78          	2.06
MS.376         	14.75          	1.946
MS.377         	14.72          	1.994
MS.378         	14.69          	1.919
MS.379         	14.66          	1.928
MS.380         	14.632         	1.932
MS.381         	14.602         	1.869
MS.382         	14.572         	1.849
MS.383         	14.545         	1.783
MS.384         	14.515         	1.821
MS.385         	14.485         	1.855
MS.386         	14.457         	1.694
MS.387         	14.427         	1.724
MS.388         	14.4           	1.791
MS.389         	14.37          	1.73
MS.390         	14.342         	1.682
MS.391         	14.312         	1.843
MS.392         	14.285         	1.754
MS.393         	14.255         	1.678
MS.394         	14.227         	1.71
MS.395         	14.2           	1.605
MS.396         	14.17          	1.66
MS.397         	14.142         	1.543
MS.398         	14.115         	1.638
MS.399         	14.085         	1.549
MS.400         	14.057         	1.573
MS.401         	14.03          	1.452
MS.402         	14.002         	1.49
MS.403         	13.975         	1.448
MS.404         	13.945         	1.42
MS.405         	13.917         	1.404
MS.406         	13.89          	1.382
MS.407         	13.862         	1.364
MS.408         	13.835         	1.333
MS.409         	13.807         	1.301
MS.410         	13.78          	1.339
MS.411         	13.752         	1.333
MS.412         	13.725         	1.245
MS.413         	13.697         	1.291
MS.414         	13.67          	1.249
MS.415         	13.642         	1.301
MS.416         	13.615         	1.144
MS.417         	13.587         	1.108
MS.418         	13.56          	1.09
MS.419         	13.535         	1.13
MS.420         	13.507         	1.138
MS.421         	13.48          	1.072
MS.422         	13.452         	1.031
MS.423         	13.425         	1.035
MS.424         	13.4           	0.985
MS.425         	13.372         	1.017
MS.426         	13.345         	0.987
MS.427         	13.32          	1.013
MS.428         	13.292         	0.947
MS.429         	13.265         	0.961
MS.430         	13.24          	0.945
MS.431         	13.212         	1.007
MS.432         	13.188         	0.894
MS.433         	13.16          	0.858
MS.434         	13.135         	0.84
MS.435         	13.108         	0.86
MS.436         	13.082         	0.806
MS.437         	13.055         	0.852
MS.438         	13.03          	0.779
MS.439         	13.002         	0.802
MS.440         	12.977         	0.763
MS.441         	12.952         	0.739
MS.442         	12.925         	0.749
MS.443         	12.9           	0.725
MS.444         	12.875         	0.755
MS.445         	12.847         	0.673
MS.446         	12.822         	0.709
MS.447         	12.797         	0.653
MS.448         	12.77          	0.693
MS.449         	12.745         	0.647
MS.450         	12.72          	0.661
MS.451         	12.695         	0.675
MS.452         	12.67          	0.691
MS.453         	12.645         	0.624
MS.454         	12.62          	0.608
MS.455         	12.592         	0.558
MS.456         	12.568         	0.592
MS.457         	12.542         	0.554
MS.458         	12.517         	0.586
MS.459         	12.492         	0.542
MS.460         	12.467         	0.479
MS.461         	12.443         	0.518
MS.462         	12.417         	0.526
MS.463         	12.395         	0.516
MS.464         	12.37          	0.489
MS.465         	12.345         	0.425
MS.466         	12.32          	0.5
MS.467         	12.295         	0.437
MS.468         	12.27          	0.439
MS.469         	12.245         	0.441
MS.470         	12.222         	0.439
MS.471         	12.197         	0.469
MS.472         	12.172         	0.401
MS.473         	12.148         	0.413
MS.474         	12.125         	0.359
MS.475         	12.1           	0.421
MS.476         	12.075         	0.409
MS.477         	12.052         	0.363
MS.478         	12.028         	0.419
MS.479         	12.002         	0.354
MS.480         	11.98          	0.375
MS.481         	11.955         	0.32
MS.482         	11.932         	0.326
MS.483         	11.907         	0.314
MS.484         	11.885         	0.363
MS.485         	11.86          	0.294
MS.486         	11.837         	0.322
MS.487         	11.812         	0.266
MS.488         	11.79          	0.34
MS.489         	11.765         	0.324
MS.490         	11.742         	0.328
MS.491         	11.72          	0.242
MS.492         	11.695         	0.232
MS.493         	11.672         	0.205
MS.494         	11.648         	0.242
MS.495         	11.625         	0.26
MS.496         	11.602         	0.234
MS.497         	11.58          	0.256
MS.498         	11.555         	0.258
MS.499         	11.532         	0.268
MS.500         	11.51          	0.216
MS.501         	11.488         	0.232
MS.502         	11.465         	0.211
MS.503         	11.44          	0.167
MS.504         	11.417         	0.222
MS.505         	11.395         	0.222
MS.506         	11.372         	0.183
MS.507         	11.35          	0.175
MS.508         	11.327         	0.133
MS.509         	11.305         	0.183
MS.510         	11.282         	0.169
MS.511         	11.26          	0.199
MS.512         	11.238         	0.183
MS.513         	11.215         	0.149
MS.514         	11.193         	0.163
MS.515         	11.17          	0.147
MS.516         	11.148         	0.141
MS.517         	11.125         	0.129
MS.518         	11.102         	0.135
MS.519         	11.08          	0.125
MS.520         	11.057         	0.107
MS.521         	11.037         	0.135
MS.522         	11.015         	0.123
MS.523         	10.992         	0.131
MS.524         	10.97          	0.129
MS.525         	10.948         	0.077
MS.526         	10.927         	0.087
MS.527         	10.905         	0.141
MS.528         	10.882         	0.101
MS.529         	10.86          	0.095
MS.530         	10.84          	0.085
MS.531         	10.818         	0.085
MS.532         	10.795         	0.083
MS.533         	10.775         	0.087
MS.534         	10.752         	0.107
MS.535         	10.733         	0.081
MS.536         	10.71          	0.068
MS.537         	10.69          	0.073
MS.538         	10.667         	0.054
MS.539         	10.645         	0.064
MS.540         	10.625         	0.062
MS.541         	10.602         	0.07
MS.542         	10.582         	0.06
MS.543         	10.562         	0.044
MS.544         	10.54          	0.054
MS.545         	10.52          	0.062
MS.546         	10.497         	0.048
MS.547         	10.477         	0.062
MS.548         	10.455         	0.062
MS.549         	10.435         	0.03
MS.550         	10.415         	0.036
MS.551         	10.392         	0.038
MS.552         	10.372         	0.046
MS.553         	10.352         	0.038
MS.554         	10.332         	0.042
MS.555         	10.31          	0.038
MS.556         	10.29          	0.032
MS.557         	10.27          	0.038
MS.558         	10.25          	0.048
MS.559         	10.227         	0.034
MS.560         	10.207         	0.038
MS.561         	10.188         	0.028
MS.562         	10.167         	0.038
MS.563         	10.148         	0.02
MS.564         	10.127         	0.036
MS.565         	10.108         	0.034
MS.566         	10.087         	0.018
MS.567         	10.068         	0.024
MS.568         	10.045         	0.026
MS.569         	10.025         	0.042
MS.570         	10.005         	0.028
MS.571         	9.985          	0.028
MS.572         	9.965          	0.026
MS.573         	9.945          	0.024
MS.574         	9.927          	0.014
MS.575         	9.907          	0.028
MS.576         	9.887          	0.03
MS.577         	9.867          	0.028
MS.578         	9.847          	0.03
MS.579         	9.827          	0.022
MS.580         	9.807          	0.008
MS.581         	9.787          	0.028
MS.582         	9.77           	0.008
MS.583         	9.75           	0.03
MS.584         	9.73           	0.03
MS.585         	9.71           	0.026
MS.586         	9.69           	0.018
MS.587         	9.672          	0.022
MS.588         	9.653          	0.03
MS.589         	9.632          	0.006
MS.590         	9.613          	0.008
MS.591         	9.595          	0.028
MS.592         	9.575          	0.006
MS.593         	9.555          	0.008
MS.594         	9.537          	0.018
MS.595         	9.517          	0.002
MS.596         	9.5            	0.008
MS.597         	9.48           	0.002
MS.598         	9.46           	0.008
MS.599         	9.443          	0.01
MS.600         	9.422          	0.006
MS.601         	9.405          	0.012
MS.602         	9.385          	0.006
MS.603         	9.367          	0.02
MS.604         	9.347          	0.004
MS.605         	9.33           	0.008
MS.606         	9.31           	0.004
MS.607         	9.292          	0.004
MS.608         	9.275          	0.012
MS.609         	9.255          	0.008
MS.610         	9.238          	0.008
MS.611         	9.217          	0.008
MS.612         	9.2            	0.006
MS.613         	9.182          	0.014
MS.614         	9.162          	0.008
MS.615         	9.145          	0.012
MS.616         	9.127          	0.006
MS.617         	9.108          	0.008
MS.618         	9.09           	0.018
MS.619         	9.073          	0.006
MS.620         	9.055          	0.014
MS.621         	9.035          	0.004
MS.622         	9.017          	0.006
MS.623         	9              	0.004
MS.624         	8.983          	0.002
MS.625         	8.965          	0.008
MS.626         	8.945          	0.008
MS.627         	8.927          	0.004
MS.628         	8.91           	0.004
MS.629         	8.892          	0.002
MS.630         	8.875          	0.002
MS.631         	8.858          	0.008
MS.632         	8.84           	0.008
MS.633         	8.823          	0.012
MS.634         	8.805          	0.002
MS.635         	8.787          	0.006
MS.636         	8.767          	0.01
MS.637         	8.75           	0.012
MS.638         	8.733          	0.004
MS.639         	8.717          	0.012
MS.640         	8.7            	0.014
MS.641         	8.682          	0.002
MS.642         	8.665          	0.008
MS.643         	8.648          	0.008
MS.644         	8.63           	0.012
DERIVED EXCITABILITY VARIABLES
Program = QTracP 3/4/2020
Threshold method = 6 (optimised for CAP, using data for present condition only)
SR method = 1 (using actual data values)
6.                 	0.000               	Peak response\(mV)
9.                 	31.2                	Temperature ( C)
17.                	52                  	Age (years)
18.                	1                   	Sex (M=1, F=2)

EXTRA VARIABLES

MScPeak(mV) = 6.18
MScS5(mA) = 11.82
MScS50(mA) = 16.63
MScS95(mA) = 27.41
MScNSteps = 0
MScSteps(%) = 0.0
MScStepMax(%) = 0.0
MScD50 = 94
MScSlope = 3.03
MSFPeakAmp(mV) = 6.19
MSFNUnits = 170
MSFMeanUnitAmp(uV) = 36.4
MSFHuntTime(m) = 4.31
MSFError(%) = 1.31
MSFNLarge = 46.52
MSFMedianAmp(%) = 0.458
MSFMedianAmp(mV) = 0.0283
MSFHalfAmpAmp(%) = 0.647
MSFHalfAmpAmp(mV) = 0.04
MSFLargestAmp(%) = 2.27
MSFLargestAmp(mV) = 0.14
MSFMeanRS(%) = 2
MSFOpts = 10106121
MScDuration(min) = 6
MSFTraces = 637
MSFSizeLimit(uV) = 15.5
MSFLimitType = 1
MSFSmallestAmp(uV) = 15.8

EXTRA WAVEFORMS


!MScan Model
!170
	1	9.77	0.69	2.4
	2	10.68	0.36	2
	3	10.91	0.55	2
	4	11.06	0.37	2
	5	11.12	0.27	2
	6	11.23	0.28	2
	7	11.36	0.5	2
	8	11.46	0.32	2
	9	11.67	0.88	2
	10	11.83	0.66	2
	11	11.98	0.87	2
	12	12.09	0.6	2
	13	12.22	0.6	2
	14	12.3	0.41	2
	15	12.34	0.28	2
	16	12.39	0.31	2
	17	12.44	0.33	2
	18	12.47	0.29	2
	19	12.51	0.35	2
	20	12.55	0.33	2
	21	12.6	0.43	2
	22	12.65	0.38	2
	23	12.7	0.38	2
	24	12.76	0.46	2
	25	12.84	0.54	2
	26	12.9	0.39	2
	27	12.93	0.26	2
	28	12.96	0.27	2
	29	13	0.31	2
	30	13.03	0.38	2
	31	13.06	0.35	2
	32	13.1	0.41	2
	33	13.14	0.36	2
	34	13.18	0.36	2
	35	13.22	0.38	2
	36	13.26	0.37	2
	37	13.29	0.38	2
	38	13.33	0.37	2
	39	13.37	0.36	2
	40	13.4	0.33	2
	41	13.44	0.39	2
	42	13.48	0.42	2
	43	13.51	0.36	2
	44	13.54	0.29	2
	45	13.57	0.37	2
	46	13.6	0.44	2
	47	13.63	0.47	2
	48	13.67	0.42	2
	49	13.7	0.35	2
	50	13.73	0.41	2
	51	13.76	0.35	2
	52	13.78	0.26	2
	53	13.8	0.3	2
	54	13.82	0.29	2
	55	13.86	0.53	2
	56	13.9	0.55	2
	57	13.96	0.65	2
	58	14	0.4	2
	59	14.01	0.28	2
	60	14.04	0.36	2
	61	14.09	0.66	2
	62	14.13	0.61	2
	63	14.25	1.72	2
	64	14.4	1.19	2
	65	14.46	0.48	2
	66	14.5	0.28	2
	67	14.54	0.33	2
	68	14.58	0.47	2
	69	14.61	0.39	2
	70	14.64	0.28	2
	71	14.69	0.47	2
	72	14.71	0.26	2
	73	14.74	0.3	2
	74	14.77	0.31	2
	75	14.79	0.33	2
	76	14.82	0.33	2
	77	14.85	0.3	2
	78	14.88	0.29	2
	79	14.92	0.45	2
	80	14.96	0.36	2
	81	15	0.36	2
	82	15.03	0.39	2
	83	15.07	0.5	2
	84	15.13	0.5	2
	85	15.17	0.37	2
	86	15.22	0.48	2
	87	15.26	0.42	2
	88	15.3	0.3	2
	89	15.34	0.43	2
	90	15.39	0.35	2
	91	15.43	0.33	2
	92	15.47	0.48	2
	93	15.52	0.52	2
	94	15.58	0.56	2
	95	15.65	0.7	2
	96	15.72	0.85	2
	97	15.79	0.78	2
	98	15.86	0.7	2
	99	15.93	0.55	2
	100	16.01	0.73	2
	101	16.09	0.82	2
	102	16.17	0.73	2
	103	16.27	0.77	2
	104	16.37	0.78	2
	105	16.46	1.02	2
	106	16.5	0.31	2
	107	16.54	0.29	2
	108	16.57	0.27	2
	109	16.61	0.32	2
	110	16.65	0.35	2
	111	16.69	0.38	2
	112	16.73	0.45	2
	113	16.77	0.48	2
	114	16.82	0.53	2
	115	16.9	0.78	2
	116	16.98	0.64	2
	117	17.1	0.98	2
	118	17.18	0.63	2
	119	17.25	0.5	2
	120	17.31	0.62	2
	121	17.46	1.33	2
	122	17.61	1.63	2
	123	17.78	1.89	2
	124	17.91	1.46	2
	125	18.01	1.32	2
	126	18.1	0.99	2
	127	18.17	0.53	2
	128	18.24	0.92	2
	129	18.31	0.65	2
	130	18.38	0.47	2
	131	18.46	0.88	2
	132	18.55	0.49	2
	133	18.79	1.47	2
	134	18.93	0.64	2
	135	19.09	0.78	2
	136	19.24	1	2
	137	19.38	0.9	2
	138	19.51	0.97	2
	139	19.97	2.27	2
	140	20.18	1.19	2
	141	20.42	1.53	2
	142	21.11	1.85	2
	143	21.63	1.86	2
	144	22.14	1.2	2
	145	22.39	1.21	2
	146	22.65	0.85	2
	147	23.44	1.62	2
	148	23.64	0.35	2
	149	23.76	0.41	2
	150	23.88	0.26	2
	151	24.05	0.51	2
	152	24.91	0.86	2
	153	25.27	0.56	2
	154	25.31	0.44	2
	155	25.83	0.46	2
	156	26.12	0.56	2
	157	26.36	0.4	2
	158	26.6	0.47	2
	159	26.91	0.77	2
	160	27.15	0.38	2
	161	27.36	0.48	2
	162	27.58	0.41	2
	163	27.79	0.38	2
	164	28	0.28	2
	165	28.37	0.59	2
	166	28.87	0.47	2
	167	29.05	0.32	2
	168	29.52	0.82	2
	169	29.82	0.46	2
	170	30.16	1.15	2

