File:              	C:\Qtrac\Data\Daniel M Sørensen\MScan multicentre study\Data from centres\Antalya\Processed data\TR.NC.ANT.10.1- NCC01204A.QZD
Name:              	TR.NC.ANT.10.1
Protocol:          	MSCAN-R2
Date:              	4/12/20
Start time:        	13:28:40
Age:               	52
Sex:               	m
Temperature:       	32.3
S/R sites:               APB
NC/disease:        	NC
Operator:          	ab
Comments:
M-SCAN DATA (6.6-0.8m)
Scanpts: 6, 9, 443, 449
Stim. (mA)     	Amp. (mV)
MS.1           	33             	9.728
MS.2           	33             	9.702
MS.3           	33             	9.688
MS.4           	33             	9.69
MS.5           	33             	9.787
MS.6           	33             	9.767
MS.7           	33             	9.775
MS.8           	33             	9.787
MS.9           	33             	9.736
MS.10          	33             	9.753
MS.11          	33             	9.742
MS.12          	33             	9.759
MS.13          	33             	9.745
MS.14          	33             	9.738
MS.15          	33             	9.728
MS.16          	33             	9.676
MS.17          	33             	9.68
MS.18          	33             	9.708
MS.19          	33             	9.678
MS.20          	33             	9.674
MS.21          	33             	9.684
MS.22          	33             	9.726
MS.23          	33             	9.64
MS.24          	32.802         	9.684
MS.25          	32.737         	9.767
MS.26          	32.673         	9.753
MS.27          	32.605         	9.704
MS.28          	32.54          	9.745
MS.29          	32.475         	9.606
MS.30          	32.41          	9.309
MS.31          	32.347         	9.366
MS.32          	32.282         	9.44
MS.33          	32.217         	9.567
MS.34          	32.153         	9.513
MS.35          	32.087         	9.547
MS.36          	32.025         	9.479
MS.37          	31.96          	9.432
MS.38          	31.897         	9.162
MS.39          	31.832         	9.577
MS.40          	31.77          	9.497
MS.41          	31.705         	9.452
MS.42          	31.642         	9.475
MS.43          	31.58          	9.438
MS.44          	31.517         	9.452
MS.45          	31.452         	9.503
MS.46          	31.39          	9.426
MS.47          	31.327         	9.4
MS.48          	31.265         	9.396
MS.49          	31.202         	9.39
MS.50          	31.14          	9.378
MS.51          	31.077         	9.39
MS.52          	31.015         	9.408
MS.53          	30.955         	9.442
MS.54          	30.892         	9.39
MS.55          	30.83          	9.362
MS.56          	30.77          	9.277
MS.57          	30.707         	9.324
MS.58          	30.645         	9.275
MS.59          	30.585         	9.344
MS.60          	30.522         	9.396
MS.61          	30.462         	9.378
MS.62          	30.403         	9.402
MS.63          	30.34          	9.36
MS.64          	30.28          	9.382
MS.65          	30.22          	9.322
MS.66          	30.16          	9.326
MS.67          	30.1           	9.358
MS.68          	30.04          	9.384
MS.69          	29.98          	9.318
MS.70          	29.92          	9.36
MS.71          	29.86          	9.382
MS.72          	29.8           	9.412
MS.73          	29.74          	9.406
MS.74          	29.68          	9.412
MS.75          	29.622         	9.384
MS.76          	29.562         	9.414
MS.77          	29.502         	9.398
MS.78          	29.445         	9.434
MS.79          	29.385         	9.408
MS.80          	29.327         	9.412
MS.81          	29.267         	9.404
MS.82          	29.21          	9.412
MS.83          	29.153         	9.452
MS.84          	29.092         	9.473
MS.85          	29.035         	9.44
MS.86          	28.977         	9.376
MS.87          	28.92          	9.414
MS.88          	28.862         	9.473
MS.89          	28.802         	9.517
MS.90          	28.745         	9.477
MS.91          	28.688         	9.501
MS.92          	28.632         	9.471
MS.93          	28.575         	9.438
MS.94          	28.517         	9.434
MS.95          	28.46          	9.426
MS.96          	28.403         	9.444
MS.97          	28.347         	9.438
MS.98          	28.29          	9.436
MS.99          	28.233         	9.426
MS.100         	28.177         	9.382
MS.101         	28.12          	9.444
MS.102         	28.065         	9.434
MS.103         	28.007         	9.41
MS.104         	27.952         	9.384
MS.105         	27.897         	9.416
MS.106         	27.84          	9.412
MS.107         	27.785         	9.465
MS.108         	27.73          	9.452
MS.109         	27.675         	9.432
MS.110         	27.62          	9.406
MS.111         	27.565         	9.428
MS.112         	27.507         	9.432
MS.113         	27.455         	9.432
MS.114         	27.4           	9.426
MS.115         	27.345         	9.404
MS.116         	27.29          	9.404
MS.117         	27.235         	9.404
MS.118         	27.18          	9.396
MS.119         	27.127         	9.386
MS.120         	27.073         	9.382
MS.121         	27.017         	9.392
MS.122         	26.965         	9.38
MS.123         	26.91          	9.394
MS.124         	26.858         	9.384
MS.125         	26.802         	9.378
MS.126         	26.75          	9.37
MS.127         	26.695         	9.35
MS.128         	26.642         	9.36
MS.129         	26.59          	9.354
MS.130         	26.535         	9.378
MS.131         	26.483         	9.356
MS.132         	26.43          	9.37
MS.133         	26.377         	9.342
MS.134         	26.325         	9.37
MS.135         	26.272         	9.362
MS.136         	26.22          	9.368
MS.137         	26.167         	9.368
MS.138         	26.115         	9.374
MS.139         	26.062         	9.346
MS.140         	26.01          	9.362
MS.141         	25.957         	9.279
MS.142         	25.907         	9.267
MS.143         	25.855         	9.36
MS.144         	25.802         	9.269
MS.145         	25.752         	9.243
MS.146         	25.7           	9.271
MS.147         	25.65          	9.231
MS.148         	25.597         	9.322
MS.149         	25.547         	9.324
MS.150         	25.495         	9.318
MS.151         	25.445         	9.279
MS.152         	25.395         	9.229
MS.153         	25.342         	9.203
MS.154         	25.292         	9.215
MS.155         	25.243         	9.179
MS.156         	25.192         	9.207
MS.157         	25.14          	9.158
MS.158         	25.09          	9.257
MS.159         	25.04          	9.181
MS.160         	24.99          	9.281
MS.161         	24.94          	9.148
MS.162         	24.89          	9.183
MS.163         	24.84          	9.223
MS.164         	24.792         	9.12
MS.165         	24.743         	9.227
MS.166         	24.692         	9.046
MS.167         	24.642         	9.046
MS.168         	24.595         	9.183
MS.169         	24.545         	9.038
MS.170         	24.495         	8.957
MS.171         	24.448         	9.078
MS.172         	24.397         	8.945
MS.173         	24.35          	9.162
MS.174         	24.3           	8.868
MS.175         	24.252         	9.038
MS.176         	24.202         	8.464
MS.177         	24.155         	9.052
MS.178         	24.108         	8.876
MS.179         	24.06          	8.617
MS.180         	24.01          	8.856
MS.181         	23.962         	8.921
MS.182         	23.915         	8.884
MS.183         	23.868         	8.973
MS.184         	23.82          	8.721
MS.185         	23.772         	8.776
MS.186         	23.725         	8.709
MS.187         	23.677         	8.651
MS.188         	23.63          	8.653
MS.189         	23.582         	8.399
MS.190         	23.535         	8.512
MS.191         	23.487         	8.733
MS.192         	23.442         	8.602
MS.193         	23.395         	8.057
MS.194         	23.347         	8.268
MS.195         	23.3           	7.978
MS.196         	23.255         	8.53
MS.197         	23.207         	8.411
MS.198         	23.163         	8.449
MS.199         	23.115         	8.468
MS.200         	23.07          	8.049
MS.201         	23.022         	8.113
MS.202         	22.977         	8.588
MS.203         	22.932         	8.276
MS.204         	22.885         	8.111
MS.205         	22.84          	8.099
MS.206         	22.795         	8.02
MS.207         	22.747         	8.341
MS.208         	22.702         	8.028
MS.209         	22.657         	8.127
MS.210         	22.612         	7.992
MS.211         	22.567         	8.006
MS.212         	22.522         	8.022
MS.213         	22.477         	8.337
MS.214         	22.432         	8.125
MS.215         	22.387         	8.093
MS.216         	22.342         	7.787
MS.217         	22.297         	7.924
MS.218         	22.252         	7.891
MS.219         	22.21          	8.024
MS.220         	22.165         	7.855
MS.221         	22.12          	8.045
MS.222         	22.077         	7.781
MS.223         	22.032         	7.761
MS.224         	21.987         	7.728
MS.225         	21.945         	7.68
MS.226         	21.9           	7.632
MS.227         	21.858         	7.738
MS.228         	21.812         	7.775
MS.229         	21.77          	7.603
MS.230         	21.725         	7.942
MS.231         	21.682         	7.972
MS.232         	21.64          	7.565
MS.233         	21.595         	7.853
MS.234         	21.552         	7.67
MS.235         	21.51          	7.688
MS.236         	21.467         	7.609
MS.237         	21.425         	7.849
MS.238         	21.38          	7.597
MS.239         	21.337         	7.605
MS.240         	21.295         	7.632
MS.241         	21.252         	7.503
MS.242         	21.21          	7.471
MS.243         	21.167         	7.289
MS.244         	21.125         	6.659
MS.245         	21.085         	6.987
MS.246         	21.042         	6.888
MS.247         	21             	6.812
MS.248         	20.958         	6.729
MS.249         	20.915         	6.747
MS.250         	20.875         	6.236
MS.251         	20.833         	6.733
MS.252         	20.79          	6.139
MS.253         	20.75          	6.774
MS.254         	20.708         	6.393
MS.255         	20.667         	6.083
MS.256         	20.625         	6.516
MS.257         	20.585         	5.974
MS.258         	20.542         	6.177
MS.259         	20.502         	6.093
MS.260         	20.46          	6.586
MS.261         	20.42          	6.161
MS.262         	20.38          	6.085
MS.263         	20.337         	5.928
MS.264         	20.297         	5.777
MS.265         	20.257         	5.861
MS.266         	20.217         	5.986
MS.267         	20.175         	6.399
MS.268         	20.135         	5.732
MS.269         	20.095         	5.928
MS.270         	20.055         	5.978
MS.271         	20.015         	5.841
MS.272         	19.975         	5.734
MS.273         	19.935         	5.609
MS.274         	19.895         	5.714
MS.275         	19.855         	5.505
MS.276         	19.817         	5.63
MS.277         	19.778         	5.585
MS.278         	19.737         	5.374
MS.279         	19.698         	5.128
MS.280         	19.657         	5.41
MS.281         	19.62          	5.166
MS.282         	19.58          	5.025
MS.283         	19.54          	5.09
MS.284         	19.502         	5.14
MS.285         	19.462         	4.85
MS.286         	19.425         	5.176
MS.287         	19.385         	4.514
MS.288         	19.347         	4.753
MS.289         	19.307         	4.286
MS.290         	19.27          	4.316
MS.291         	19.23          	4.433
MS.292         	19.192         	4.278
MS.293         	19.155         	4.024
MS.294         	19.115         	4.212
MS.295         	19.077         	4.055
MS.296         	19.04          	4.193
MS.297         	19             	3.946
MS.298         	18.962         	3.875
MS.299         	18.925         	3.762
MS.300         	18.887         	3.696
MS.301         	18.85          	3.275
MS.302         	18.812         	3.895
MS.303         	18.775         	3.384
MS.304         	18.737         	3.555
MS.305         	18.7           	3.537
MS.306         	18.663         	3.515
MS.307         	18.625         	3.346
MS.308         	18.587         	3.652
MS.309         	18.55          	3.43
MS.310         	18.512         	3.793
MS.311         	18.477         	3.593
MS.312         	18.44          	3.652
MS.313         	18.403         	3.094
MS.314         	18.365         	3.162
MS.315         	18.33          	3.198
MS.316         	18.292         	3.16
MS.317         	18.255         	3.005
MS.318         	18.22          	3.319
MS.319         	18.182         	2.594
MS.320         	18.147         	2.782
MS.321         	18.11          	2.554
MS.322         	18.075         	2.409
MS.323         	18.038         	2.443
MS.324         	18.003         	2.25
MS.325         	17.967         	2.61
MS.326         	17.93          	2.381
MS.327         	17.895         	2.399
MS.328         	17.86          	2.222
MS.329         	17.823         	2.403
MS.330         	17.788         	2.181
MS.331         	17.753         	2.042
MS.332         	17.717         	1.915
MS.333         	17.68          	1.809
MS.334         	17.645         	2.004
MS.335         	17.61          	1.684
MS.336         	17.575         	1.932
MS.337         	17.54          	1.901
MS.338         	17.505         	2.169
MS.339         	17.47          	1.756
MS.340         	17.435         	1.901
MS.341         	17.4           	1.631
MS.342         	17.365         	1.76
MS.343         	17.33          	1.426
MS.344         	17.297         	1.354
MS.345         	17.262         	1.495
MS.346         	17.227         	1.337
MS.347         	17.192         	1.482
MS.348         	17.157         	1.682
MS.349         	17.125         	1.174
MS.350         	17.09          	1.206
MS.351         	17.055         	1.176
MS.352         	17.022         	1.07
MS.353         	16.987         	1.078
MS.354         	16.955         	1.184
MS.355         	16.92          	1.299
MS.356         	16.887         	1.257
MS.357         	16.852         	1.311
MS.358         	16.82          	1.297
MS.359         	16.785         	1.146
MS.360         	16.753         	0.977
MS.361         	16.717         	0.908
MS.362         	16.685         	1.271
MS.363         	16.653         	0.808
MS.364         	16.618         	0.931
MS.365         	16.585         	0.745
MS.366         	16.552         	0.88
MS.367         	16.52          	0.786
MS.368         	16.485         	0.61
MS.369         	16.452         	0.8
MS.370         	16.42          	0.614
MS.371         	16.387         	0.657
MS.372         	16.355         	0.616
MS.373         	16.323         	0.586
MS.374         	16.29          	0.457
MS.375         	16.257         	0.645
MS.376         	16.225         	0.659
MS.377         	16.192         	0.769
MS.378         	16.16          	0.52
MS.379         	16.128         	0.445
MS.380         	16.095         	0.487
MS.381         	16.062         	0.477
MS.382         	16.03          	0.518
MS.383         	15.997         	0.441
MS.384         	15.967         	0.497
MS.385         	15.935         	0.433
MS.386         	15.902         	0.493
MS.387         	15.87          	0.467
MS.388         	15.84          	0.463
MS.389         	15.807         	0.369
MS.390         	15.775         	0.397
MS.391         	15.745         	0.367
MS.392         	15.712         	0.403
MS.393         	15.682         	0.338
MS.394         	15.65          	0.34
MS.395         	15.62          	0.288
MS.396         	15.587         	0.31
MS.397         	15.557         	0.369
MS.398         	15.525         	0.286
MS.399         	15.495         	0.3
MS.400         	15.465         	0.268
MS.401         	15.432         	0.288
MS.402         	15.402         	0.248
MS.403         	15.372         	0.272
MS.404         	15.34          	0.27
MS.405         	15.31          	0.274
MS.406         	15.28          	0.314
MS.407         	15.25          	0.26
MS.408         	15.217         	0.282
MS.409         	15.188         	0.282
MS.410         	15.157         	0.246
MS.411         	15.127         	0.234
MS.412         	15.097         	0.278
MS.413         	15.068         	0.254
MS.414         	15.037         	0.256
MS.415         	15.007         	0.268
MS.416         	14.977         	0.244
MS.417         	14.947         	0.262
MS.418         	14.917         	0.276
MS.419         	14.887         	0.268
MS.420         	14.858         	0.248
MS.421         	14.827         	0.258
MS.422         	14.797         	0.27
MS.423         	14.767         	0.264
MS.424         	14.74          	0.268
MS.425         	14.71          	0.288
MS.426         	14.68          	0.254
MS.427         	14.65          	0.262
MS.428         	14.622         	0.242
MS.429         	14.592         	0.284
MS.430         	14.562         	0.264
MS.431         	14.535         	0.228
MS.432         	14.505         	0.224
MS.433         	14.475         	0.234
MS.434         	14.447         	0.23
MS.435         	14.417         	0.242
MS.436         	14.39          	0.236
MS.437         	14.36          	0.266
MS.438         	14.332         	0.228
MS.439         	14.302         	0.238
MS.440         	14.275         	0.228
MS.441         	14.247         	0.242
MS.442         	14.217         	0.232
MS.443         	14.19          	0.234
MS.444         	14.132         	0.246
MS.445         	14.105         	0.236
MS.446         	14.077         	0.24
MS.447         	14.047         	0.242
MS.448         	14.02          	0.234
MS.449         	13.992         	0.24
MS.450         	13.965         	0.244
MS.451         	13.938         	0.23
MS.452         	13.907         	0.242
MS.453         	13.88          	0.24
MS.454         	13.852         	0.278
MS.455         	13.825         	0.242
MS.456         	13.797         	0.242
MS.457         	13.77          	0.236
MS.458         	13.742         	0.282
MS.459         	13.715         	0.244
MS.460         	13.688         	0.242
MS.461         	13.66          	0.24
MS.462         	13.632         	0.25
MS.463         	13.605         	0.242
MS.464         	13.577         	0.242
MS.465         	13.552         	0.244
MS.466         	13.525         	0.24
MS.467         	13.497         	0.238
MS.468         	13.47          	0.24
MS.469         	13.443         	0.24
MS.470         	13.417         	0.246
MS.471         	13.39          	0.244
MS.472         	13.362         	0.244
MS.473         	13.337         	0.244
MS.474         	13.31          	0.244
MS.475         	13.282         	0.246
MS.476         	13.257         	0.244
MS.477         	13.23          	0.246
MS.478         	13.205         	0.25
MS.479         	13.177         	0.25
MS.480         	13.15          	0.248
MS.481         	13.125         	0.248
MS.482         	13.097         	0.246
MS.483         	13.072         	0.252
MS.484         	13.047         	0.26
MS.485         	13.02          	0.254
MS.486         	12.995         	0.248
MS.487         	12.967         	0.248
MS.488         	12.943         	0.252
MS.489         	12.917         	0.248
MS.490         	12.89          	0.252
MS.491         	12.865         	0.25
MS.492         	12.84          	0.248
MS.493         	12.812         	0.252
MS.494         	12.787         	0.252
MS.495         	12.762         	0.258
MS.496         	12.738         	0.258
MS.497         	12.712         	0.252
MS.498         	12.685         	0.254
MS.499         	12.66          	0.254
MS.500         	12.635         	0.258
MS.501         	12.61          	0.258
MS.502         	12.585         	0.26
MS.503         	12.56          	0.258
MS.504         	12.535         	0.254
MS.505         	12.51          	0.256
MS.506         	12.485         	0.254
MS.507         	12.46          	0.254
MS.508         	12.435         	0.256
MS.509         	12.41          	0.252
MS.510         	12.385         	0.258
MS.511         	12.36          	0.26
MS.512         	12.335         	0.264
MS.513         	12.31          	0.258
MS.514         	12.287         	0.258
MS.515         	12.262         	0.26
MS.516         	12.238         	0.256
MS.517         	12.212         	0.256
MS.518         	12.188         	0.258
MS.519         	12.165         	0.26
MS.520         	12.14          	0.262
MS.521         	12.115         	0.262
MS.522         	12.092         	0.264
MS.523         	12.068         	0.262
MS.524         	12.042         	0.264
MS.525         	12.02          	0.254
MS.526         	11.995         	0.26
MS.527         	11.97          	0.262
MS.528         	11.947         	0.272
MS.529         	11.922         	0.258
MS.530         	11.9           	0.258
MS.531         	11.875         	0.264
MS.532         	11.852         	0.266
MS.533         	11.827         	0.272
MS.534         	11.805         	0.26
MS.535         	11.78          	0.268
MS.536         	11.757         	0.27
MS.537         	11.735         	0.264
MS.538         	11.71          	0.27
MS.539         	11.688         	0.264
MS.540         	11.665         	0.264
MS.541         	11.64          	0.274
MS.542         	11.617         	0.266
MS.543         	11.595         	0.268
MS.544         	11.57          	0.27
MS.545         	11.547         	0.268
MS.546         	11.525         	0.266
MS.547         	11.502         	0.272
MS.548         	11.48          	0.268
MS.549         	11.455         	0.27
MS.550         	11.432         	0.268
MS.551         	11.41          	0.266
MS.552         	11.387         	0.276
MS.553         	11.365         	0.272
MS.554         	11.342         	0.266
MS.555         	11.32          	0.268
MS.556         	11.297         	0.274
MS.557         	11.275         	0.272
MS.558         	11.252         	0.264
MS.559         	11.23          	0.268
MS.560         	11.207         	0.276
MS.561         	11.185         	0.274
MS.562         	11.162         	0.28
MS.563         	11.14          	0.272
MS.564         	11.117         	0.274
MS.565         	11.095         	0.27
MS.566         	11.073         	0.274
MS.567         	11.05          	0.276
MS.568         	11.028         	0.278
MS.569         	11.007         	0.27
MS.570         	10.985         	0.272
MS.571         	10.962         	0.278
MS.572         	10.94          	0.284
MS.573         	10.92          	0.274
MS.574         	10.898         	0.278
MS.575         	10.875         	0.272
MS.576         	10.852         	0.278
MS.577         	10.832         	0.282
MS.578         	10.81          	0.28
MS.579         	10.787         	0.28
MS.580         	10.767         	0.282
MS.581         	10.745         	0.28
MS.582         	10.725         	0.28
MS.583         	10.702         	0.28
MS.584         	10.682         	0.278
MS.585         	10.66          	0.282
MS.586         	10.637         	0.276
MS.587         	10.617         	0.276
MS.588         	10.597         	0.28
MS.589         	10.575         	0.278
MS.590         	10.555         	0.278
MS.591         	10.532         	0.282
MS.592         	10.512         	0.282
MS.593         	10.49          	0.28
MS.594         	10.47          	0.284
MS.595         	10.45          	0.278
MS.596         	10.427         	0.284
MS.597         	10.407         	0.278
MS.598         	10.387         	0.286
MS.599         	10.365         	0.28
MS.600         	10.345         	0.278
MS.601         	10.325         	0.282
MS.602         	10.302         	0.278
MS.603         	10.282         	0.278
MS.604         	10.262         	0.28
MS.605         	10.242         	0.28
MS.606         	10.222         	0.276
MS.607         	10.2           	0.28
MS.608         	10.18          	0.28
MS.609         	10.16          	0.284
MS.610         	10.14          	0.282
MS.611         	10.12          	0.282
MS.612         	10.1           	0.284
MS.613         	10.08          	0.282
MS.614         	10.06          	0.276
MS.615         	10.04          	0.288
MS.616         	10.02          	0.286
DERIVED EXCITABILITY VARIABLES
Program = QTracP 3/4/2020
Threshold method = 6 (optimised for CAP, using data for present condition only)
SR method = 1 (using actual data values)
6.                 	0.000               	Peak response\(mV)
9.                 	32.3                	Temperature ( C)
17.                	52                  	Age (years)
18.                	1                   	Sex (M=1, F=2)

EXTRA VARIABLES

MScPeak(mV) = 9.44
MScS5(mA) = 16.06
MScS50(mA) = 19.36
MScS95(mA) = 24.24
MScNSteps = 2
MScSteps(%) = 4.5
MScStepMax(%) = 2.4
MScD50 = 43
MScSlope = 5.97
MSFPeakAmp(mV) = 9.53
MSFNUnits = 101
MSFMeanUnitAmp(uV) = 94.3
MSFHuntTime(m) = 2.97
MSFError(%) = 6.37
MSFNLarge = 26.82
MSFMedianAmp(%) = 0.848
MSFMedianAmp(mV) = 0.0808
MSFHalfAmpAmp(%) = 1.19
MSFHalfAmpAmp(mV) = 0.113
MSFLargestAmp(%) = 4.39
MSFLargestAmp(mV) = 0.418
MSFMeanRS(%) = 2
MSFOpts = 10106121
MScDuration(min) = 5.8
MSFTraces = 444
MSFSizeLimit(uV) = 23.8
MSFLimitType = 1
MSFSmallestAmp(uV) = 27.3

EXTRA WAVEFORMS


!MScan Model
!101
	1	15.02	0.29	2
	2	15.5	0.33	2
	3	15.61	0.44	2
	4	15.76	0.55	2
	5	15.83	0.32	2
	6	16.07	0.89	2
	7	16.31	1.19	2
	8	16.41	0.41	2
	9	16.47	0.5	2
	10	16.52	0.55	2
	11	16.57	0.9	2
	12	16.64	1.05	2
	13	16.8	1.91	2
	14	17.08	1.39	2
	15	17.19	1.19	2
	16	17.27	1.71	2
	17	17.4	1.82	2
	18	17.54	1.51	2
	19	17.68	2.07	2
	20	17.77	0.97	2
	21	17.84	0.71	2
	22	17.89	0.88	2
	23	17.95	0.86	2
	24	18	1.05	2
	25	18.05	1.06	2
	26	18.09	0.88	2
	27	18.12	0.61	2
	28	18.15	0.54	2
	29	18.19	0.59	2
	30	18.22	0.88	2
	31	18.37	4.39	2
	32	18.67	2.68	2
	33	18.82	0.87	2
	34	18.87	0.53	2
	35	18.91	0.64	2
	36	18.96	0.84	2
	37	19	0.81	2
	38	19.04	0.79	2
	39	19.08	0.87	2
	40	19.12	0.86	2
	41	19.15	0.65	2
	42	19.19	0.63	2
	43	19.22	0.38	2
	44	19.24	0.45	2
	45	19.26	0.54	2
	46	19.29	0.57	2
	47	19.31	0.59	2
	48	19.33	0.63	2
	49	19.36	0.86	2
	50	19.41	1.26	2
	51	19.46	1.26	2
	52	19.5	1.17	2
	53	19.55	0.85	2
	54	19.59	0.7	2
	55	19.61	0.4	2
	56	19.63	0.38	2
	57	19.66	0.69	2
	58	19.7	0.32	2
	59	19.72	0.38	2
	60	19.75	0.51	2
	61	19.81	1.07	2
	62	19.87	1.24	2
	63	19.94	1.08	2
	64	20.18	2.08	2
	65	20.61	3.75	2
	66	20.74	1.35	2
	67	20.84	1.51	2
	68	20.92	1.51	2
	69	20.97	0.87	2
	70	20.99	0.39	2
	71	21.01	0.39	2
	72	21.03	0.39	2
	73	21.05	0.42	2
	74	21.07	0.46	2
	75	21.09	0.47	2
	76	21.12	0.9	2
	77	21.15	0.42	2
	78	21.17	0.75	2
	79	21.19	0.54	2
	80	21.23	1.44	2
	81	21.46	2.67	2
	82	21.98	1.36	2
	83	22.07	0.55	2
	84	22.23	1.17	2
	85	22.51	1.33	2
	86	22.91	1.6	2
	87	23.46	2.62	2
	88	23.56	0.79	2
	89	23.68	1.3	2
	90	23.89	1.54	2
	91	24.45	2.19	2
	92	24.81	1.52	2
	93	25.22	0.55	2
	94	25.38	0.36	2
	95	25.86	0.61	2
	96	26.45	0.56	2
	97	31.3	0.52	2
	98	32.14	0.76	2
	99	32.43	1.01	2
	100	32.65	0.55	2
	101	33.23	0.86	2

