File:              	C:\Qtrac\Data\Daniel M Sørensen\MScan multicentre study\Data from centres\Antalya\Processed data\TR.NC.ANT.2.2- NCC00323B.QZD
Name:              	TR.NC.ANT.2.2
Protocol:          	MSCAN-R2
Date:              	23/3/20
Start time:        	18:12:48
Age:               	38
Sex:               	m
Temperature:       	31.8
S/R sites:         	ADM
NC/disease:        	NC
Operator:          	ab
Comments:          	left ADM
M-SCAN DATA (5.1-1m)
Scanpts: 62, 66, 436, 457
Stim. (mA)     	Amp. (mV)
MS.1           	19.5           	9.994
MS.2           	19.5           	9.96
MS.3           	19.5           	9.972
MS.4           	19.5           	9.986
MS.5           	19.5           	10.01
MS.6           	19.5           	9.996
MS.7           	19.5           	9.984
MS.8           	19.5           	10.016
MS.9           	19.5           	10.016
MS.10          	19.5           	10.035
MS.11          	19.5           	10.006
MS.12          	19.5           	10.008
MS.13          	19.5           	10.014
MS.14          	19.5           	10.045
MS.15          	19.5           	10.049
MS.16          	19.5           	10.018
MS.17          	19.5           	10.031
MS.18          	19.5           	9.99
MS.19          	19.5           	9.992
MS.20          	19.5           	9.996
MS.21          	19.5           	10.012
MS.22          	19.5           	9.99
MS.23          	19.422         	9.942
MS.24          	19.382         	10
MS.25          	19.345         	9.952
MS.26          	19.305         	9.946
MS.27          	19.267         	9.952
MS.28          	19.23          	9.92
MS.29          	19.19          	9.916
MS.30          	19.153         	9.932
MS.31          	19.115         	9.928
MS.32          	19.075         	9.964
MS.33          	19.038         	9.98
MS.34          	19             	9.934
MS.35          	18.962         	10.022
MS.36          	18.922         	9.926
MS.37          	18.885         	9.918
MS.38          	18.847         	9.946
MS.39          	18.81          	9.922
MS.40          	18.772         	9.998
MS.41          	18.735         	9.934
MS.42          	18.698         	9.952
MS.43          	18.66          	9.946
MS.44          	18.622         	9.952
MS.45          	18.585         	9.982
MS.46          	18.55          	9.948
MS.47          	18.512         	9.96
MS.48          	18.475         	9.976
MS.49          	18.438         	10.008
MS.50          	18.4           	9.982
MS.51          	18.365         	9.968
MS.52          	18.327         	9.994
MS.53          	18.29          	9.986
MS.54          	18.255         	10.016
MS.55          	18.217         	9.984
MS.56          	18.182         	9.918
MS.57          	18.145         	9.988
MS.58          	18.11          	10.004
MS.59          	18.073         	9.99
MS.60          	18.038         	9.974
MS.61          	18             	10.004
MS.62          	17.965         	10.024
MS.63          	17.93          	9.994
MS.64          	17.892         	10.02
MS.65          	17.858         	9.968
MS.66          	17.823         	10.01
MS.67          	17.785         	9.97
MS.68          	17.75          	9.958
MS.69          	17.715         	10.014
MS.70          	17.68          	9.99
MS.71          	17.645         	9.978
MS.72          	17.61          	9.966
MS.73          	17.575         	9.942
MS.74          	17.538         	9.936
MS.75          	17.503         	9.988
MS.76          	17.467         	9.958
MS.77          	17.435         	9.974
MS.78          	17.4           	9.97
MS.79          	17.365         	9.976
MS.80          	17.33          	9.976
MS.81          	17.295         	9.948
MS.82          	17.26          	9.964
MS.83          	17.225         	9.946
MS.84          	17.192         	9.954
MS.85          	17.157         	9.992
MS.86          	17.122         	9.934
MS.87          	17.087         	9.916
MS.88          	17.055         	9.942
MS.89          	17.02          	9.934
MS.90          	16.987         	9.964
MS.91          	16.952         	9.879
MS.92          	16.917         	9.94
MS.93          	16.885         	9.944
MS.94          	16.85          	9.892
MS.95          	16.817         	9.974
MS.96          	16.782         	9.956
MS.97          	16.75          	9.896
MS.98          	16.717         	9.861
MS.99          	16.682         	9.847
MS.100         	16.65          	9.803
MS.101         	16.618         	9.823
MS.102         	16.583         	9.821
MS.103         	16.55          	9.672
MS.104         	16.517         	9.726
MS.105         	16.485         	9.73
MS.106         	16.452         	9.422
MS.107         	16.417         	9.541
MS.108         	16.385         	9.424
MS.109         	16.352         	9.227
MS.110         	16.32          	9.259
MS.111         	16.288         	9.046
MS.112         	16.255         	9.138
MS.113         	16.222         	8.856
MS.114         	16.19          	8.848
MS.115         	16.157         	8.929
MS.116         	16.125         	8.886
MS.117         	16.092         	8.798
MS.118         	16.062         	8.655
MS.119         	16.03          	8.528
MS.120         	15.997         	8.588
MS.121         	15.965         	9.183
MS.122         	15.932         	8.592
MS.123         	15.902         	8.236
MS.124         	15.87          	8.149
MS.125         	15.837         	8.171
MS.126         	15.807         	7.968
MS.127         	15.775         	8.325
MS.128         	15.742         	8.268
MS.129         	15.712         	8.105
MS.130         	15.68          	8.105
MS.131         	15.65          	7.883
MS.132         	15.617         	8.051
MS.133         	15.587         	8.141
MS.134         	15.555         	7.726
MS.135         	15.525         	7.831
MS.136         	15.492         	7.865
MS.137         	15.462         	7.714
MS.138         	15.432         	7.863
MS.139         	15.4           	7.456
MS.140         	15.37          	7.509
MS.141         	15.34          	7.73
MS.142         	15.307         	7.289
MS.143         	15.277         	7.561
MS.144         	15.247         	7.168
MS.145         	15.217         	7.4
MS.146         	15.188         	7.334
MS.147         	15.155         	6.995
MS.148         	15.125         	7.168
MS.149         	15.095         	7.088
MS.150         	15.065         	6.907
MS.151         	15.035         	6.526
MS.152         	15.005         	6.592
MS.153         	14.975         	6.675
MS.154         	14.945         	6.22
MS.155         	14.915         	6.276
MS.156         	14.885         	6.206
MS.157         	14.855         	5.678
MS.158         	14.827         	5.609
MS.159         	14.797         	5.46
MS.160         	14.767         	5.158
MS.161         	14.737         	5.114
MS.162         	14.707         	4.655
MS.163         	14.68          	5.267
MS.164         	14.65          	4.941
MS.165         	14.62          	4.927
MS.166         	14.59          	5.118
MS.167         	14.562         	4.882
MS.168         	14.532         	4.683
MS.169         	14.505         	4.369
MS.170         	14.475         	4.687
MS.171         	14.445         	4.407
MS.172         	14.417         	4.121
MS.173         	14.387         	4.498
MS.174         	14.36          	4.127
MS.175         	14.33          	4.371
MS.176         	14.302         	4.22
MS.177         	14.273         	4.431
MS.178         	14.245         	4.252
MS.179         	14.217         	4.365
MS.180         	14.188         	4.413
MS.181         	14.16          	4.411
MS.182         	14.132         	4.238
MS.183         	14.102         	4.246
MS.184         	14.075         	4.284
MS.185         	14.047         	4.123
MS.186         	14.02          	4.711
MS.187         	13.99          	4.504
MS.188         	13.962         	4.169
MS.189         	13.935         	4.133
MS.190         	13.907         	4.141
MS.191         	13.88          	3.992
MS.192         	13.852         	4.206
MS.193         	13.825         	4.449
MS.194         	13.797         	4.107
MS.195         	13.77          	4.079
MS.196         	13.742         	3.827
MS.197         	13.715         	3.863
MS.198         	13.688         	3.926
MS.199         	13.66          	4.125
MS.200         	13.632         	3.877
MS.201         	13.605         	3.714
MS.202         	13.577         	3.374
MS.203         	13.55          	3.672
MS.204         	13.523         	3.607
MS.205         	13.495         	3.221
MS.206         	13.47          	3.615
MS.207         	13.443         	3.549
MS.208         	13.415         	3.035
MS.209         	13.387         	3.541
MS.210         	13.362         	3.092
MS.211         	13.335         	3.092
MS.212         	13.307         	3.035
MS.213         	13.282         	2.925
MS.214         	13.255         	2.858
MS.215         	13.23          	2.808
MS.216         	13.202         	2.886
MS.217         	13.175         	2.753
MS.218         	13.15          	2.663
MS.219         	13.122         	2.659
MS.220         	13.097         	2.751
MS.221         	13.07          	2.745
MS.222         	13.045         	2.912
MS.223         	13.02          	2.532
MS.224         	12.992         	2.441
MS.225         	12.967         	2.552
MS.226         	12.94          	2.099
MS.227         	12.915         	2.298
MS.228         	12.89          	2.389
MS.229         	12.862         	2.216
MS.230         	12.837         	2.254
MS.231         	12.812         	2.27
MS.232         	12.787         	2.32
MS.233         	12.76          	2.181
MS.234         	12.735         	1.837
MS.235         	12.71          	2.022
MS.236         	12.685         	2.141
MS.237         	12.66          	1.946
MS.238         	12.635         	2.181
MS.239         	12.61          	1.873
MS.240         	12.585         	1.656
MS.241         	12.557         	1.994
MS.242         	12.532         	1.446
MS.243         	12.507         	1.456
MS.244         	12.483         	1.766
MS.245         	12.457         	1.7
MS.246         	12.432         	1.476
MS.247         	12.41          	1.579
MS.248         	12.385         	1.368
MS.249         	12.36          	1.535
MS.250         	12.335         	1.233
MS.251         	12.31          	1.325
MS.252         	12.285         	1.247
MS.253         	12.26          	1.074
MS.254         	12.238         	1.082
MS.255         	12.212         	1.055
MS.256         	12.188         	0.842
MS.257         	12.162         	0.961
MS.258         	12.14          	0.918
MS.259         	12.115         	0.979
MS.260         	12.09          	0.967
MS.261         	12.065         	0.937
MS.262         	12.042         	0.898
MS.263         	12.017         	0.767
MS.264         	11.995         	0.856
MS.265         	11.97          	0.846
MS.266         	11.945         	0.834
MS.267         	11.922         	0.717
MS.268         	11.898         	0.757
MS.269         	11.875         	0.763
MS.270         	11.85          	0.773
MS.271         	11.827         	0.723
MS.272         	11.802         	0.798
MS.273         	11.78          	0.711
MS.274         	11.757         	0.786
MS.275         	11.733         	0.8
MS.276         	11.71          	0.659
MS.277         	11.685         	0.584
MS.278         	11.662         	0.713
MS.279         	11.64          	0.643
MS.280         	11.617         	0.657
MS.281         	11.592         	0.737
MS.282         	11.57          	0.576
MS.283         	11.547         	0.608
MS.284         	11.525         	0.651
MS.285         	11.5           	0.634
MS.286         	11.477         	0.695
MS.287         	11.455         	0.524
MS.288         	11.432         	0.52
MS.289         	11.41          	0.506
MS.290         	11.387         	0.457
MS.291         	11.363         	0.481
MS.292         	11.34          	0.524
MS.293         	11.318         	0.421
MS.294         	11.295         	0.443
MS.295         	11.273         	0.433
MS.296         	11.25          	0.435
MS.297         	11.227         	0.397
MS.298         	11.205         	0.375
MS.299         	11.182         	0.328
MS.300         	11.16          	0.443
MS.301         	11.137         	0.381
MS.302         	11.117         	0.381
MS.303         	11.095         	0.367
MS.304         	11.073         	0.369
MS.305         	11.05          	0.308
MS.306         	11.028         	0.278
MS.307         	11.005         	0.183
MS.308         	10.983         	0.181
MS.309         	10.962         	0.276
MS.310         	10.94          	0.226
MS.311         	10.917         	0.171
MS.312         	10.895         	0.165
MS.313         	10.875         	0.304
MS.314         	10.852         	0.26
MS.315         	10.83          	0.207
MS.316         	10.81          	0.222
MS.317         	10.787         	0.165
MS.318         	10.765         	0.169
MS.319         	10.745         	0.177
MS.320         	10.722         	0.175
MS.321         	10.702         	0.197
MS.322         	10.68          	0.175
MS.323         	10.66          	0.256
MS.324         	10.637         	0.258
MS.325         	10.617         	0.173
MS.326         	10.595         	0.175
MS.327         	10.575         	0.175
MS.328         	10.552         	0.177
MS.329         	10.532         	0.199
MS.330         	10.51          	0.165
MS.331         	10.49          	0.165
MS.332         	10.47          	0.165
MS.333         	10.448         	0.137
MS.334         	10.427         	0.171
MS.335         	10.407         	0.177
MS.336         	10.385         	0.153
MS.337         	10.365         	0.173
MS.338         	10.345         	0.169
MS.339         	10.323         	0.173
MS.340         	10.302         	0.137
MS.341         	10.282         	0.141
MS.342         	10.262         	0.141
MS.343         	10.24          	0.137
MS.344         	10.22          	0.165
MS.345         	10.2           	0.169
MS.346         	10.18          	0.161
MS.347         	10.16          	0.131
MS.348         	10.14          	0.131
MS.349         	10.12          	0.145
MS.350         	10.097         	0.135
MS.351         	10.077         	0.139
MS.352         	10.057         	0.153
MS.353         	10.037         	0.129
MS.354         	10.017         	0.137
MS.355         	9.997          	0.129
MS.356         	9.977          	0.143
MS.357         	9.957          	0.167
MS.358         	9.938          	0.139
MS.359         	9.917          	0.141
MS.360         	9.9            	0.111
MS.361         	9.88           	0.131
MS.362         	9.86           	0.121
MS.363         	9.84           	0.125
MS.364         	9.82           	0.145
MS.365         	9.8            	0.119
MS.366         	9.78           	0.133
MS.367         	9.76           	0.141
MS.368         	9.742          	0.119
MS.369         	9.722          	0.125
MS.370         	9.702          	0.135
MS.371         	9.682          	0.117
MS.372         	9.665          	0.119
MS.373         	9.645          	0.135
MS.374         	9.625          	0.141
MS.375         	9.605          	0.135
MS.376         	9.587          	0.117
MS.377         	9.568          	0.125
MS.378         	9.55           	0.135
MS.379         	9.53           	0.115
MS.380         	9.51           	0.129
MS.381         	9.492          	0.119
MS.382         	9.472          	0.129
MS.383         	9.452          	0.133
MS.384         	9.435          	0.127
MS.385         	9.415          	0.05
MS.386         	9.398          	0.125
MS.387         	9.377          	0.133
MS.388         	9.36           	0.115
MS.389         	9.34           	0.048
MS.390         	9.323          	0.109
MS.391         	9.302          	0.111
MS.392         	9.285          	0.046
MS.393         	9.267          	0.109
MS.394         	9.247          	0.046
MS.395         	9.23           	0.115
MS.396         	9.21           	0.048
MS.397         	9.193          	0.04
MS.398         	9.175          	0.105
MS.399         	9.155          	0.113
MS.400         	9.137          	0.038
MS.401         	9.12           	0.036
MS.402         	9.1            	0.052
MS.403         	9.082          	0.032
MS.404         	9.065          	0.036
MS.405         	9.047          	0.038
MS.406         	9.028          	0.044
MS.407         	9.01           	0.095
MS.408         	8.992          	0.036
MS.409         	8.975          	0.044
MS.410         	8.957          	0.03
MS.411         	8.94           	0.034
MS.412         	8.92           	0.034
MS.413         	8.903          	0.04
MS.414         	8.885          	0.038
MS.415         	8.867          	0.036
MS.416         	8.85           	0.046
MS.417         	8.832          	0.04
MS.418         	8.815          	0.042
MS.419         	8.797          	0.044
MS.420         	8.78           	0.04
MS.421         	8.762          	0.038
MS.422         	8.745          	0.04
MS.423         	8.727          	0.03
MS.424         	8.71           	0.038
MS.425         	8.693          	0.044
MS.426         	8.675          	0.046
MS.427         	8.658          	0.028
MS.428         	8.64           	0.038
MS.429         	8.622          	0.038
MS.430         	8.605          	0.04
MS.431         	8.587          	0.038
MS.432         	8.57           	0.038
MS.433         	8.555          	0.042
MS.434         	8.537          	0.034
MS.435         	8.52           	0.042
MS.436         	8.502          	0.036
MS.437         	8.485          	0.032
MS.438         	8.47           	0.042
MS.439         	8.452          	0.04
MS.440         	8.435          	0.036
MS.441         	8.417          	0.04
MS.442         	8.403          	0.034
MS.443         	8.385          	0.04
MS.444         	8.367          	0.038
MS.445         	8.35           	0.034
MS.446         	8.335          	0.038
MS.447         	8.318          	0.034
MS.448         	8.302          	0.038
MS.449         	8.285          	0.036
MS.450         	8.267          	0.036
MS.451         	8.252          	0.04
MS.452         	8.235          	0.032
MS.453         	8.217          	0.034
MS.454         	8.202          	0.036
MS.455         	8.185          	0.032
MS.456         	8.17           	0.036
MS.457         	8.153          	0.03
DERIVED EXCITABILITY VARIABLES
Program = QTracP 3/4/2020
Threshold method = 6 (optimised for CAP, using data for present condition only)
SR method = 1 (using actual data values)
6.                 	0.000               	Peak response\(mV)
9.                 	31.8                	Temperature ( C)
17.                	38                  	Age (years)
18.                	1                   	Sex (M=1, F=2)

EXTRA VARIABLES

MScPeak(mV) = 9.97
MScS5(mA) = 11.36
MScS50(mA) = 14.65
MScS95(mA) = 16.43
MScNSteps = 4
MScSteps(%) = 12.2
MScStepMax(%) = 5.3
MScD50 = 36
MScSlope = 6.24
MSFPeakAmp(mV) = 9.97
MSFNUnits = 132
MSFMeanUnitAmp(uV) = 75.5
MSFHuntTime(m) = 2.98
MSFError(%) = 3.89
MSFNLarge = 38.68
MSFMedianAmp(%) = 0.697
MSFMedianAmp(mV) = 0.0695
MSFHalfAmpAmp(%) = 0.903
MSFHalfAmpAmp(mV) = 0.09
MSFLargestAmp(%) = 2.57
MSFLargestAmp(mV) = 0.256
MSFMeanRS(%) = 2.01
MSFOpts = 10106121
MScDuration(min) = 4.1
MSFTraces = 396
MSFSizeLimit(uV) = 24.9
MSFLimitType = 1
MSFSmallestAmp(uV) = 26.3

EXTRA WAVEFORMS


!MScan Model
!132
	1	9.33	0.75	2
	2	10.29	0.64	2
	3	10.89	0.41	2
	4	11.03	0.58	2
	5	11.06	0.29	2
	6	11.1	0.44	2
	7	11.2	0.45	2
	8	11.26	0.34	2
	9	11.34	0.52	2
	10	11.4	0.5	2
	11	11.45	0.32	2
	12	11.5	0.33	2
	13	11.66	0.88	2
	14	11.79	0.56	2
	15	11.91	0.58	2
	16	11.95	0.26	2
	17	12	0.36	2
	18	12.13	0.46	2
	19	12.15	0.29	2
	20	12.17	0.42	2
	21	12.19	0.38	2
	22	12.21	0.4	2
	23	12.23	0.4	2
	24	12.27	0.61	2
	25	12.31	0.48	2
	26	12.35	0.77	2
	27	12.39	0.97	2
	28	12.45	1.39	2
	29	12.5	1.15	2
	30	12.56	0.44	2
	31	12.56	1.01	2
	32	12.62	1.21	2
	33	12.7	1.53	2
	34	12.77	1.05	2
	35	12.83	0.9	2
	36	12.89	0.99	2
	37	12.93	0.81	2
	38	12.98	0.73	2
	39	13.04	0.92	2
	40	13.1	0.89	2
	41	13.14	0.78	2
	42	13.18	0.54	2
	43	13.21	0.77	2
	44	13.25	0.92	2
	45	13.3	0.74	2
	46	13.35	0.89	2
	47	13.4	1.18	2.4
	48	13.45	1.14	2
	49	13.52	2.57	2
	50	13.59	0.89	2
	51	13.61	2.21	2
	52	13.64	0.97	2
	53	13.71	1.72	2
	54	14.43	0.72	2.4
	55	14.5	1.42	2
	56	14.55	1.06	2
	57	14.6	1.32	2
	58	14.64	1.29	2
	59	14.67	0.56	2
	60	14.68	0.53	2
	61	14.7	0.8	2
	62	14.72	0.75	2
	63	14.74	0.72	2
	64	14.75	0.8	2
	65	14.77	0.8	2
	66	14.79	0.8	2
	67	14.8	0.59	2
	68	14.81	0.4	2
	69	14.82	0.4	2
	70	14.83	0.4	2
	71	14.84	0.4	2
	72	14.85	0.4	2
	73	14.85	0.4	2
	74	14.86	0.35	2
	75	14.87	0.34	2
	76	14.88	0.34	2
	77	14.89	0.34	2
	78	14.9	0.34	2
	79	14.91	0.34	2
	80	14.92	0.34	2
	81	14.92	0.44	2
	82	14.93	0.44	2
	83	14.94	2.27	2
	84	14.94	0.44	2
	85	14.96	0.76	2
	86	14.98	1.01	2
	87	15	1.04	2
	88	15.02	1.04	2
	89	15.04	0.97	2
	90	15.06	0.68	2
	91	15.08	0.62	2
	92	15.1	0.64	2
	93	15.13	0.98	2
	94	15.16	0.96	2
	95	15.19	0.8	2
	96	15.22	0.87	2
	97	15.25	0.77	2
	98	15.3	1.07	2
	99	15.34	1.02	2
	100	15.39	0.79	2
	101	15.43	0.75	2
	102	15.47	0.73	2
	103	15.51	0.68	2
	104	15.55	0.66	2
	105	15.65	1.2	2
	106	15.74	1.15	2
	107	15.83	1.61	2
	108	15.91	1.48	2
	109	15.98	0.95	2
	110	16.06	1.64	2
	111	16.15	2.28	2
	112	16.21	1.01	2
	113	16.23	0.5	2
	114	16.24	1.69	2
	115	16.27	0.5	2
	116	16.29	0.45	2
	117	16.31	0.28	2
	118	16.32	0.28	2
	119	16.33	0.28	2
	120	16.34	0.28	2
	121	16.36	0.29	2
	122	16.37	0.32	2
	123	16.38	0.32	2
	124	16.4	0.32	2
	125	16.41	0.32	2
	126	16.44	0.45	2
	127	16.47	0.43	2
	128	16.5	0.46	2
	129	16.54	0.79	2
	130	16.59	0.81	2
	131	16.64	0.47	2
	132	17.6	0.28	2

