File:              	C:\Qtrac\Data\Daniel M Sørensen\MScan multicentre study\Data from centres\Roskilde\Folders with NC-examinations\ROS_N2b\TRC00310C.QZD
Name:              	DK.ROS.NC.2.2
Protocol:          	MSCAN-R2
Date:              	10/3/20
Start time:        	13:22:49
Age:               	54
Sex:               	m
Temperature:       	33,8
S/R sites:         	pero per-Ta
NC/disease:        	NC
Operator:          	tr
Comments:
M-SCAN DATA (9.1-1.6m)
Scanpts: 20, 23, 646, 666
Stim. (mA)     	Amp. (mV)
MS.1           	24             	6.492
MS.2           	24             	6.504
MS.3           	24             	6.494
MS.4           	24             	6.437
MS.5           	24             	6.435
MS.6           	24             	6.409
MS.7           	24             	6.401
MS.8           	24             	6.407
MS.9           	24             	6.395
MS.10          	24             	6.435
MS.11          	24             	6.435
MS.12          	24             	6.413
MS.13          	24             	6.405
MS.14          	24             	6.411
MS.15          	24             	6.403
MS.16          	24             	6.407
MS.17          	24             	6.383
MS.18          	24             	6.435
MS.19          	24             	6.411
MS.20          	24             	6.427
MS.21          	24             	6.425
MS.22          	24             	6.429
MS.23          	24             	6.401
MS.24          	23.905         	6.407
MS.25          	23.858         	6.383
MS.26          	23.807         	6.421
MS.27          	23.76          	6.391
MS.28          	23.712         	6.415
MS.29          	23.665         	6.399
MS.30          	23.62          	6.391
MS.31          	23.573         	6.365
MS.32          	23.525         	6.367
MS.33          	23.477         	6.387
MS.34          	23.43          	6.391
MS.35          	23.385         	6.421
MS.36          	23.337         	6.421
MS.37          	23.29          	6.403
MS.38          	23.245         	6.381
MS.39          	23.198         	6.397
MS.40          	23.153         	6.407
MS.41          	23.105         	6.421
MS.42          	23.06          	6.397
MS.43          	23.012         	6.365
MS.44          	22.967         	6.403
MS.45          	22.92          	6.369
MS.46          	22.875         	6.361
MS.47          	22.83          	6.371
MS.48          	22.785         	6.385
MS.49          	22.737         	6.365
MS.50          	22.692         	6.379
MS.51          	22.647         	6.347
MS.52          	22.602         	6.357
MS.53          	22.557         	6.331
MS.54          	22.512         	6.339
MS.55          	22.467         	6.347
MS.56          	22.422         	6.333
MS.57          	22.377         	6.395
MS.58          	22.332         	6.373
MS.59          	22.288         	6.333
MS.60          	22.243         	6.347
MS.61          	22.2           	6.363
MS.62          	22.155         	6.333
MS.63          	22.11          	6.328
MS.64          	22.067         	6.331
MS.65          	22.022         	6.351
MS.66          	21.977         	6.331
MS.67          	21.935         	6.302
MS.68          	21.89          	6.322
MS.69          	21.847         	6.314
MS.70          	21.802         	6.304
MS.71          	21.76          	6.278
MS.72          	21.715         	6.298
MS.73          	21.672         	6.288
MS.74          	21.63          	6.272
MS.75          	21.585         	6.272
MS.76          	21.542         	6.272
MS.77          	21.5           	6.312
MS.78          	21.458         	6.27
MS.79          	21.415         	6.254
MS.80          	21.372         	6.268
MS.81          	21.327         	6.246
MS.82          	21.285         	6.24
MS.83          	21.243         	6.228
MS.84          	21.2           	6.202
MS.85          	21.157         	6.222
MS.86          	21.118         	6.22
MS.87          	21.075         	6.266
MS.88          	21.032         	6.222
MS.89          	20.99          	6.208
MS.90          	20.948         	6.183
MS.91          	20.907         	6.196
MS.92          	20.865         	6.179
MS.93          	20.823         	6.145
MS.94          	20.78          	6.167
MS.95          	20.74          	6.183
MS.96          	20.698         	6.149
MS.97          	20.657         	6.135
MS.98          	20.615         	6.139
MS.99          	20.575         	6.077
MS.100         	20.532         	6.123
MS.101         	20.493         	6.111
MS.102         	20.452         	6.073
MS.103         	20.41          	6.111
MS.104         	20.37          	6.042
MS.105         	20.33          	6.065
MS.106         	20.288         	6.03
MS.107         	20.247         	6.002
MS.108         	20.208         	6.063
MS.109         	20.167         	6.051
MS.110         	20.127         	6.024
MS.111         	20.087         	5.964
MS.112         	20.047         	6.016
MS.113         	20.007         	5.98
MS.114         	19.967         	6.02
MS.115         	19.927         	6.018
MS.116         	19.887         	5.986
MS.117         	19.847         	5.926
MS.118         	19.807         	5.938
MS.119         	19.767         	5.942
MS.120         	19.727         	5.891
MS.121         	19.69          	5.869
MS.122         	19.65          	5.934
MS.123         	19.61          	5.899
MS.124         	19.57          	5.819
MS.125         	19.532         	5.813
MS.126         	19.493         	5.797
MS.127         	19.455         	5.843
MS.128         	19.415         	5.783
MS.129         	19.377         	5.835
MS.130         	19.337         	5.889
MS.131         	19.3           	5.797
MS.132         	19.26          	5.857
MS.133         	19.222         	5.76
MS.134         	19.182         	5.748
MS.135         	19.145         	5.736
MS.136         	19.108         	5.744
MS.137         	19.067         	5.754
MS.138         	19.03          	5.676
MS.139         	18.993         	5.648
MS.140         	18.955         	5.65
MS.141         	18.917         	5.644
MS.142         	18.88          	5.597
MS.143         	18.842         	5.62
MS.144         	18.802         	5.587
MS.145         	18.765         	5.64
MS.146         	18.727         	5.569
MS.147         	18.69          	5.499
MS.148         	18.655         	5.523
MS.149         	18.618         	5.489
MS.150         	18.58          	5.479
MS.151         	18.542         	5.45
MS.152         	18.505         	5.458
MS.153         	18.467         	5.481
MS.154         	18.432         	5.414
MS.155         	18.395         	5.509
MS.156         	18.358         	5.487
MS.157         	18.32          	5.517
MS.158         	18.285         	5.376
MS.159         	18.247         	5.394
MS.160         	18.212         	5.41
MS.161         	18.175         	5.267
MS.162         	18.137         	5.283
MS.163         	18.102         	5.43
MS.164         	18.067         	5.275
MS.165         	18.03          	5.297
MS.166         	17.995         	5.333
MS.167         	17.958         	5.352
MS.168         	17.922         	5.384
MS.169         	17.887         	5.338
MS.170         	17.85          	5.225
MS.171         	17.815         	5.239
MS.172         	17.78          	5.263
MS.173         	17.745         	5.253
MS.174         	17.708         	5.146
MS.175         	17.672         	5.17
MS.176         	17.637         	5.152
MS.177         	17.602         	5.219
MS.178         	17.567         	5.12
MS.179         	17.532         	5.148
MS.180         	17.497         	5.126
MS.181         	17.462         	5.041
MS.182         	17.427         	5.062
MS.183         	17.392         	4.937
MS.184         	17.358         	5.112
MS.185         	17.323         	4.925
MS.186         	17.288         	4.929
MS.187         	17.255         	4.878
MS.188         	17.22          	4.892
MS.189         	17.185         	4.925
MS.190         	17.15          	4.919
MS.191         	17.118         	4.909
MS.192         	17.083         	4.864
MS.193         	17.047         	4.89
MS.194         	17.015         	4.854
MS.195         	16.98          	4.939
MS.196         	16.948         	4.915
MS.197         	16.913         	4.8
MS.198         	16.878         	4.814
MS.199         	16.845         	4.719
MS.200         	16.812         	4.768
MS.201         	16.778         	4.759
MS.202         	16.745         	4.731
MS.203         	16.71          	4.699
MS.204         	16.677         	4.622
MS.205         	16.645         	4.627
MS.206         	16.61          	4.514
MS.207         	16.577         	4.612
MS.208         	16.545         	4.443
MS.209         	16.512         	4.492
MS.210         	16.477         	4.508
MS.211         	16.445         	4.419
MS.212         	16.413         	4.379
MS.213         	16.38          	4.361
MS.214         	16.347         	4.268
MS.215         	16.315         	4.383
MS.216         	16.282         	4.308
MS.217         	16.25          	4.296
MS.218         	16.217         	4.266
MS.219         	16.185         	4.278
MS.220         	16.153         	4.165
MS.221         	16.12          	4.222
MS.222         	16.087         	4.21
MS.223         	16.055         	4.161
MS.224         	16.022         	4.161
MS.225         	15.992         	4.093
MS.226         	15.96          	4.129
MS.227         	15.927         	4.091
MS.228         	15.895         	3.986
MS.229         	15.865         	4.089
MS.230         	15.832         	4.01
MS.231         	15.8           	3.996
MS.232         	15.77          	3.938
MS.233         	15.737         	3.845
MS.234         	15.705         	3.988
MS.235         	15.675         	3.877
MS.236         	15.642         	3.799
MS.237         	15.612         	3.829
MS.238         	15.58          	3.799
MS.239         	15.55          	3.795
MS.240         	15.52          	3.764
MS.241         	15.487         	3.839
MS.242         	15.457         	3.73
MS.243         	15.425         	3.7
MS.244         	15.395         	3.694
MS.245         	15.365         	3.664
MS.246         	15.332         	3.605
MS.247         	15.302         	3.69
MS.248         	15.273         	3.513
MS.249         	15.242         	3.573
MS.250         	15.212         	3.509
MS.251         	15.18          	3.519
MS.252         	15.15          	3.412
MS.253         	15.12          	3.44
MS.254         	15.09          	3.406
MS.255         	15.06          	3.309
MS.256         	15.03          	3.297
MS.257         	15             	3.329
MS.258         	14.97          	3.301
MS.259         	14.94          	3.309
MS.260         	14.91          	3.339
MS.261         	14.88          	3.275
MS.262         	14.85          	3.333
MS.263         	14.82          	3.305
MS.264         	14.792         	3.249
MS.265         	14.762         	3.192
MS.266         	14.733         	3.241
MS.267         	14.702         	3.18
MS.268         	14.672         	3.273
MS.269         	14.645         	3.138
MS.270         	14.615         	3.106
MS.271         	14.585         	3.16
MS.272         	14.557         	3.15
MS.273         	14.527         	3.001
MS.274         	14.497         	3.06
MS.275         	14.47          	3.072
MS.276         	14.44          	3.023
MS.277         	14.412         	2.981
MS.278         	14.382         	3.015
MS.279         	14.355         	3.011
MS.280         	14.325         	2.914
MS.281         	14.297         	2.832
MS.282         	14.267         	2.806
MS.283         	14.24          	2.864
MS.284         	14.212         	2.757
MS.285         	14.182         	2.687
MS.286         	14.155         	2.745
MS.287         	14.127         	2.667
MS.288         	14.097         	2.673
MS.289         	14.07          	2.612
MS.290         	14.042         	2.647
MS.291         	14.015         	2.514
MS.292         	13.985         	2.661
MS.293         	13.957         	2.548
MS.294         	13.93          	2.49
MS.295         	13.903         	2.502
MS.296         	13.875         	2.34
MS.297         	13.847         	2.427
MS.298         	13.82          	2.383
MS.299         	13.792         	2.439
MS.300         	13.765         	2.425
MS.301         	13.737         	2.33
MS.302         	13.71          	2.395
MS.303         	13.682         	2.203
MS.304         	13.655         	2.189
MS.305         	13.627         	2.195
MS.306         	13.6           	2.103
MS.307         	13.572         	2.179
MS.308         	13.545         	2.052
MS.309         	13.517         	1.958
MS.310         	13.492         	1.934
MS.311         	13.465         	2.065
MS.312         	13.438         	1.919
MS.313         	13.41          	1.952
MS.314         	13.385         	1.996
MS.315         	13.358         	1.875
MS.316         	13.33          	1.867
MS.317         	13.305         	1.837
MS.318         	13.278         	1.791
MS.319         	13.25          	1.676
MS.320         	13.225         	1.893
MS.321         	13.197         	1.795
MS.322         	13.172         	1.698
MS.323         	13.145         	1.789
MS.324         	13.12          	1.692
MS.325         	13.092         	1.72
MS.326         	13.068         	1.732
MS.327         	13.04          	1.625
MS.328         	13.015         	1.644
MS.329         	12.987         	1.591
MS.330         	12.962         	1.617
MS.331         	12.938         	1.507
MS.332         	12.91          	1.478
MS.333         	12.885         	1.601
MS.334         	12.86          	1.511
MS.335         	12.832         	1.43
MS.336         	12.807         	1.394
MS.337         	12.782         	1.434
MS.338         	12.757         	1.47
MS.339         	12.73          	1.287
MS.340         	12.705         	1.245
MS.341         	12.68          	1.253
MS.342         	12.655         	1.211
MS.343         	12.63          	1.289
MS.344         	12.605         	1.231
MS.345         	12.58          	1.178
MS.346         	12.555         	1.114
MS.347         	12.53          	1.15
MS.348         	12.505         	1.146
MS.349         	12.48          	1.164
MS.350         	12.455         	1.16
MS.351         	12.43          	1.045
MS.352         	12.405         	1.122
MS.353         	12.38          	0.999
MS.354         	12.355         	0.989
MS.355         	12.33          	1.003
MS.356         	12.305         	1.013
MS.357         	12.28          	0.933
MS.358         	12.257         	0.882
MS.359         	12.233         	0.88
MS.360         	12.207         	1.007
MS.361         	12.182         	0.896
MS.362         	12.16          	0.884
MS.363         	12.135         	0.814
MS.364         	12.11          	0.828
MS.365         	12.085         	0.89
MS.366         	12.062         	0.81
MS.367         	12.037         	0.862
MS.368         	12.012         	0.792
MS.369         	11.99          	0.846
MS.370         	11.965         	0.771
MS.371         	11.943         	0.779
MS.372         	11.917         	0.727
MS.373         	11.895         	0.753
MS.374         	11.87          	0.707
MS.375         	11.847         	0.685
MS.376         	11.822         	0.735
MS.377         	11.8           	0.645
MS.378         	11.775         	0.634
MS.379         	11.752         	0.566
MS.380         	11.73          	0.667
MS.381         	11.705         	0.647
MS.382         	11.682         	0.691
MS.383         	11.657         	0.54
MS.384         	11.635         	0.6
MS.385         	11.613         	0.449
MS.386         	11.59          	0.614
MS.387         	11.565         	0.568
MS.388         	11.542         	0.483
MS.389         	11.52          	0.5
MS.390         	11.497         	0.457
MS.391         	11.472         	0.536
MS.392         	11.45          	0.451
MS.393         	11.427         	0.473
MS.394         	11.405         	0.417
MS.395         	11.382         	0.425
MS.396         	11.36          	0.493
MS.397         	11.337         	0.336
MS.398         	11.315         	0.348
MS.399         	11.292         	0.34
MS.400         	11.27          	0.318
MS.401         	11.247         	0.365
MS.402         	11.225         	0.328
MS.403         	11.202         	0.31
MS.404         	11.18          	0.292
MS.405         	11.157         	0.308
MS.406         	11.135         	0.298
MS.407         	11.113         	0.314
MS.408         	11.09          	0.312
MS.409         	11.068         	0.302
MS.410         	11.045         	0.29
MS.411         	11.023         	0.308
MS.412         	11.002         	0.25
MS.413         	10.98          	0.246
MS.414         	10.957         	0.207
MS.415         	10.935         	0.236
MS.416         	10.915         	0.256
MS.417         	10.892         	0.22
MS.418         	10.87          	0.254
MS.419         	10.85          	0.216
MS.420         	10.827         	0.27
MS.421         	10.805         	0.258
MS.422         	10.785         	0.266
MS.423         	10.762         	0.262
MS.424         	10.74          	0.244
MS.425         	10.72          	0.256
MS.426         	10.698         	0.228
MS.427         	10.677         	0.254
MS.428         	10.655         	0.222
MS.429         	10.635         	0.205
MS.430         	10.613         	0.248
MS.431         	10.592         	0.232
MS.432         	10.57          	0.242
MS.433         	10.55          	0.246
MS.434         	10.528         	0.22
MS.435         	10.507         	0.226
MS.436         	10.485         	0.214
MS.437         	10.465         	0.205
MS.438         	10.445         	0.189
MS.439         	10.422         	0.199
MS.440         	10.403         	0.171
MS.441         	10.382         	0.191
MS.442         	10.36          	0.199
MS.443         	10.34          	0.179
MS.444         	10.32          	0.181
MS.445         	10.3           	0.185
MS.446         	10.278         	0.181
MS.447         	10.257         	0.173
MS.448         	10.238         	0.187
MS.449         	10.217         	0.222
MS.450         	10.198         	0.179
MS.451         	10.175         	0.199
MS.452         	10.155         	0.183
MS.453         	10.135         	0.147
MS.454         	10.115         	0.127
MS.455         	10.095         	0.161
MS.456         	10.075         	0.159
MS.457         	10.055         	0.161
MS.458         	10.035         	0.153
MS.459         	10.015         	0.147
MS.460         	9.995          	0.167
MS.461         	9.975          	0.157
MS.462         	9.955          	0.173
MS.463         	9.935          	0.119
MS.464         	9.915          	0.091
MS.465         	9.895          	0.091
MS.466         	9.875          	0.121
MS.467         	9.855          	0.101
MS.468         	9.835          	0.129
MS.469         	9.818          	0.085
MS.470         	9.797          	0.103
MS.471         	9.778          	0.111
MS.472         	9.757          	0.089
MS.473         	9.738          	0.089
MS.474         	9.717          	0.081
MS.475         	9.7            	0.111
MS.476         	9.68           	0.093
MS.477         	9.66           	0.109
MS.478         	9.64           	0.091
MS.479         	9.622          	0.093
MS.480         	9.602          	0.083
MS.481         	9.582          	0.087
MS.482         	9.565          	0.087
MS.483         	9.545          	0.089
MS.484         	9.525          	0.089
MS.485         	9.507          	0.077
MS.486         	9.488          	0.085
MS.487         	9.47           	0.085
MS.488         	9.45           	0.079
MS.489         	9.432          	0.089
MS.490         	9.412          	0.089
MS.491         	9.395          	0.087
MS.492         	9.375          	0.073
MS.493         	9.358          	0.083
MS.494         	9.337          	0.087
MS.495         	9.32           	0.087
MS.496         	9.3            	0.085
MS.497         	9.283          	0.073
MS.498         	9.262          	0.083
MS.499         	9.245          	0.083
MS.500         	9.225          	0.079
MS.501         	9.207          	0.081
MS.502         	9.19           	0.079
MS.503         	9.17           	0.083
MS.504         	9.153          	0.068
MS.505         	9.135          	0.075
MS.506         	9.115          	0.068
MS.507         	9.097          	0.075
MS.508         	9.08           	0.07
MS.509         	9.062          	0.083
MS.510         	9.042          	0.073
MS.511         	9.025          	0.081
MS.512         	9.007          	0.07
MS.513         	8.99           	0.068
MS.514         	8.972          	0.073
MS.515         	8.952          	0.073
MS.516         	8.935          	0.07
MS.517         	8.917          	0.07
MS.518         	8.9            	0.07
MS.519         	8.882          	0.07
MS.520         	8.865          	0.068
MS.521         	8.847          	0.07
MS.522         	8.83           	0.068
MS.523         	8.812          	0.07
MS.524         	8.795          	0.077
MS.525         	8.778          	0.073
MS.526         	8.757          	0.064
MS.527         	8.74           	0.066
MS.528         	8.725          	0.073
MS.529         	8.707          	0.066
MS.530         	8.69           	0.077
MS.531         	8.672          	0.066
MS.532         	8.655          	0.07
MS.533         	8.637          	0.068
MS.534         	8.62           	0.066
MS.535         	8.602          	0.073
MS.536         	8.585          	0.066
MS.537         	8.568          	0.073
MS.538         	8.55           	0.073
MS.539         	8.535          	0.073
MS.540         	8.517          	0.066
MS.541         	8.5            	0.068
MS.542         	8.483          	0.068
MS.543         	8.465          	0.073
MS.544         	8.45           	0.07
MS.545         	8.432          	0.073
MS.546         	8.415          	0.073
MS.547         	8.398          	0.068
MS.548         	8.382          	0.073
MS.549         	8.365          	0.07
MS.550         	8.347          	0.068
MS.551         	8.332          	0.066
MS.552         	8.315          	0.068
MS.553         	8.297          	0.068
MS.554         	8.283          	0.07
MS.555         	8.265          	0.068
MS.556         	8.247          	0.073
MS.557         	8.233          	0.066
MS.558         	8.215          	0.066
MS.559         	8.2            	0.066
MS.560         	8.182          	0.07
MS.561         	8.167          	0.083
MS.562         	8.15           	0.07
MS.563         	8.135          	0.07
MS.564         	8.117          	0.068
MS.565         	8.102          	0.073
MS.566         	8.085          	0.073
MS.567         	8.07           	0.068
MS.568         	8.052          	0.07
MS.569         	8.037          	0.068
MS.570         	8.02           	0.07
MS.571         	8.005          	0.07
MS.572         	7.99           	0.081
MS.573         	7.972          	0.066
MS.574         	7.957          	0.066
MS.575         	7.94           	0.068
MS.576         	7.925          	0.077
MS.577         	7.91           	0.064
MS.578         	7.892          	0.068
MS.579         	7.878          	0.066
MS.580         	7.862          	0.073
MS.581         	7.847          	0.068
MS.582         	7.83           	0.066
MS.583         	7.815          	0.07
MS.584         	7.8            	0.068
MS.585         	7.785          	0.066
MS.586         	7.767          	0.064
MS.587         	7.753          	0.066
MS.588         	7.737          	0.05
MS.589         	7.722          	0.062
MS.590         	7.707          	0.066
MS.591         	7.69           	0.066
MS.592         	7.675          	0.064
MS.593         	7.66           	0.081
MS.594         	7.645          	0.048
MS.595         	7.63           	0.048
MS.596         	7.615          	0.052
MS.597         	7.6            	0.052
MS.598         	7.585          	0.05
MS.599         	7.57           	0.066
MS.600         	7.555          	0.064
MS.601         	7.537          	0.06
MS.602         	7.523          	0.066
MS.603         	7.507          	0.056
MS.604         	7.492          	0.04
MS.605         	7.477          	0.05
MS.606         	7.462          	0.04
MS.607         	7.45           	0.044
MS.608         	7.435          	0.06
MS.609         	7.42           	0.048
MS.610         	7.405          	0.05
MS.611         	7.39           	0.058
MS.612         	7.375          	0.044
MS.613         	7.36           	0.044
MS.614         	7.345          	0.046
MS.615         	7.33           	0.048
MS.616         	7.315          	0.042
MS.617         	7.302          	0.044
MS.618         	7.287          	0.042
MS.619         	7.273          	0.038
MS.620         	7.257          	0.042
MS.621         	7.242          	0.042
MS.622         	7.227          	0.042
MS.623         	7.215          	0.044
MS.624         	7.2            	0.036
MS.625         	7.185          	0.04
MS.626         	7.17           	0.04
MS.627         	7.157          	0.046
MS.628         	7.142          	0.042
MS.629         	7.128          	0.042
MS.630         	7.115          	0.038
MS.631         	7.1            	0.038
MS.632         	7.085          	0.038
MS.633         	7.072          	0.04
MS.634         	7.057          	0.04
MS.635         	7.043          	0.042
MS.636         	7.03           	0.042
MS.637         	7.015          	0.04
MS.638         	7              	0.036
MS.639         	6.987          	0.038
MS.640         	6.972          	0.042
MS.641         	6.96           	0.038
MS.642         	6.945          	0.04
MS.643         	6.932          	0.038
MS.644         	6.918          	0.042
MS.645         	6.902          	0.038
MS.646         	6.89           	0.04
MS.647         	6.875          	0.04
MS.648         	6.862          	0.042
MS.649         	6.847          	0.038
MS.650         	6.835          	0.036
MS.651         	6.822          	0.042
MS.652         	6.807          	0.04
MS.653         	6.795          	0.036
MS.654         	6.78           	0.04
MS.655         	6.767          	0.038
MS.656         	6.753          	0.038
MS.657         	6.74           	0.04
MS.658         	6.727          	0.04
MS.659         	6.712          	0.042
MS.660         	6.7            	0.042
MS.661         	6.685          	0.04
MS.662         	6.672          	0.04
MS.663         	6.66           	0.038
MS.664         	6.645          	0.036
MS.665         	6.632          	0.04
MS.666         	6.62           	0.04
MS.667         	6.608          	0.042
MS.668         	6.592          	0.038
MS.669         	6.58           	0.04
MS.670         	6.567          	0.04
MS.671         	6.555          	0.038
MS.672         	6.54           	0.038
MS.673         	6.527          	0.04
MS.674         	6.515          	0.04
MS.675         	6.503          	0.042
MS.676         	6.487          	0.034
MS.677         	6.475          	0.036
MS.678         	6.462          	0.034
MS.679         	6.45           	0.042
MS.680         	6.438          	0.04
MS.681         	6.425          	0.036
MS.682         	6.41           	0.04
MS.683         	6.398          	0.036
MS.684         	6.385          	0.042
MS.685         	6.372          	0.036
MS.686         	6.36           	0.044
MS.687         	6.347          	0.04
MS.688         	6.335          	0.04
MS.689         	6.322          	0.04
MS.690         	6.31           	0.036
MS.691         	6.297          	0.04
MS.692         	6.285          	0.036
MS.693         	6.273          	0.04
MS.694         	6.26           	0.03
MS.695         	6.247          	0.04
MS.696         	6.235          	0.042
MS.697         	6.222          	0.04
MS.698         	6.21           	0.038
MS.699         	6.197          	0.036
MS.700         	6.185          	0.036
MS.701         	6.172          	0.032
MS.702         	6.16           	0.038
MS.703         	6.148          	0.034
MS.704         	6.135          	0.042
MS.705         	6.122          	0.036
MS.706         	6.11           	0.085
MS.707         	6.097          	0.03
MS.708         	6.088          	0.038
MS.709         	6.075          	0.036
MS.710         	6.062          	0.036
MS.711         	6.05           	0.042
MS.712         	6.037          	0.028
MS.713         	6.025          	0.04
MS.714         	6.015          	0.036
MS.715         	6.003          	0.038
MS.716         	5.99           	0.036
MS.717         	5.977          	0.036
MS.718         	5.965          	0.032
MS.719         	5.955          	0.032
MS.720         	5.942          	0.032
MS.721         	5.93           	0.036
MS.722         	5.918          	0.034
MS.723         	5.907          	0.038
MS.724         	5.895          	0.038
MS.725         	5.882          	0.038
MS.726         	5.87           	0.026
MS.727         	5.86           	0.03
MS.728         	5.847          	0.034
MS.729         	5.835          	0.032
MS.730         	5.825          	0.032
MS.731         	5.812          	0.034
MS.732         	5.8            	0.03
MS.733         	5.79           	0.032
MS.734         	5.777          	0.034
MS.735         	5.767          	0.032
MS.736         	5.755          	0.028
MS.737         	5.742          	0.03
MS.738         	5.733          	0.032
MS.739         	5.72           	0.032
MS.740         	5.71           	0.034
MS.741         	5.697          	0.036
MS.742         	5.685          	0.03
MS.743         	5.675          	0.03
MS.744         	5.662          	0.03
MS.745         	5.652          	0.032
MS.746         	5.64           	0.032
MS.747         	5.63           	0.034
MS.748         	5.617          	0.032
MS.749         	5.608          	0.032
MS.750         	5.595          	0.036
MS.751         	5.585          	0.034
MS.752         	5.572          	0.028
MS.753         	5.562          	0.026
MS.754         	5.552          	0.03
MS.755         	5.54           	0.034
MS.756         	5.53           	0.03
MS.757         	5.517          	0.032
MS.758         	5.507          	0.03
MS.759         	5.495          	0.03
MS.760         	5.485          	0.038
MS.761         	5.475          	0.032
MS.762         	5.463          	0.028
MS.763         	5.452          	0.032
MS.764         	5.443          	0.032
MS.765         	5.43           	0.036
MS.766         	5.42           	0.022
MS.767         	5.41           	0.028
MS.768         	5.398          	0.032
MS.769         	5.387          	0.036
MS.770         	5.378          	0.028
MS.771         	5.365          	0.026
MS.772         	5.355          	0.022
MS.773         	5.345          	0.024
MS.774         	5.332          	0.024
MS.775         	5.322          	0.02
MS.776         	5.312          	0.032
MS.777         	5.302          	0.026
MS.778         	5.29           	0.028
MS.779         	5.28           	0.024
MS.780         	5.27           	0.018
MS.781         	5.26           	0.028
MS.782         	5.25           	0.028
MS.783         	5.237          	0.026
MS.784         	5.227          	0.032
MS.785         	5.217          	0.02
MS.786         	5.207          	0.02
MS.787         	5.197          	0.022
MS.788         	5.188          	0.024
MS.789         	5.175          	0.022
MS.790         	5.165          	0.022
MS.791         	5.155          	0.218
MS.792         	5.145          	0.328
MS.793         	5.135          	14.002
MS.794         	5.125          	0.014
MS.795         	5.115          	0.02
MS.796         	5.105          	0.014
MS.797         	5.095          	0.01
DERIVED EXCITABILITY VARIABLES
Program = QTracP 3/4/2020
Threshold method = 6 (optimised for CAP, using data for present condition only)
SR method = 1 (using actual data values)
6.                 	0.000               	Peak response\(mV)
9.                 	33                  	Temperature ( C)
17.                	54                  	Age (years)
18.                	1                   	Sex (M=1, F=2)

EXTRA VARIABLES

MScPeak(mV) = 5.75
MScS5(mA) = 7.1
MScS50(mA) = 8.19
MScS95(mA) = 14.64
MScNSteps = 1
MScSteps(%) = 2.2
MScStepMax(%) = 2.2
MScD50 = 1
MScSlope = 3.86
MSFPeakAmp(mV) = 6.38
MSFNUnits = 197
MSFMeanUnitAmp(uV) = 32.4
MSFHuntTime(m) = 4.64
MSFError(%) = 1.33
MSFNLarge = 75.71
MSFMedianAmp(%) = 0.48
MSFMedianAmp(mV) = 0.0306
MSFHalfAmpAmp(%) = 0.514
MSFHalfAmpAmp(mV) = 0.0328
MSFLargestAmp(%) = 1.14
MSFLargestAmp(mV) = 0.0725
MSFMeanRS(%) = 2
MSFOpts = 10106121
MScDuration(min) = 7.5
MSFTraces = 647
MSFSizeLimit(uV) = 16
MSFLimitType = 1
MSFSmallestAmp(uV) = 16.1

EXTRA WAVEFORMS


!MScan Model
!197
	1	7.54	0.36	2
	2	9.7	0.8	2
	3	9.9	0.39	2
	4	10.08	0.4	2
	5	10.29	0.52	2
	6	10.53	0.49	2
	7	10.92	0.83	2
	8	11.09	0.69	2
	9	11.27	0.6	2
	10	11.35	0.59	2
	11	11.43	0.58	2
	12	11.49	0.52	2
	13	11.55	0.54	2
	14	11.61	0.55	2
	15	11.63	0.48	2
	16	11.67	0.59	2
	17	11.72	0.56	2
	18	11.79	0.57	2
	19	11.85	0.61	2
	20	11.92	0.62	2
	21	11.99	0.64	2
	22	12.03	0.47	2
	23	12.08	0.46	2
	24	12.13	0.5	2
	25	12.17	0.48	2
	26	12.22	0.47	2
	27	12.26	0.47	2
	28	12.3	0.48	2
	29	12.35	0.5	2
	30	12.39	0.49	2
	31	12.43	0.49	2
	32	12.47	0.53	2
	33	12.51	0.45	2
	34	12.54	0.45	2
	35	12.57	0.44	2
	36	12.6	0.47	2
	37	12.64	0.47	2
	38	12.67	0.42	2
	39	12.7	0.42	2
	40	12.72	0.43	2
	41	12.75	0.42	2
	42	12.78	0.43	2
	43	12.82	0.53	2
	44	12.86	0.52	2
	45	12.9	0.53	2
	46	12.95	0.59	2
	47	12.99	0.63	2
	48	13.04	0.65	2
	49	13.09	0.71	2
	50	13.14	0.71	2
	51	13.18	0.7	2
	52	13.23	0.69	2
	53	13.27	0.71	2
	54	13.32	0.7	2
	55	13.36	0.65	2
	56	13.41	0.65	2
	57	13.45	0.57	2
	58	13.48	0.58	2
	59	13.52	0.6	2
	60	13.56	0.57	2
	61	13.6	0.56	2
	62	13.63	0.56	2
	63	13.67	0.56	2
	64	13.7	0.49	2
	65	13.73	0.46	2
	66	13.76	0.48	2
	67	13.79	0.48	2
	68	13.82	0.47	2
	69	13.85	0.48	2
	70	13.88	0.51	2
	71	13.91	0.52	2
	72	13.94	0.53	2
	73	13.97	0.54	2
	74	14.01	0.54	2
	75	14.04	0.51	2
	76	14.07	0.5	2
	77	14.1	0.49	2
	78	14.13	0.47	2
	79	14.16	0.49	2
	80	14.2	0.48	2
	81	14.23	0.48	2
	82	14.26	0.46	2
	83	14.29	0.44	2
	84	14.33	0.46	2
	85	14.36	0.44	2
	86	14.39	0.43	2
	87	14.43	0.47	2
	88	14.47	0.57	2
	89	14.52	0.53	2
	90	14.58	0.66	2
	91	14.64	0.72	2
	92	14.7	0.79	2
	93	14.77	0.81	2
	94	14.84	0.74	2
	95	14.89	0.62	2
	96	14.95	0.59	2
	97	15	0.6	2
	98	15.05	0.44	2
	99	15.09	0.49	1.9
	100	15.13	0.43	2
	101	15.17	0.38	2
	102	15.2	0.39	2
	103	15.24	0.42	2
	104	15.27	0.38	2
	105	15.31	0.39	2
	106	15.34	0.4	2
	107	15.38	0.41	2
	108	15.41	0.41	2
	109	15.44	0.39	2
	110	15.48	0.38	2
	111	15.51	0.38	2
	112	15.54	0.37	2
	113	15.57	0.38	2
	114	15.6	0.39	2
	115	15.63	0.34	2
	116	15.65	0.31	2
	117	15.68	0.31	2
	118	15.7	0.31	2
	119	15.73	0.3	2
	120	15.75	0.33	2
	121	15.78	0.34	2
	122	15.81	0.34	2
	123	15.84	0.33	2
	124	15.87	0.33	2
	125	15.9	0.32	2
	126	15.93	0.32	2
	127	15.96	0.32	2
	128	15.99	0.32	2
	129	16.02	0.33	2
	130	16.05	0.33	2
	131	16.08	0.38	2
	132	16.12	0.41	2
	133	16.15	0.4	2
	134	16.18	0.41	2
	135	16.22	0.42	2
	136	16.25	0.42	2
	137	16.29	0.5	2
	138	16.33	0.5	2
	139	16.37	0.5	2
	140	16.41	0.48	2
	141	16.45	0.47	2
	142	16.49	0.47	2
	143	16.54	0.44	2
	144	16.58	0.42	2
	145	16.63	0.56	2
	146	16.68	0.55	2
	147	16.75	0.64	2
	148	16.83	0.78	2
	149	16.91	0.82	2
	150	16.99	0.44	2
	151	17.08	1.14	2
	152	17.18	0.91	2
	153	17.28	0.87	2
	154	17.38	0.85	2
	155	17.5	0.84	2
	156	17.61	0.75	2
	157	17.73	0.79	2
	158	17.87	1.02	2
	159	18.02	0.99	2
	160	18.17	0.89	2
	161	18.32	0.82	2
	162	18.45	0.78	2
	163	18.56	0.58	2
	164	18.66	0.59	2
	165	18.75	0.55	2
	166	18.83	0.48	2
	167	18.91	0.39	2
	168	18.98	0.42	2
	169	19.06	0.41	2
	170	19.13	0.42	2
	171	19.21	0.43	2
	172	19.3	0.52	2
	173	19.39	0.5	2
	174	19.48	0.49	2
	175	19.59	0.5	2
	176	19.71	0.53	2
	177	19.83	0.51	2
	178	19.94	0.44	2
	179	20.04	0.38	2
	180	20.12	0.31	2
	181	20.2	0.31	2
	182	20.29	0.32	2
	183	20.37	0.32	2
	184	20.46	0.34	2
	185	20.56	0.33	2
	186	20.66	0.3	2
	187	20.75	0.25	2
	188	20.83	0.25	2
	189	20.93	0.26	2
	190	21.12	0.51	2
	191	21.23	0.27	2
	192	21.37	0.33	2
	193	21.52	0.31	2
	194	21.72	0.34	2
	195	21.94	0.31	2
	196	22.28	0.43	2
	197	23.29	0.8	2

