File:              	C:\Qtrac\Data\Daniel M Sørensen\MScan multicentre study\Data from centres\Antalya\Processed data\TR.NC.ANT.4.2- NCC00329A.QZD
Name:              	TR.NC.ANT.4.2
Protocol:          	MSCAN-R2
Date:              	29/3/20
Start time:        	19:20:33
Age:               	21
Sex:               	f
Temperature:       	31.6
S/R sites:         	APB
NC/disease:        	NC
Operator:          	ab
Comments:          	left APB
M-SCAN DATA (6.3-1.4m)
Scanpts: 188, 195, 511, 532
Stim. (mA)     	Amp. (mV)
MS.1           	12             	12.695
MS.2           	12             	12.725
MS.3           	12             	12.699
MS.4           	12             	12.677
MS.5           	12             	12.659
MS.6           	12             	12.639
MS.7           	12             	12.627
MS.8           	12             	12.54
MS.9           	12             	12.574
MS.10          	12             	12.617
MS.11          	12             	12.629
MS.12          	12             	12.611
MS.13          	12             	12.584
MS.14          	12             	12.572
MS.15          	12             	12.556
MS.16          	12             	12.649
MS.17          	12             	12.673
MS.18          	12             	12.671
MS.19          	12             	12.675
MS.20          	12             	12.699
MS.21          	12             	12.685
MS.22          	12             	12.669
MS.23          	12             	12.679
MS.24          	11.927         	12.683
MS.25          	11.905         	12.701
MS.26          	11.88          	12.729
MS.27          	11.858         	12.723
MS.28          	11.832         	12.742
MS.29          	11.81          	12.762
MS.30          	11.785         	12.78
MS.31          	11.762         	12.776
MS.32          	11.74          	12.78
MS.33          	11.715         	12.758
MS.34          	11.693         	12.754
MS.35          	11.667         	12.748
MS.36          	11.645         	12.74
MS.37          	11.622         	12.723
MS.38          	11.6           	12.776
MS.39          	11.575         	12.792
MS.40          	11.552         	12.792
MS.41          	11.53          	12.81
MS.42          	11.507         	12.806
MS.43          	11.483         	12.822
MS.44          	11.46          	12.826
MS.45          	11.438         	12.818
MS.46          	11.415         	12.832
MS.47          	11.392         	12.828
MS.48          	11.37          	12.856
MS.49          	11.347         	12.862
MS.50          	11.325         	12.889
MS.51          	11.3           	12.877
MS.52          	11.278         	12.881
MS.53          	11.255         	12.879
MS.54          	11.233         	12.862
MS.55          	11.21          	12.872
MS.56          	11.188         	12.872
MS.57          	11.167         	12.858
MS.58          	11.145         	12.866
MS.59          	11.122         	12.881
MS.60          	11.1           	12.877
MS.61          	11.077         	12.87
MS.62          	11.055         	12.877
MS.63          	11.032         	12.877
MS.64          	11.01          	12.877
MS.65          	10.99          	12.868
MS.66          	10.967         	12.854
MS.67          	10.945         	12.856
MS.68          	10.922         	12.85
MS.69          	10.903         	13.543
MS.70          	10.88          	13.314
MS.71          	10.858         	12.899
MS.72          	10.837         	13.201
MS.73          	10.815         	13.656
MS.74          	10.792         	13.614
MS.75          	10.773         	13.581
MS.76          	10.75          	13.618
MS.77          	10.727         	12.959
MS.78          	10.707         	12.939
MS.79          	10.685         	12.941
MS.80          	10.665         	12.933
MS.81          	10.642         	12.907
MS.82          	10.622         	12.883
MS.83          	10.6           	12.903
MS.84          	10.58          	12.915
MS.85          	10.557         	12.917
MS.86          	10.537         	12.947
MS.87          	10.515         	12.866
MS.88          	10.495         	12.917
MS.89          	10.475         	12.911
MS.90          	10.452         	12.923
MS.91          	10.432         	12.921
MS.92          	10.412         	12.917
MS.93          	10.39          	12.921
MS.94          	10.37          	12.915
MS.95          	10.35          	12.921
MS.96          	10.327         	12.923
MS.97          	10.307         	12.941
MS.98          	10.287         	12.937
MS.99          	10.267         	12.937
MS.100         	10.245         	12.931
MS.101         	10.225         	12.921
MS.102         	10.205         	12.881
MS.103         	10.185         	12.864
MS.104         	10.165         	12.86
MS.105         	10.145         	12.889
MS.106         	10.125         	12.887
MS.107         	10.102         	12.917
MS.108         	10.082         	12.915
MS.109         	10.062         	12.911
MS.110         	10.042         	12.915
MS.111         	10.023         	12.933
MS.112         	10.002         	12.925
MS.113         	9.983          	12.919
MS.114         	9.962          	12.933
MS.115         	9.943          	12.923
MS.116         	9.922          	12.927
MS.117         	9.903          	12.921
MS.118         	9.885          	12.913
MS.119         	9.865          	12.889
MS.120         	9.845          	12.889
MS.121         	9.825          	12.879
MS.122         	9.805          	12.883
MS.123         	9.785          	12.911
MS.124         	9.765          	12.919
MS.125         	9.747          	12.921
MS.126         	9.727          	12.921
MS.127         	9.707          	12.939
MS.128         	9.688          	12.933
MS.129         	9.67           	12.931
MS.130         	9.65           	12.917
MS.131         	9.63           	12.915
MS.132         	9.61           	12.919
MS.133         	9.592          	12.909
MS.134         	9.573          	12.919
MS.135         	9.552          	12.909
MS.136         	9.535          	12.925
MS.137         	9.515          	12.915
MS.138         	9.497          	12.917
MS.139         	9.477          	12.921
MS.140         	9.457          	12.913
MS.141         	9.44           	12.927
MS.142         	9.42           	12.927
MS.143         	9.403          	12.901
MS.144         	9.382          	12.907
MS.145         	9.365          	12.905
MS.146         	9.345          	12.893
MS.147         	9.327          	12.895
MS.148         	9.307          	12.868
MS.149         	9.29           	12.87
MS.150         	9.27           	12.868
MS.151         	9.252          	12.862
MS.152         	9.235          	12.868
MS.153         	9.215          	12.868
MS.154         	9.198          	12.877
MS.155         	9.18           	12.887
MS.156         	9.16           	12.891
MS.157         	9.142          	12.903
MS.158         	9.125          	12.897
MS.159         	9.105          	12.893
MS.160         	9.087          	12.899
MS.161         	9.07           	12.897
MS.162         	9.052          	12.907
MS.163         	9.033          	12.915
MS.164         	9.015          	12.915
MS.165         	8.997          	12.923
MS.166         	8.98           	12.917
MS.167         	8.96           	12.913
MS.168         	8.943          	12.911
MS.169         	8.925          	12.907
MS.170         	8.908          	12.911
MS.171         	8.89           	12.917
MS.172         	8.872          	12.911
MS.173         	8.855          	12.917
MS.174         	8.837          	12.919
MS.175         	8.82           	12.919
MS.176         	8.802          	12.919
MS.177         	8.783          	12.921
MS.178         	8.765          	12.919
MS.179         	8.747          	12.931
MS.180         	8.73           	12.923
MS.181         	8.715          	12.911
MS.182         	8.698          	12.913
MS.183         	8.68           	12.913
MS.184         	8.662          	12.917
MS.185         	8.645          	12.913
MS.186         	8.627          	12.917
MS.187         	8.61           	12.915
MS.188         	8.592          	12.905
MS.189         	8.575          	12.907
MS.190         	8.557          	12.897
MS.191         	8.54           	12.895
MS.192         	8.525          	12.885
MS.193         	8.507          	12.881
MS.194         	8.49           	12.879
MS.195         	8.472          	12.866
MS.196         	8.455          	12.872
MS.197         	8.44           	12.887
MS.198         	8.422          	12.885
MS.199         	8.405          	12.889
MS.200         	8.39           	12.709
MS.201         	8.372          	12.887
MS.202         	8.355          	12.709
MS.203         	8.337          	12.703
MS.204         	8.323          	12.701
MS.205         	8.305          	12.889
MS.206         	8.29           	12.709
MS.207         	8.273          	12.889
MS.208         	8.255          	12.699
MS.209         	8.24           	12.885
MS.210         	8.222          	12.707
MS.211         	8.207          	12.721
MS.212         	8.19           	12.719
MS.213         	8.172          	12.725
MS.214         	8.158          	12.729
MS.215         	8.14           	12.729
MS.216         	8.125          	12.721
MS.217         	8.108          	12.725
MS.218         	8.092          	12.719
MS.219         	8.075          	12.715
MS.220         	8.06           	12.711
MS.221         	8.045          	12.717
MS.222         	8.028          	12.717
MS.223         	8.012          	12.711
MS.224         	7.995          	12.723
MS.225         	7.98           	12.729
MS.226         	7.965          	12.729
MS.227         	7.947          	12.715
MS.228         	7.932          	12.736
MS.229         	7.915          	12.693
MS.230         	7.9            	12.695
MS.231         	7.885          	12.699
MS.232         	7.87           	12.693
MS.233         	7.852          	12.707
MS.234         	7.837          	12.703
MS.235         	7.822          	12.715
MS.236         	7.805          	12.711
MS.237         	7.79           	12.693
MS.238         	7.775          	12.703
MS.239         	7.76           	12.705
MS.240         	7.745          	12.713
MS.241         	7.727          	12.697
MS.242         	7.712          	12.707
MS.243         	7.697          	12.687
MS.244         	7.682          	12.709
MS.245         	7.668          	12.717
MS.246         	7.652          	12.703
MS.247         	7.635          	12.699
MS.248         	7.62           	12.687
MS.249         	7.605          	12.675
MS.250         	7.59           	12.693
MS.251         	7.575          	12.701
MS.252         	7.56           	12.677
MS.253         	7.545          	12.697
MS.254         	7.53           	12.681
MS.255         	7.515          	12.677
MS.256         	7.5            	12.691
MS.257         	7.485          	12.657
MS.258         	7.47           	12.653
MS.259         	7.455          	12.663
MS.260         	7.44           	12.647
MS.261         	7.425          	12.661
MS.262         	7.41           	12.667
MS.263         	7.395          	12.647
MS.264         	7.38           	12.655
MS.265         	7.365          	12.661
MS.266         	7.352          	12.643
MS.267         	7.337          	12.653
MS.268         	7.322          	12.673
MS.269         	7.307          	12.629
MS.270         	7.293          	12.649
MS.271         	7.277          	12.639
MS.272         	7.265          	12.627
MS.273         	7.25           	12.645
MS.274         	7.235          	12.635
MS.275         	7.22           	12.639
MS.276         	7.205          	12.629
MS.277         	7.192          	12.653
MS.278         	7.177          	12.655
MS.279         	7.162          	12.653
MS.280         	7.148          	12.29
MS.281         	7.135          	12.256
MS.282         	7.12           	12.252
MS.283         	7.105          	12.603
MS.284         	7.092          	12.311
MS.285         	7.077          	12.309
MS.286         	7.062          	12.317
MS.287         	7.05           	12.29
MS.288         	7.035          	12.635
MS.289         	7.02           	12.29
MS.290         	7.007          	12.258
MS.291         	6.992          	12.244
MS.292         	6.98           	12.319
MS.293         	6.965          	12.208
MS.294         	6.95           	12.238
MS.295         	6.938          	12.244
MS.296         	6.922          	12.248
MS.297         	6.91           	11.99
MS.298         	6.895          	12.027
MS.299         	6.882          	12.367
MS.300         	6.867          	11.871
MS.301         	6.855          	12.095
MS.302         	6.84           	12.057
MS.303         	6.827          	12.047
MS.304         	6.812          	12.228
MS.305         	6.8            	12.035
MS.306         	6.787          	11.916
MS.307         	6.773          	12.159
MS.308         	6.76           	11.914
MS.309         	6.745          	11.861
MS.310         	6.733          	11.924
MS.311         	6.72           	11.92
MS.312         	6.705          	11.791
MS.313         	6.692          	11.394
MS.314         	6.677          	11.918
MS.315         	6.665          	11.505
MS.316         	6.652          	11.515
MS.317         	6.637          	11.696
MS.318         	6.625          	11.475
MS.319         	6.612          	11.531
MS.320         	6.6            	11.581
MS.321         	6.585          	10.705
MS.322         	6.572          	10.983
MS.323         	6.56           	11.078
MS.324         	6.547          	11.451
MS.325         	6.532          	10.764
MS.326         	6.52           	10.224
MS.327         	6.507          	10.518
MS.328         	6.495          	10.983
MS.329         	6.48           	10.302
MS.330         	6.467          	10.397
MS.331         	6.455          	10.315
MS.332         	6.442          	10.075
MS.333         	6.43           	10.282
MS.334         	6.418          	10.715
MS.335         	6.405          	10.304
MS.336         	6.39           	9.805
MS.337         	6.378          	9.751
MS.338         	6.365          	9.612
MS.339         	6.352          	10.061
MS.340         	6.34           	9.676
MS.341         	6.327          	9.539
MS.342         	6.315          	9.499
MS.343         	6.302          	9.606
MS.344         	6.29           	9.442
MS.345         	6.277          	9.549
MS.346         	6.265          	9.287
MS.347         	6.253          	9.263
MS.348         	6.24           	9.138
MS.349         	6.227          	9.364
MS.350         	6.215          	9.146
MS.351         	6.202          	8.939
MS.352         	6.19           	8.977
MS.353         	6.177          	8.699
MS.354         	6.165          	8.564
MS.355         	6.152          	8.808
MS.356         	6.14           	8.425
MS.357         	6.128          	8.119
MS.358         	6.115          	8.484
MS.359         	6.102          	8.087
MS.360         	6.092          	8.18
MS.361         	6.08           	8.103
MS.362         	6.067          	7.898
MS.363         	6.055          	8.014
MS.364         	6.043          	7.742
MS.365         	6.03           	7.422
MS.366         	6.02           	7.571
MS.367         	6.007          	7.605
MS.368         	5.995          	7.561
MS.369         	5.983          	7.209
MS.370         	5.97           	7.205
MS.371         	5.96           	7.489
MS.372         	5.947          	6.874
MS.373         	5.935          	6.528
MS.374         	5.922          	6.5
MS.375         	5.912          	6.067
MS.376         	5.9            	6.427
MS.377         	5.887          	6.359
MS.378         	5.875          	6.258
MS.379         	5.865          	5.94
MS.380         	5.852          	5.704
MS.381         	5.84           	5.247
MS.382         	5.83           	5.448
MS.383         	5.817          	5.269
MS.384         	5.805          	5.068
MS.385         	5.795          	5.005
MS.386         	5.782          	5.005
MS.387         	5.773          	4.496
MS.388         	5.76           	4.904
MS.389         	5.747          	4.689
MS.390         	5.737          	4.556
MS.391         	5.725          	4.24
MS.392         	5.715          	4.234
MS.393         	5.702          	3.928
MS.394         	5.69           	4.191
MS.395         	5.68           	4.022
MS.396         	5.668          	3.966
MS.397         	5.657          	3.545
MS.398         	5.645          	3.48
MS.399         	5.635          	3.764
MS.400         	5.622          	3.543
MS.401         	5.612          	3.96
MS.402         	5.6            	3.523
MS.403         	5.59           	3.515
MS.404         	5.577          	3.531
MS.405         	5.567          	3.225
MS.406         	5.555          	3.211
MS.407         	5.545          	2.957
MS.408         	5.535          	2.854
MS.409         	5.523          	2.782
MS.410         	5.512          	2.761
MS.411         	5.5            	2.612
MS.412         	5.49           	2.765
MS.413         	5.48           	2.334
MS.414         	5.467          	2.322
MS.415         	5.457          	2.475
MS.416         	5.445          	2.002
MS.417         	5.435          	2.256
MS.418         	5.425          	2.081
MS.419         	5.412          	2.016
MS.420         	5.402          	2.161
MS.421         	5.392          	1.891
MS.422         	5.38           	1.942
MS.423         	5.37           	2.199
MS.424         	5.36           	1.658
MS.425         	5.35           	1.823
MS.426         	5.338          	1.374
MS.427         	5.327          	1.49
MS.428         	5.318          	1.648
MS.429         	5.307          	1.386
MS.430         	5.295          	1.333
MS.431         	5.285          	1.259
MS.432         	5.275          	1.237
MS.433         	5.265          	0.945
MS.434         	5.253          	0.866
MS.435         	5.242          	1.078
MS.436         	5.233          	1.182
MS.437         	5.222          	0.691
MS.438         	5.213          	0.846
MS.439         	5.202          	0.538
MS.440         	5.19           	0.6
MS.441         	5.18           	0.564
MS.442         	5.17           	0.711
MS.443         	5.16           	0.483
MS.444         	5.15           	0.624
MS.445         	5.14           	0.435
MS.446         	5.13           	0.367
MS.447         	5.117          	0.56
MS.448         	5.108          	0.403
MS.449         	5.097          	0.216
MS.450         	5.088          	0.133
MS.451         	5.077          	0.147
MS.452         	5.068          	0.216
MS.453         	5.057          	0.133
MS.454         	5.047          	0.266
MS.455         	5.037          	0.111
MS.456         	5.027          	0.083
MS.457         	5.017          	0.111
MS.458         	5.007          	0.04
MS.459         	4.997          	0.175
MS.460         	4.987          	0.024
MS.461         	4.977          	0.02
MS.462         	4.967          	-0.014
MS.463         	4.957          	0.058
MS.464         	4.947          	-0.026
MS.465         	4.938          	-0.028
MS.466         	4.927          	0.008
MS.467         	4.918          	0.014
MS.468         	4.907          	-0.04
MS.469         	4.898          	-0.04
MS.470         	4.887          	-0.04
MS.471         	4.88           	-0.038
MS.472         	4.87           	-0.04
MS.473         	4.86           	-0.04
MS.474         	4.85           	-0.04
MS.475         	4.84           	-0.018
MS.476         	4.83           	-0.038
MS.477         	4.82           	-0.042
MS.478         	4.81           	-0.04
MS.479         	4.802          	-0.04
MS.480         	4.793          	-0.04
MS.481         	4.782          	-0.038
MS.482         	4.773          	-0.04
MS.483         	4.762          	-0.042
MS.484         	4.753          	-0.04
MS.485         	4.745          	-0.038
MS.486         	4.735          	-0.038
MS.487         	4.725          	-0.04
MS.488         	4.715          	-0.038
MS.489         	4.707          	-0.04
MS.490         	4.697          	-0.04
MS.491         	4.688          	-0.042
MS.492         	4.677          	-0.04
MS.493         	4.67           	-0.04
MS.494         	4.66           	-0.038
MS.495         	4.65           	-0.038
MS.496         	4.64           	-0.04
MS.497         	4.632          	-0.04
MS.498         	4.622          	-0.038
MS.499         	4.612          	-0.038
MS.500         	4.605          	-0.036
MS.501         	4.595          	-0.038
MS.502         	4.585          	-0.04
MS.503         	4.577          	-0.036
MS.504         	4.568          	-0.038
MS.505         	4.557          	-0.036
MS.506         	4.55           	-0.038
MS.507         	4.54           	-0.038
MS.508         	4.53           	-0.04
MS.509         	4.523          	-0.04
MS.510         	4.512          	-0.036
MS.511         	4.503          	-0.038
MS.512         	4.495          	-0.04
MS.513         	4.485          	-0.036
MS.514         	4.477          	-0.036
MS.515         	4.467          	-0.04
MS.516         	4.46           	-0.038
MS.517         	4.45           	-0.036
MS.518         	4.44           	-0.036
MS.519         	4.432          	-0.038
MS.520         	4.423          	-0.038
MS.521         	4.415          	-0.036
MS.522         	4.405          	-0.036
MS.523         	4.398          	-0.038
MS.524         	4.387          	-0.036
MS.525         	4.38           	-0.036
MS.526         	4.37           	-0.036
MS.527         	4.362          	-0.034
MS.528         	4.352          	-0.038
MS.529         	4.345          	-0.04
MS.530         	4.335          	-0.036
MS.531         	4.327          	-0.036
MS.532         	4.318          	-0.036
DERIVED EXCITABILITY VARIABLES
Program = QTracP 3/4/2020
Threshold method = 6 (optimised for CAP, using data for present condition only)
SR method = 1 (using actual data values)
6.                 	0.000               	Peak response\(mV)
9.                 	31.6                	Temperature ( C)
17.                	21                  	Age (years)
18.                	2                   	Sex (M=1, F=2)

EXTRA VARIABLES

MScPeak(mV) = 12.68
MScS5(mA) = 5.18
MScS50(mA) = 5.9
MScS95(mA) = 6.84
MScNSteps = 3
MScSteps(%) = 6.5
MScStepMax(%) = 2.5
MScD50 = 34
MScSlope = 7.94
MSFPeakAmp(mV) = 12.9
MSFNUnits = 180
MSFMeanUnitAmp(uV) = 71.8
MSFHuntTime(m) = 2.98
MSFError(%) = 4.5
MSFNLarge = 50.26
MSFMedianAmp(%) = 0.417
MSFMedianAmp(mV) = 0.054
MSFHalfAmpAmp(%) = 0.603
MSFHalfAmpAmp(mV) = 0.078
MSFLargestAmp(%) = 2.75
MSFLargestAmp(mV) = 0.356
MSFMeanRS(%) = 1.99
MSFOpts = 10106121
MScDuration(min) = 4.9
MSFTraces = 345
MSFSizeLimit(uV) = 32.3
MSFLimitType = 1
MSFSmallestAmp(uV) = 32.9

EXTRA WAVEFORMS


!MScan Model
!180
	1	4.96	0.52	2
	2	5.01	0.43	2
	3	5.06	0.77	2
	4	5.08	0.43	2
	5	5.09	0.29	2
	6	5.1	0.28	2
	7	5.11	0.31	2
	8	5.12	0.39	2
	9	5.14	0.45	2
	10	5.15	0.49	2
	11	5.17	0.47	2
	12	5.19	0.59	2
	13	5.2	0.4	2
	14	5.2	0.31	2
	15	5.21	0.31	2
	16	5.23	0.52	2
	17	5.24	0.42	2
	18	5.25	0.49	2
	19	5.26	0.71	2
	20	5.27	0.88	2
	21	5.29	0.7	2
	22	5.3	0.55	2
	23	5.31	0.43	2
	24	5.32	0.43	2
	25	5.33	0.77	2
	26	5.34	0.52	2
	27	5.35	0.51	2
	28	5.36	0.73	2
	29	5.38	0.77	2
	30	5.39	0.71	2
	31	5.41	0.52	2
	32	5.41	0.32	2
	33	5.42	0.32	2
	34	5.43	0.32	2
	35	5.43	0.32	2
	36	5.44	0.37	2
	37	5.45	0.38	2
	38	5.46	0.49	2
	39	5.47	0.65	2
	40	5.48	0.52	2
	41	5.49	0.37	2
	42	5.49	0.3	2
	43	5.5	0.3	2
	44	5.5	0.3	2
	45	5.51	0.3	2
	46	5.51	0.3	2
	47	5.51	0.29	2
	48	5.52	0.28	2
	49	5.52	0.28	2
	50	5.53	0.28	2
	51	5.53	0.28	2
	52	5.53	0.39	2
	53	5.55	0.53	2
	54	5.55	0.28	2
	55	5.55	0.28	2
	56	5.56	0.28	2
	57	5.56	0.28	2
	58	5.56	0.28	2
	59	5.57	0.62	2
	60	5.59	1.32	2
	61	5.61	0.85	2
	62	5.63	0.72	2
	63	5.64	0.56	2
	64	5.65	0.6	2
	65	5.67	0.69	2
	66	5.68	0.72	2
	67	5.69	0.33	2
	68	5.69	0.3	2
	69	5.7	0.3	2
	70	5.7	0.3	2
	71	5.71	0.41	2
	72	5.71	0.42	2
	73	5.72	0.39	2
	74	5.72	0.37	2
	75	5.73	0.37	2
	76	5.73	0.37	2
	77	5.74	0.33	2
	78	5.74	0.31	2
	79	5.75	0.31	2
	80	5.75	0.31	2
	81	5.76	0.31	2
	82	5.76	0.34	2
	83	5.77	0.38	2
	84	5.77	0.38	2
	85	5.78	0.36	2
	86	5.78	0.36	2
	87	5.78	0.36	2
	88	5.79	0.36	2
	89	5.79	0.36	2
	90	5.8	0.35	2
	91	5.8	0.34	2
	92	5.81	0.34	2
	93	5.81	0.34	2
	94	5.82	0.34	2
	95	5.82	0.42	2
	96	5.82	0.46	2
	97	5.83	0.46	2
	98	5.83	0.42	2
	99	5.84	0.4	2
	100	5.84	0.4	2
	101	5.85	0.4	2
	102	5.85	0.4	2
	103	5.86	0.51	2
	104	5.86	0.59	2
	105	5.87	0.59	2
	106	5.87	0.59	2
	107	5.89	0.63	2
	108	5.89	0.64	2
	109	5.9	0.64	2
	110	5.91	0.64	2
	111	5.91	0.67	2
	112	5.92	0.77	2
	113	5.93	0.77	2
	114	5.94	0.69	2
	115	5.94	0.63	2
	116	5.94	0.42	2
	117	5.95	0.58	2
	118	5.96	0.65	2
	119	5.97	0.65	2
	120	5.98	1.09	2
	121	6	1.32	2
	122	6.01	1.59	2
	123	6.03	0.77	2
	124	6.04	0.45	2
	125	6.04	0.36	2
	126	6.05	0.36	2
	127	6.06	0.34	2
	128	6.06	0.31	2
	129	6.07	0.39	2
	130	6.08	0.43	2
	131	6.09	0.43	2
	132	6.09	0.42	2
	133	6.1	0.36	2
	134	6.1	0.36	2
	135	6.11	0.36	2
	136	6.12	0.37	2
	137	6.12	0.39	2
	138	6.13	0.39	2
	139	6.13	0.38	2
	140	6.14	0.38	2
	141	6.15	0.38	2
	142	6.15	0.38	2
	143	6.16	0.37	2
	144	6.16	0.37	2
	145	6.17	0.37	2
	146	6.18	0.37	2
	147	6.19	0.54	2
	148	6.19	0.27	2
	149	6.2	0.3	2
	150	6.2	0.3	2
	151	6.21	0.3	2
	152	6.22	0.31	2
	153	6.22	0.46	2
	154	6.23	0.46	2
	155	6.24	0.45	2
	156	6.25	0.44	2
	157	6.26	0.38	2
	158	6.27	0.36	2
	159	6.28	0.41	2
	160	6.3	0.83	2
	161	6.32	0.64	2
	162	6.34	1.03	2
	163	6.37	1.31	2
	164	6.41	1.24	2
	165	6.46	2.68	2
	166	6.46	0.86	2
	167	6.49	1.3	2
	168	6.52	0.96	2
	169	6.54	1.41	2
	170	6.57	1.13	2
	171	6.59	0.88	2
	172	6.62	1.94	2
	173	6.65	1.14	2
	174	6.69	1.55	2
	175	6.84	1.41	2
	176	6.94	1.18	2
	177	7.12	2.75	1.78
	178	7.3	0.63	2
	179	7.92	0.25	2
	180	8.42	1.26	2

