File:              	C:\Qtrac\Data\Daniel M Sørensen\MScan multicentre study\Data from centres\Antalya\Processed data\TR.NC.ANT.6.2- NCC00930A.QZD
Name:              	TR.NC.ANT.6.2
Protocol:          	MSCAN-R2
Date:              	30/9/20
Start time:        	20:03:57
Age:               	27
Sex:               	m
Temperature:       	33.4
S/R sites:         	APB
NC/disease:        	NC
Operator:          	ab
Comments:
M-SCAN DATA (6.1-0.9m)
Scanpts: 130, 133, 542, 564
Stim. (mA)     	Amp. (mV)
MS.1           	21             	14.997
MS.2           	21             	15.074
MS.3           	21             	15.112
MS.4           	21             	15.082
MS.5           	21             	15.1
MS.6           	21             	15.1
MS.7           	21             	15.104
MS.8           	21             	15.102
MS.9           	21             	15.11
MS.10          	21             	15.134
MS.11          	21             	15.092
MS.12          	21             	15.104
MS.13          	21             	15.078
MS.14          	21             	15.084
MS.15          	21             	15.112
MS.16          	21             	15.06
MS.17          	21             	15.064
MS.18          	21             	15.066
MS.19          	21             	15.06
MS.20          	21             	15.044
MS.21          	21             	15.048
MS.22          	21             	15.04
MS.23          	21             	15.066
MS.24          	20.915         	15.038
MS.25          	20.875         	15.04
MS.26          	20.833         	15.02
MS.27          	20.79          	15.032
MS.28          	20.75          	15.072
MS.29          	20.708         	15.068
MS.30          	20.667         	15.078
MS.31          	20.625         	15.07
MS.32          	20.585         	15.066
MS.33          	20.542         	15.074
MS.34          	20.502         	15.06
MS.35          	20.46          	15.056
MS.36          	20.42          	15.068
MS.37          	20.38          	15.042
MS.38          	20.337         	15.038
MS.39          	20.297         	15.04
MS.40          	20.257         	15.034
MS.41          	20.217         	15.026
MS.42          	20.177         	15.026
MS.43          	20.135         	15.034
MS.44          	20.095         	14.997
MS.45          	20.055         	14.987
MS.46          	20.015         	14.925
MS.47          	19.975         	14.935
MS.48          	19.935         	14.931
MS.49          	19.895         	14.977
MS.50          	19.855         	14.991
MS.51          	19.817         	14.999
MS.52          	19.778         	15.012
MS.53          	19.737         	15.003
MS.54          	19.698         	15.008
MS.55          	19.657         	15.005
MS.56          	19.62          	15.02
MS.57          	19.58          	15.022
MS.58          	19.54          	15.016
MS.59          	19.502         	15.018
MS.60          	19.462         	15.012
MS.61          	19.425         	15.016
MS.62          	19.385         	15.026
MS.63          	19.347         	15.088
MS.64          	19.307         	15.116
MS.65          	19.27          	15.09
MS.66          	19.23          	15.082
MS.67          	19.192         	15.076
MS.68          	19.155         	15.046
MS.69          	19.115         	15.042
MS.70          	19.077         	15.052
MS.71          	19.04          	15.054
MS.72          	19.002         	15.036
MS.73          	18.962         	15.03
MS.74          	18.925         	15.05
MS.75          	18.887         	15.032
MS.76          	18.85          	15.026
MS.77          	18.812         	15.024
MS.78          	18.775         	15.042
MS.79          	18.737         	15.036
MS.80          	18.7           	15.032
MS.81          	18.663         	15.034
MS.82          	18.625         	15.03
MS.83          	18.587         	15.018
MS.84          	18.55          	14.965
MS.85          	18.515         	14.993
MS.86          	18.477         	14.993
MS.87          	18.44          	14.991
MS.88          	18.403         	14.983
MS.89          	18.368         	14.999
MS.90          	18.33          	14.995
MS.91          	18.292         	15.005
MS.92          	18.257         	14.993
MS.93          	18.22          	14.993
MS.94          	18.182         	14.989
MS.95          	18.147         	15.003
MS.96          	18.11          	14.993
MS.97          	18.075         	15.014
MS.98          	18.038         	15.038
MS.99          	18.003         	15.05
MS.100         	17.967         	15.02
MS.101         	17.93          	15.038
MS.102         	17.895         	15.036
MS.103         	17.86          	15.026
MS.104         	17.823         	15.012
MS.105         	17.788         	15.02
MS.106         	17.753         	15.054
MS.107         	17.717         	15.056
MS.108         	17.682         	15.032
MS.109         	17.645         	15.026
MS.110         	17.61          	15.046
MS.111         	17.575         	15.036
MS.112         	17.54          	15.03
MS.113         	17.505         	15.005
MS.114         	17.47          	15.008
MS.115         	17.435         	15.014
MS.116         	17.4           	15.018
MS.117         	17.365         	15.012
MS.118         	17.333         	14.997
MS.119         	17.297         	14.997
MS.120         	17.262         	14.993
MS.121         	17.227         	14.983
MS.122         	17.192         	14.989
MS.123         	17.16          	14.975
MS.124         	17.125         	14.993
MS.125         	17.09          	14.997
MS.126         	17.057         	15.008
MS.127         	17.022         	14.999
MS.128         	16.987         	15.005
MS.129         	16.955         	14.993
MS.130         	16.92          	14.995
MS.131         	16.887         	14.987
MS.132         	16.852         	14.989
MS.133         	16.82          	14.981
MS.134         	16.785         	15.01
MS.135         	16.753         	14.993
MS.136         	16.717         	14.997
MS.137         	16.685         	15.001
MS.138         	16.653         	14.999
MS.139         	16.618         	15.014
MS.140         	16.585         	15.001
MS.141         	16.552         	14.981
MS.142         	16.52          	14.963
MS.143         	16.485         	14.965
MS.144         	16.452         	14.969
MS.145         	16.42          	14.977
MS.146         	16.387         	14.981
MS.147         	16.355         	14.977
MS.148         	16.323         	14.975
MS.149         	16.29          	14.995
MS.150         	16.257         	15.01
MS.151         	16.225         	14.999
MS.152         	16.192         	14.989
MS.153         	16.16          	14.981
MS.154         	16.128         	14.975
MS.155         	16.095         	14.967
MS.156         	16.062         	14.979
MS.157         	16.03          	14.995
MS.158         	16             	14.987
MS.159         	15.967         	14.945
MS.160         	15.935         	14.991
MS.161         	15.902         	14.971
MS.162         	15.872         	14.991
MS.163         	15.84          	14.981
MS.164         	15.807         	15.005
MS.165         	15.777         	14.987
MS.166         	15.745         	15.028
MS.167         	15.712         	14.983
MS.168         	15.682         	14.977
MS.169         	15.65          	14.979
MS.170         	15.62          	14.953
MS.171         	15.587         	14.961
MS.172         	15.557         	14.951
MS.173         	15.525         	14.951
MS.174         	15.495         	14.931
MS.175         	15.465         	14.939
MS.176         	15.432         	14.927
MS.177         	15.402         	14.893
MS.178         	15.372         	14.901
MS.179         	15.34          	14.873
MS.180         	15.31          	14.867
MS.181         	15.28          	14.895
MS.182         	15.25          	14.895
MS.183         	15.217         	14.871
MS.184         	15.188         	14.907
MS.185         	15.157         	14.879
MS.186         	15.127         	14.887
MS.187         	15.097         	14.875
MS.188         	15.068         	14.85
MS.189         	15.037         	14.84
MS.190         	15.007         	14.836
MS.191         	14.977         	14.82
MS.192         	14.947         	14.836
MS.193         	14.917         	14.84
MS.194         	14.887         	14.84
MS.195         	14.858         	14.824
MS.196         	14.827         	14.822
MS.197         	14.797         	14.822
MS.198         	14.77          	14.816
MS.199         	14.74          	14.814
MS.200         	14.71          	14.812
MS.201         	14.68          	14.82
MS.202         	14.65          	14.836
MS.203         	14.622         	14.826
MS.204         	14.592         	14.806
MS.205         	14.562         	14.818
MS.206         	14.535         	14.782
MS.207         	14.505         	14.81
MS.208         	14.477         	14.784
MS.209         	14.447         	14.794
MS.210         	14.417         	14.79
MS.211         	14.39          	14.79
MS.212         	14.36          	14.782
MS.213         	14.332         	14.784
MS.214         	14.302         	14.83
MS.215         	14.275         	14.824
MS.216         	14.247         	14.774
MS.217         	14.217         	14.844
MS.218         	14.19          	14.824
MS.219         	14.162         	14.798
MS.220         	14.132         	14.798
MS.221         	14.105         	14.84
MS.222         	14.077         	14.788
MS.223         	14.047         	14.77
MS.224         	14.02          	14.822
MS.225         	13.992         	14.74
MS.226         	13.965         	14.766
MS.227         	13.938         	14.758
MS.228         	13.91          	14.734
MS.229         	13.88          	14.717
MS.230         	13.852         	14.695
MS.231         	13.825         	14.736
MS.232         	13.797         	14.713
MS.233         	13.77          	14.667
MS.234         	13.742         	14.705
MS.235         	13.715         	14.703
MS.236         	13.688         	14.709
MS.237         	13.66          	14.611
MS.238         	13.632         	14.667
MS.239         	13.605         	14.675
MS.240         	13.58          	14.683
MS.241         	13.552         	14.587
MS.242         	13.525         	14.607
MS.243         	13.497         	14.629
MS.244         	13.47          	14.583
MS.245         	13.445         	14.613
MS.246         	13.417         	14.613
MS.247         	13.39          	14.546
MS.248         	13.362         	14.528
MS.249         	13.337         	14.536
MS.250         	13.31          	14.355
MS.251         	13.282         	14.214
MS.252         	13.257         	14.486
MS.253         	13.23          	14.578
MS.254         	13.205         	14.359
MS.255         	13.177         	14.297
MS.256         	13.153         	14.415
MS.257         	13.125         	14.045
MS.258         	13.1           	14.2
MS.259         	13.072         	14.105
MS.260         	13.047         	14.131
MS.261         	13.02          	14.099
MS.262         	12.995         	14.061
MS.263         	12.967         	14.031
MS.264         	12.943         	14.226
MS.265         	12.917         	14.021
MS.266         	12.89          	13.966
MS.267         	12.865         	14.006
MS.268         	12.84          	13.89
MS.269         	12.812         	13.954
MS.270         	12.787         	13.835
MS.271         	12.762         	13.61
MS.272         	12.738         	13.668
MS.273         	12.712         	13.608
MS.274         	12.685         	13.787
MS.275         	12.66          	13.761
MS.276         	12.635         	13.743
MS.277         	12.61          	13.364
MS.278         	12.585         	13.539
MS.279         	12.56          	13.211
MS.280         	12.535         	13.239
MS.281         	12.51          	13.092
MS.282         	12.485         	13.036
MS.283         	12.46          	13.231
MS.284         	12.435         	13.261
MS.285         	12.41          	13.338
MS.286         	12.385         	13.003
MS.287         	12.36          	12.985
MS.288         	12.335         	13.034
MS.289         	12.312         	12.921
MS.290         	12.287         	12.842
MS.291         	12.262         	12.915
MS.292         	12.238         	12.415
MS.293         	12.212         	12.395
MS.294         	12.19          	12.522
MS.295         	12.165         	12.369
MS.296         	12.14          	12.272
MS.297         	12.115         	12.321
MS.298         	12.092         	12.389
MS.299         	12.068         	11.916
MS.300         	12.042         	11.92
MS.301         	12.02          	11.684
MS.302         	11.995         	11.71
MS.303         	11.972         	11.459
MS.304         	11.947         	11.394
MS.305         	11.922         	11.668
MS.306         	11.9           	11.434
MS.307         	11.875         	11.171
MS.308         	11.852         	11.108
MS.309         	11.827         	10.887
MS.310         	11.805         	10.913
MS.311         	11.782         	10.963
MS.312         	11.757         	11.114
MS.313         	11.735         	10.844
MS.314         	11.71          	10.238
MS.315         	11.688         	10.445
MS.316         	11.665         	10.27
MS.317         	11.64          	10.308
MS.318         	11.617         	10.141
MS.319         	11.595         	9.944
MS.320         	11.57          	9.704
MS.321         	11.547         	9.851
MS.322         	11.525         	9.775
MS.323         	11.502         	9.69
MS.324         	11.48          	10.101
MS.325         	11.455         	9.555
MS.326         	11.432         	9.144
MS.327         	11.41          	9.179
MS.328         	11.387         	9.4
MS.329         	11.365         	9.531
MS.330         	11.342         	9.181
MS.331         	11.32          	8.987
MS.332         	11.297         	9.05
MS.333         	11.275         	9.203
MS.334         	11.252         	8.633
MS.335         	11.23          	8.735
MS.336         	11.207         	8.848
MS.337         	11.185         	8.598
MS.338         	11.162         	8.52
MS.339         	11.14          	8.095
MS.340         	11.117         	7.803
MS.341         	11.095         	8.403
MS.342         	11.073         	7.668
MS.343         	11.05          	7.706
MS.344         	11.03          	7.71
MS.345         	11.007         	7.581
MS.346         	10.985         	7.73
MS.347         	10.962         	7.493
MS.348         	10.94          	7.708
MS.349         	10.92          	7.724
MS.350         	10.898         	6.983
MS.351         	10.875         	7.031
MS.352         	10.855         	6.882
MS.353         	10.832         	6.304
MS.354         	10.81          	6.369
MS.355         	10.79          	6.244
MS.356         	10.767         	6.615
MS.357         	10.745         	5.932
MS.358         	10.725         	6.153
MS.359         	10.702         	6.397
MS.360         	10.682         	6.445
MS.361         	10.66          	5.662
MS.362         	10.64          	5.313
MS.363         	10.617         	4.768
MS.364         	10.597         	5.323
MS.365         	10.575         	4.913
MS.366         	10.555         	5.225
MS.367         	10.532         	4.862
MS.368         	10.512         	4.218
MS.369         	10.49          	4.324
MS.370         	10.47          	4.391
MS.371         	10.45          	3.791
MS.372         	10.427         	4.002
MS.373         	10.407         	3.976
MS.374         	10.387         	4.21
MS.375         	10.365         	3.531
MS.376         	10.345         	3.555
MS.377         	10.325         	3.551
MS.378         	10.305         	3.754
MS.379         	10.282         	3.527
MS.380         	10.262         	3.422
MS.381         	10.242         	3.557
MS.382         	10.222         	3.152
MS.383         	10.202         	3.06
MS.384         	10.18          	3.192
MS.385         	10.16          	3.194
MS.386         	10.14          	2.439
MS.387         	10.12          	2.788
MS.388         	10.1           	3.136
MS.389         	10.08          	2.757
MS.390         	10.06          	2.332
MS.391         	10.04          	2.477
MS.392         	10.02          	2.314
MS.393         	10             	2.248
MS.394         	9.98           	2.224
MS.395         	9.96           	1.879
MS.396         	9.94           	1.919
MS.397         	9.92           	2.016
MS.398         	9.9            	1.851
MS.399         	9.88           	1.579
MS.400         	9.86           	1.885
MS.401         	9.84           	1.704
MS.402         	9.82           	1.488
MS.403         	9.802          	1.712
MS.404         	9.782          	1.412
MS.405         	9.762          	1.122
MS.406         	9.742          	1.182
MS.407         	9.722          	1.235
MS.408         	9.705          	1.063
MS.409         	9.685          	1.184
MS.410         	9.665          	1.098
MS.411         	9.645          	0.922
MS.412         	9.627          	0.918
MS.413         	9.608          	0.884
MS.414         	9.587          	0.981
MS.415         	9.57           	0.88
MS.416         	9.55           	0.83
MS.417         	9.53           	0.874
MS.418         	9.512          	0.765
MS.419         	9.492          	0.794
MS.420         	9.472          	0.699
MS.421         	9.455          	0.681
MS.422         	9.435          	0.687
MS.423         	9.417          	0.626
MS.424         	9.398          	0.697
MS.425         	9.38           	0.649
MS.426         	9.36           	0.763
MS.427         	9.342          	0.634
MS.428         	9.323          	0.588
MS.429         	9.305          	0.616
MS.430         	9.285          	0.564
MS.431         	9.267          	0.582
MS.432         	9.25           	0.574
MS.433         	9.23           	0.514
MS.434         	9.212          	0.592
MS.435         	9.193          	0.493
MS.436         	9.175          	0.546
MS.437         	9.158          	0.489
MS.438         	9.137          	0.471
MS.439         	9.12           	0.359
MS.440         	9.102          	0.467
MS.441         	9.085          	0.352
MS.442         	9.065          	0.35
MS.443         	9.047          	0.284
MS.444         	9.03           	0.35
MS.445         	9.012          	0.338
MS.446         	8.992          	0.29
MS.447         	8.975          	0.344
MS.448         	8.957          	0.264
MS.449         	8.94           	0.292
MS.450         	8.922          	0.276
MS.451         	8.905          	0.268
MS.452         	8.887          	0.216
MS.453         	8.867          	0.284
MS.454         	8.85           	0.214
MS.455         	8.832          	0.205
MS.456         	8.815          	0.266
MS.457         	8.797          	0.214
MS.458         	8.78           	0.236
MS.459         	8.762          	0.209
MS.460         	8.745          	0.209
MS.461         	8.727          	0.195
MS.462         	8.71           	0.209
MS.463         	8.693          	0.272
MS.464         	8.675          	0.197
MS.465         	8.658          	0.193
MS.466         	8.64           	0.197
MS.467         	8.622          	0.209
MS.468         	8.608          	0.191
MS.469         	8.59           	0.185
MS.470         	8.573          	0.191
MS.471         	8.555          	0.197
MS.472         	8.537          	0.209
MS.473         	8.52           	0.211
MS.474         	8.505          	0.151
MS.475         	8.488          	0.209
MS.476         	8.47           	0.199
MS.477         	8.452          	0.195
MS.478         	8.435          	0.193
MS.479         	8.42           	0.151
MS.480         	8.403          	0.195
MS.481         	8.385          	0.195
MS.482         	8.37           	0.197
MS.483         	8.352          	0.193
MS.484         	8.335          	0.125
MS.485         	8.32           	0.083
MS.486         	8.302          	0.119
MS.487         	8.285          	0.149
MS.488         	8.27           	0.151
MS.489         	8.252          	0.197
MS.490         	8.235          	0.127
MS.491         	8.22           	0.079
MS.492         	8.202          	0.197
MS.493         	8.188          	0.121
MS.494         	8.17           	0.199
MS.495         	8.155          	0.081
MS.496         	8.137          	0.075
MS.497         	8.122          	0.089
MS.498         	8.105          	0.153
MS.499         	8.09           	0.068
MS.500         	8.073          	0.149
MS.501         	8.057          	0.153
MS.502         	8.04           	0.195
MS.503         	8.025          	0.079
MS.504         	8.007          	0.121
MS.505         	7.992          	0.083
MS.506         	7.977          	0.075
MS.507         	7.96           	0.079
MS.508         	7.945          	0.085
MS.509         	7.93           	0.153
MS.510         	7.912          	0.195
MS.511         	7.898          	0.079
MS.512         	7.882          	0.079
MS.513         	7.865          	0.081
MS.514         	7.85           	0.079
MS.515         	7.835          	0.083
MS.516         	7.817          	0.083
MS.517         	7.802          	0.079
MS.518         	7.787          	0.081
MS.519         	7.773          	0.083
MS.520         	7.757          	0.079
MS.521         	7.74           	0.081
MS.522         	7.725          	0.073
MS.523         	7.71           	0.081
MS.524         	7.695          	0.083
MS.525         	7.68           	0.079
MS.526         	7.665          	0.073
MS.527         	7.648          	0.083
MS.528         	7.632          	0.077
MS.529         	7.617          	0.077
MS.530         	7.602          	0.077
MS.531         	7.587          	0.081
MS.532         	7.572          	0.081
MS.533         	7.557          	0.081
MS.534         	7.543          	0.081
MS.535         	7.527          	0.083
MS.536         	7.512          	0.079
MS.537         	7.497          	0.081
MS.538         	7.482          	0.081
MS.539         	7.467          	0.081
MS.540         	7.452          	0.085
MS.541         	7.438          	0.085
MS.542         	7.422          	0.081
MS.543         	7.407          	0.06
MS.544         	7.392          	0.079
MS.545         	7.378          	0.083
MS.546         	7.362          	0.081
MS.547         	7.347          	0.077
MS.548         	7.335          	0.058
MS.549         	7.32           	0.081
MS.550         	7.305          	0.056
MS.551         	7.29           	0.06
MS.552         	7.275          	0.083
MS.553         	7.26           	0.089
MS.554         	7.247          	0.06
MS.555         	7.233          	0.079
MS.556         	7.217          	0.083
MS.557         	7.202          	0.058
MS.558         	7.19           	0.06
MS.559         	7.175          	0.062
MS.560         	7.16           	0.085
MS.561         	7.145          	0.062
MS.562         	7.132          	0.062
MS.563         	7.117          	0.062
MS.564         	7.102          	0.062
DERIVED EXCITABILITY VARIABLES
Program = QTracP 3/4/2020
Threshold method = 6 (optimised for CAP, using data for present condition only)
SR method = 1 (using actual data values)
6.                 	0.000               	Peak response\(mV)
9.                 	33.4                	Temperature ( C)
17.                	27                  	Age (years)
18.                	1                   	Sex (M=1, F=2)

EXTRA VARIABLES

MScPeak(mV) = 15.01
MScS5(mA) = 9.4
MScS50(mA) = 10.95
MScS95(mA) = 13.24
MScNSteps = 6
MScSteps(%) = 14.8
MScStepMax(%) = 3.1
MScD50 = 31
MScSlope = 7.04
MSFPeakAmp(mV) = 14.9
MSFNUnits = 153
MSFMeanUnitAmp(uV) = 97.5
MSFHuntTime(m) = 2.79
MSFError(%) = 3.19
MSFNLarge = 43.7
MSFMedianAmp(%) = 0.523
MSFMedianAmp(mV) = 0.078
MSFHalfAmpAmp(%) = 0.697
MSFHalfAmpAmp(mV) = 0.104
MSFLargestAmp(%) = 2.7
MSFLargestAmp(mV) = 0.402
MSFMeanRS(%) = 1.99
MSFOpts = 10106121
MScDuration(min) = 5.2
MSFTraces = 435
MSFSizeLimit(uV) = 37.3
MSFLimitType = 1
MSFSmallestAmp(uV) = 37.4

EXTRA WAVEFORMS


!MScan Model
!153
	1	8.16	0.34	2
	2	8.59	0.63	2
	3	8.97	0.58	2
	4	9.05	0.33	2
	5	9.08	0.25	2
	6	9.12	0.41	2
	7	9.21	0.52	2
	8	9.28	0.42	2
	9	9.32	0.26	2
	10	9.43	0.48	2
	11	9.48	0.41	2
	12	9.51	0.26	2
	13	9.56	0.52	2
	14	9.6	0.46	2
	15	9.63	0.32	2
	16	9.67	0.39	2
	17	9.69	0.38	2
	18	9.71	0.46	2
	19	9.74	0.59	2
	20	9.76	0.52	2
	21	9.78	0.53	2
	22	9.8	0.54	2
	23	9.83	0.54	2
	24	9.85	0.53	2
	25	9.87	0.56	2
	26	9.89	0.39	2
	27	9.9	0.34	2
	28	9.92	0.37	2
	29	9.93	0.37	2
	30	9.94	0.37	2
	31	9.96	0.38	2
	32	9.98	0.64	2
	33	10.01	0.7	2
	34	10.03	0.75	2
	35	10.06	0.81	2
	36	10.08	0.85	2
	37	10.11	1.08	2
	38	10.15	0.98	2
	39	10.18	1.04	2
	40	10.22	1.08	2
	41	10.25	1.01	2
	42	10.29	0.83	2
	43	10.33	0.83	2
	44	10.36	0.86	2
	45	10.38	0.48	2
	46	10.4	0.44	2
	47	10.42	0.57	2
	48	10.43	0.67	2
	49	10.45	0.62	2
	50	10.47	0.78	2
	51	10.49	0.78	2
	52	10.51	0.96	2
	53	10.53	1.05	2
	54	10.55	0.93	2
	55	10.57	1.28	2
	56	10.61	2.12	2
	57	10.65	1.26	2
	58	10.68	1.51	2
	59	10.74	2.7	2
	60	10.8	2.54	2
	61	10.81	0.58	2
	62	10.83	0.58	2
	63	10.85	0.46	2
	64	10.87	0.51	2
	65	10.89	0.72	2
	66	10.9	0.84	2
	67	10.93	1.36	2.1
	68	11.01	2.53	1.6
	69	11.03	0.39	2
	70	11.05	0.4	2
	71	11.07	0.57	2
	72	11.09	0.59	2
	73	11.11	0.68	1.6
	74	11.13	0.71	2
	75	11.15	0.63	2
	76	11.16	0.54	2
	77	11.18	0.47	2
	78	11.19	0.48	2
	79	11.21	0.49	2
	80	11.22	0.56	2
	81	11.25	1.08	2
	82	11.29	1.24	2
	83	11.34	0.94	2
	84	11.39	1.33	2
	85	11.46	1.45	2
	86	11.51	1.19	2
	87	11.57	1.49	2
	88	11.6	0.64	2
	89	11.62	0.33	2
	90	11.64	0.5	2
	91	11.65	0.47	2
	92	11.67	0.47	2
	93	11.68	0.53	2
	94	11.71	0.71	2
	95	11.73	0.78	2
	96	11.75	0.76	2
	97	11.78	0.69	2
	98	11.8	0.66	2
	99	11.82	0.66	2
	100	11.84	0.41	2
	101	11.85	0.35	2
	102	11.86	0.27	2
	103	11.87	0.25	2
	104	11.9	0.46	2
	105	11.91	0.33	2
	106	11.92	0.33	2
	107	11.94	0.33	2
	108	11.95	0.33	2
	109	11.96	0.33	2
	110	11.98	0.36	2
	111	11.99	0.44	2
	112	12	0.42	2
	113	12.01	0.4	2
	114	12.03	0.38	2
	115	12.04	0.35	2
	116	12.05	0.35	2
	117	12.06	0.35	2
	118	12.08	0.46	2
	119	12.1	0.51	2
	120	12.12	0.5	2
	121	12.14	0.46	2
	122	12.15	0.43	2
	123	12.17	0.42	2
	124	12.19	0.4	2
	125	12.21	0.4	2
	126	12.22	0.35	2
	127	12.24	0.34	2
	128	12.26	0.36	2
	129	12.28	0.4	2
	130	12.29	0.41	2
	131	12.31	0.41	2
	132	12.43	1.61	2
	133	12.5	1.06	2
	134	12.57	1.05	2
	135	12.62	0.55	2
	136	12.67	0.6	2
	137	12.72	0.69	2
	138	12.77	0.69	2
	139	12.81	0.56	2
	140	12.88	0.6	2
	141	12.92	0.46	2
	142	12.95	0.49	2
	143	13.05	0.75	2
	144	13.16	0.72	2
	145	13.28	1.16	2
	146	13.36	0.5	2
	147	13.59	0.57	2
	148	13.91	0.5	2
	149	14.03	0.27	2
	150	14.77	0.27	2
	151	15.14	0.32	2
	152	15.42	0.28	2
	153	15.6	0.34	2

