File:              	C:\Qtrac\Data\Daniel M Sørensen\MScan multicentre study\Data from centres\Antalya\Processed data\TR.NC.ANT.10.1- NCC01204B.QZD
Name:              	TR.NC.ANT.10.1
Protocol:          	MSCAN-R2
Date:              	4/12/20
Start time:        	13:39:01
Age:               	52
Sex:               	m
Temperature:       	32.6
S/R sites:         	ADM
NC/disease:        	NC
Operator:          	ab
Comments:
M-SCAN DATA (8-0.7m)
Scanpts: 46, 50, 714, 725
Stim. (mA)     	Amp. (mV)
MS.1           	27             	7.13
MS.2           	27             	7.148
MS.3           	27             	7.195
MS.4           	27             	7.166
MS.5           	27             	7.193
MS.6           	27             	7.227
MS.7           	27             	7.271
MS.8           	27             	7.279
MS.9           	27             	7.253
MS.10          	27             	7.283
MS.11          	27             	7.267
MS.12          	27             	7.279
MS.13          	27             	7.281
MS.14          	27             	7.315
MS.15          	27             	7.34
MS.16          	27             	7.326
MS.17          	27             	7.307
MS.18          	27             	7.301
MS.19          	27             	7.321
MS.20          	27             	7.34
MS.21          	27             	7.342
MS.22          	27             	7.366
MS.23          	27             	7.376
MS.24          	26.892         	7.376
MS.25          	26.837         	7.4
MS.26          	26.785         	7.382
MS.27          	26.73          	7.38
MS.28          	26.677         	7.388
MS.29          	26.625         	7.4
MS.30          	26.573         	7.418
MS.31          	26.517         	7.412
MS.32          	26.465         	7.424
MS.33          	26.412         	7.404
MS.34          	26.36          	7.442
MS.35          	26.307         	7.442
MS.36          	26.255         	7.438
MS.37          	26.202         	7.43
MS.38          	26.15          	7.477
MS.39          	26.097         	7.473
MS.40          	26.045         	7.432
MS.41          	25.993         	7.428
MS.42          	25.94          	7.464
MS.43          	25.89          	7.497
MS.44          	25.837         	7.491
MS.45          	25.785         	7.507
MS.46          	25.735         	7.487
MS.47          	25.682         	7.487
MS.48          	25.632         	7.495
MS.49          	25.58          	7.464
MS.50          	25.53          	7.501
MS.51          	25.477         	7.473
MS.52          	25.427         	7.448
MS.53          	25.377         	7.493
MS.54          	25.325         	7.495
MS.55          	25.275         	7.454
MS.56          	25.225         	7.448
MS.57          	25.175         	7.442
MS.58          	25.125         	7.469
MS.59          	25.075         	7.458
MS.60          	25.025         	7.416
MS.61          	24.975         	7.446
MS.62          	24.925         	7.438
MS.63          	24.875         	7.446
MS.64          	24.825         	7.406
MS.65          	24.775         	7.444
MS.66          	24.725         	7.374
MS.67          	24.675         	7.362
MS.68          	24.627         	7.42
MS.69          	24.577         	7.376
MS.70          	24.528         	7.362
MS.71          	24.48          	7.35
MS.72          	24.43          	7.328
MS.73          	24.382         	7.305
MS.74          	24.332         	7.317
MS.75          	24.285         	7.301
MS.76          	24.235         	7.301
MS.77          	24.188         	7.247
MS.78          	24.14          	7.289
MS.79          	24.09          	7.299
MS.80          	24.042         	7.287
MS.81          	23.995         	7.267
MS.82          	23.948         	7.263
MS.83          	23.9           	7.269
MS.84          	23.85          	7.289
MS.85          	23.802         	7.267
MS.86          	23.755         	7.249
MS.87          	23.707         	7.281
MS.88          	23.66          	7.257
MS.89          	23.615         	7.293
MS.90          	23.567         	7.247
MS.91          	23.52          	7.334
MS.92          	23.472         	7.334
MS.93          	23.425         	7.344
MS.94          	23.38          	7.378
MS.95          	23.332         	7.378
MS.96          	23.285         	7.348
MS.97          	23.24          	7.307
MS.98          	23.192         	7.283
MS.99          	23.145         	7.328
MS.100         	23.1           	7.328
MS.101         	23.055         	7.328
MS.102         	23.007         	7.295
MS.103         	22.962         	7.215
MS.104         	22.915         	7.265
MS.105         	22.87          	7.273
MS.106         	22.825         	7.283
MS.107         	22.78          	7.217
MS.108         	22.733         	7.301
MS.109         	22.688         	7.263
MS.110         	22.642         	7.283
MS.111         	22.597         	7.245
MS.112         	22.552         	7.237
MS.113         	22.507         	7.209
MS.114         	22.462         	7.201
MS.115         	22.417         	7.106
MS.116         	22.372         	7.231
MS.117         	22.327         	7.191
MS.118         	22.282         	7.094
MS.119         	22.237         	7.199
MS.120         	22.195         	7.162
MS.121         	22.15          	7.126
MS.122         	22.105         	7.156
MS.123         	22.062         	7.191
MS.124         	22.017         	7.066
MS.125         	21.972         	7.112
MS.126         	21.93          	7.12
MS.127         	21.885         	7.09
MS.128         	21.842         	7.017
MS.129         	21.797         	7.048
MS.130         	21.755         	7.007
MS.131         	21.712         	6.955
MS.132         	21.667         	7.021
MS.133         	21.625         	6.953
MS.134         	21.583         	7.003
MS.135         	21.538         	6.888
MS.136         	21.495         	6.965
MS.137         	21.452         	6.957
MS.138         	21.41          	6.941
MS.139         	21.368         	6.917
MS.140         	21.325         	6.903
MS.141         	21.282         	6.866
MS.142         	21.24          	6.894
MS.143         	21.198         	6.886
MS.144         	21.155         	6.921
MS.145         	21.112         	6.818
MS.146         	21.07          	6.762
MS.147         	21.028         	6.729
MS.148         	20.985         	6.691
MS.149         	20.942         	6.796
MS.150         	20.903         	6.808
MS.151         	20.86          	6.83
MS.152         	20.817         	6.88
MS.153         	20.778         	6.82
MS.154         	20.735         	6.721
MS.155         	20.695         	6.802
MS.156         	20.653         	6.818
MS.157         	20.61          	6.804
MS.158         	20.57          	6.836
MS.159         	20.53          	6.844
MS.160         	20.487         	6.772
MS.161         	20.448         	6.896
MS.162         	20.405         	6.911
MS.163         	20.365         	6.858
MS.164         	20.325         	6.836
MS.165         	20.285         	6.923
MS.166         	20.243         	6.941
MS.167         	20.202         	6.858
MS.168         	20.163         	6.917
MS.169         	20.122         	6.905
MS.170         	20.083         	6.945
MS.171         	20.042         	6.951
MS.172         	20.002         	6.983
MS.173         	19.962         	6.901
MS.174         	19.922         	6.882
MS.175         	19.882         	6.921
MS.176         	19.842         	6.884
MS.177         	19.802         	6.86
MS.178         	19.762         	6.909
MS.179         	19.725         	6.955
MS.180         	19.685         	6.886
MS.181         	19.645         	6.884
MS.182         	19.605         	6.892
MS.183         	19.567         	6.83
MS.184         	19.528         	6.84
MS.185         	19.487         	6.866
MS.186         	19.45          	6.923
MS.187         	19.41          	6.905
MS.188         	19.372         	6.945
MS.189         	19.333         	6.947
MS.190         	19.295         	6.939
MS.191         	19.255         	6.923
MS.192         	19.217         	6.971
MS.193         	19.18          	6.977
MS.194         	19.14          	6.993
MS.195         	19.102         	6.993
MS.196         	19.065         	6.963
MS.197         	19.028         	6.997
MS.198         	18.987         	6.951
MS.199         	18.95          	6.935
MS.200         	18.913         	6.993
MS.201         	18.875         	6.935
MS.202         	18.837         	7.005
MS.203         	18.8           	7.054
MS.204         	18.762         	7.023
MS.205         	18.725         	6.927
MS.206         	18.688         	6.919
MS.207         	18.65          	6.949
MS.208         	18.612         	6.955
MS.209         	18.575         	7.013
MS.210         	18.538         	6.995
MS.211         	18.5           	6.898
MS.212         	18.465         	6.858
MS.213         	18.427         	6.945
MS.214         	18.39          	6.945
MS.215         	18.352         	6.951
MS.216         	18.317         	6.977
MS.217         	18.28          	6.983
MS.218         	18.245         	6.983
MS.219         	18.208         	7.005
MS.220         	18.17          	6.921
MS.221         	18.135         	6.965
MS.222         	18.097         	6.862
MS.223         	18.062         	6.943
MS.224         	18.028         	6.876
MS.225         	17.99          	6.816
MS.226         	17.955         	6.822
MS.227         	17.917         	6.715
MS.228         	17.882         	6.679
MS.229         	17.847         	6.707
MS.230         	17.812         	6.933
MS.231         	17.775         	6.909
MS.232         	17.74          	6.788
MS.233         	17.705         	6.59
MS.234         	17.67          	6.804
MS.235         	17.635         	6.87
MS.236         	17.6           	6.711
MS.237         	17.562         	6.608
MS.238         	17.528         	6.671
MS.239         	17.493         	6.701
MS.240         	17.458         	6.631
MS.241         	17.422         	6.681
MS.242         	17.39          	6.606
MS.243         	17.355         	6.393
MS.244         	17.32          	6.606
MS.245         	17.285         	6.776
MS.246         	17.25          	6.681
MS.247         	17.215         	6.379
MS.248         	17.182         	6.455
MS.249         	17.147         	6.55
MS.250         	17.112         	6.502
MS.251         	17.077         	6.129
MS.252         	17.045         	6.316
MS.253         	17.01          	6.042
MS.254         	16.977         	6.103
MS.255         	16.942         	6.296
MS.256         	16.91          	6.071
MS.257         	16.875         	6.018
MS.258         	16.842         	6.137
MS.259         	16.807         	6.002
MS.260         	16.775         	5.859
MS.261         	16.74          	5.883
MS.262         	16.708         	5.797
MS.263         	16.672         	6.115
MS.264         	16.64          	5.823
MS.265         	16.608         	5.946
MS.266         	16.575         	5.732
MS.267         	16.54          	5.732
MS.268         	16.507         	5.706
MS.269         	16.475         	5.501
MS.270         	16.442         	5.325
MS.271         	16.41          	5.487
MS.272         	16.378         	5.372
MS.273         	16.342         	5.247
MS.274         	16.31          	4.965
MS.275         	16.278         	5.054
MS.276         	16.245         	5.235
MS.277         	16.212         	5.241
MS.278         	16.18          	5.481
MS.279         	16.147         	5.555
MS.280         	16.118         	5.124
MS.281         	16.085         	5.428
MS.282         	16.052         	5.126
MS.283         	16.02          	5.303
MS.284         	15.987         	5.392
MS.285         	15.955         	5.293
MS.286         	15.925         	5.108
MS.287         	15.892         	4.931
MS.288         	15.86          	4.904
MS.289         	15.83          	4.904
MS.290         	15.797         	5.029
MS.291         	15.765         	4.925
MS.292         	15.735         	4.911
MS.293         	15.702         	4.649
MS.294         	15.672         	5.011
MS.295         	15.64          	4.733
MS.296         	15.61          	4.693
MS.297         	15.577         	5.176
MS.298         	15.547         	4.945
MS.299         	15.515         	4.721
MS.300         	15.485         	5.009
MS.301         	15.452         	4.661
MS.302         	15.422         	4.806
MS.303         	15.392         	4.635
MS.304         	15.36          	4.659
MS.305         	15.33          	4.643
MS.306         	15.3           	4.639
MS.307         	15.27          	5.007
MS.308         	15.237         	4.546
MS.309         	15.207         	4.639
MS.310         	15.177         	4.54
MS.311         	15.148         	4.425
MS.312         	15.117         	4.479
MS.313         	15.087         	4.365
MS.314         	15.057         	4.286
MS.315         	15.027         	4.379
MS.316         	14.997         	4.314
MS.317         	14.967         	4.451
MS.318         	14.938         	4.371
MS.319         	14.907         	4.288
MS.320         	14.877         	4.365
MS.321         	14.847         	4.302
MS.322         	14.818         	4.391
MS.323         	14.787         	4.49
MS.324         	14.757         	4.312
MS.325         	14.73          	4.425
MS.326         	14.7           	4.353
MS.327         	14.67          	4.328
MS.328         	14.64          	4.445
MS.329         	14.612         	4.332
MS.330         	14.582         	4.433
MS.331         	14.552         	4.361
MS.332         	14.525         	4.306
MS.333         	14.495         	4.371
MS.334         	14.467         	4.286
MS.335         	14.438         	4.218
MS.336         	14.407         	4.244
MS.337         	14.38          	4.433
MS.338         	14.35          	4.385
MS.339         	14.322         	4.324
MS.340         	14.295         	4.189
MS.341         	14.265         	4.248
MS.342         	14.237         	4.286
MS.343         	14.207         	4.31
MS.344         	14.18          	4.185
MS.345         	14.153         	4.274
MS.346         	14.122         	4.185
MS.347         	14.095         	4.218
MS.348         	14.068         	4.26
MS.349         	14.04          	4.131
MS.350         	14.01          	4.212
MS.351         	13.983         	4.284
MS.352         	13.955         	4.214
MS.353         	13.927         	4.119
MS.354         	13.9           	4.226
MS.355         	13.872         	4.208
MS.356         	13.842         	4.232
MS.357         	13.815         	4.236
MS.358         	13.787         	4.21
MS.359         	13.76          	4.218
MS.360         	13.733         	4.214
MS.361         	13.705         	4.157
MS.362         	13.677         	4.21
MS.363         	13.653         	4.153
MS.364         	13.625         	4.161
MS.365         	13.597         	4.187
MS.366         	13.57          	4.119
MS.367         	13.542         	4.149
MS.368         	13.515         	4.099
MS.369         	13.487         	4.169
MS.370         	13.462         	4.125
MS.371         	13.435         	4.139
MS.372         	13.407         	4.121
MS.373         	13.38          	4.105
MS.374         	13.355         	4.085
MS.375         	13.327         	4.095
MS.376         	13.3           	4.133
MS.377         	13.275         	4.057
MS.378         	13.247         	4.067
MS.379         	13.222         	4.006
MS.380         	13.195         	4.091
MS.381         	13.167         	4.018
MS.382         	13.142         	3.996
MS.383         	13.115         	3.954
MS.384         	13.09          	3.914
MS.385         	13.062         	4.01
MS.386         	13.037         	4.026
MS.387         	13.012         	3.934
MS.388         	12.985         	3.946
MS.389         	12.96          	3.861
MS.390         	12.932         	3.926
MS.391         	12.907         	4.016
MS.392         	12.882         	3.746
MS.393         	12.858         	3.589
MS.394         	12.83          	3.905
MS.395         	12.805         	3.805
MS.396         	12.78          	3.789
MS.397         	12.755         	3.664
MS.398         	12.727         	3.805
MS.399         	12.702         	3.773
MS.400         	12.677         	3.958
MS.401         	12.653         	3.67
MS.402         	12.627         	3.664
MS.403         	12.602         	3.895
MS.404         	12.577         	3.706
MS.405         	12.552         	3.64
MS.406         	12.528         	3.762
MS.407         	12.502         	3.533
MS.408         	12.477         	3.563
MS.409         	12.452         	3.545
MS.410         	12.427         	3.515
MS.411         	12.403         	3.597
MS.412         	12.377         	3.805
MS.413         	12.352         	3.579
MS.414         	12.327         	3.547
MS.415         	12.302         	3.543
MS.416         	12.278         	3.674
MS.417         	12.255         	3.64
MS.418         	12.23          	3.482
MS.419         	12.205         	3.329
MS.420         	12.18          	3.378
MS.421         	12.155         	3.505
MS.422         	12.132         	3.35
MS.423         	12.108         	3.406
MS.424         	12.082         	3.344
MS.425         	12.06          	3.366
MS.426         	12.035         	3.595
MS.427         	12.01          	3.257
MS.428         	11.988         	3.215
MS.429         	11.962         	3.337
MS.430         	11.94          	3.247
MS.431         	11.915         	3.406
MS.432         	11.892         	3.337
MS.433         	11.867         	3.325
MS.434         	11.845         	3.291
MS.435         	11.82          	3.243
MS.436         	11.797         	3.315
MS.437         	11.773         	3.253
MS.438         	11.75          	3.219
MS.439         	11.727         	3.148
MS.440         	11.702         	3.209
MS.441         	11.68          	3.225
MS.442         	11.655         	3.086
MS.443         	11.632         	3.106
MS.444         	11.61          	3.076
MS.445         	11.587         	3.076
MS.446         	11.562         	3.025
MS.447         	11.54          	2.987
MS.448         	11.517         	2.882
MS.449         	11.495         	2.923
MS.450         	11.47          	3.031
MS.451         	11.447         	3.027
MS.452         	11.425         	2.749
MS.453         	11.403         	2.804
MS.454         	11.38          	2.796
MS.455         	11.358         	2.921
MS.456         	11.335         	2.862
MS.457         	11.312         	2.941
MS.458         	11.29          	2.862
MS.459         	11.267         	2.778
MS.460         	11.245         	2.751
MS.461         	11.222         	2.576
MS.462         	11.2           	2.715
MS.463         	11.177         	2.485
MS.464         	11.155         	2.399
MS.465         	11.132         	2.419
MS.466         	11.11          	2.429
MS.467         	11.087         	2.433
MS.468         	11.065         	2.506
MS.469         	11.042         	2.278
MS.470         	11.023         	2.22
MS.471         	11             	2.175
MS.472         	10.977         	2.318
MS.473         	10.955         	2.314
MS.474         	10.932         	2.336
MS.475         	10.912         	2.046
MS.476         	10.89          	2.163
MS.477         	10.867         	2.056
MS.478         	10.847         	2.244
MS.479         	10.825         	2.137
MS.480         	10.802         	2.004
MS.481         	10.782         	2.036
MS.482         	10.76          	2.095
MS.483         	10.738         	1.889
MS.484         	10.717         	2.111
MS.485         	10.695         	2.002
MS.486         	10.675         	1.829
MS.487         	10.653         	1.762
MS.488         	10.632         	1.708
MS.489         	10.61          	1.734
MS.490         	10.59          	1.762
MS.491         	10.568         	1.642
MS.492         	10.547         	1.668
MS.493         	10.525         	1.65
MS.494         	10.505         	1.678
MS.495         	10.485         	1.605
MS.496         	10.462         	1.672
MS.497         	10.443         	1.418
MS.498         	10.42          	1.364
MS.499         	10.4           	1.517
MS.500         	10.38          	1.42
MS.501         	10.36          	1.454
MS.502         	10.337         	1.503
MS.503         	10.318         	1.354
MS.504         	10.297         	1.376
MS.505         	10.275         	1.259
MS.506         	10.255         	1.323
MS.507         	10.235         	1.225
MS.508         	10.215         	1.307
MS.509         	10.195         	1.245
MS.510         	10.175         	1.321
MS.511         	10.153         	1.259
MS.512         	10.132         	1.329
MS.513         	10.113         	1.162
MS.514         	10.092         	1.126
MS.515         	10.073         	1.132
MS.516         	10.052         	1.142
MS.517         	10.032         	1.166
MS.518         	10.012         	1.1
MS.519         	9.992          	1.065
MS.520         	9.972          	0.927
MS.521         	9.952          	0.971
MS.522         	9.932          	0.959
MS.523         	9.912          	0.999
MS.524         	9.892          	0.906
MS.525         	9.872          	0.947
MS.526         	9.852          	0.872
MS.527         	9.835          	0.951
MS.528         	9.815          	0.945
MS.529         	9.795          	0.953
MS.530         	9.775          	0.955
MS.531         	9.755          	0.86
MS.532         	9.735          	0.852
MS.533         	9.717          	0.908
MS.534         	9.698          	0.87
MS.535         	9.677          	0.834
MS.536         	9.657          	0.848
MS.537         	9.64           	0.729
MS.538         	9.62           	0.707
MS.539         	9.6            	0.784
MS.540         	9.582          	0.836
MS.541         	9.562          	0.87
MS.542         	9.542          	0.775
MS.543         	9.525          	0.792
MS.544         	9.505          	0.786
MS.545         	9.485          	0.727
MS.546         	9.467          	0.808
MS.547         	9.448          	0.781
MS.548         	9.43           	0.788
MS.549         	9.41           	0.737
MS.550         	9.392          	0.685
MS.551         	9.372          	0.705
MS.552         	9.355          	0.753
MS.553         	9.335          	0.743
MS.554         	9.318          	0.8
MS.555         	9.297          	0.733
MS.556         	9.28           	0.705
MS.557         	9.26           	0.661
MS.558         	9.242          	0.649
MS.559         	9.225          	0.747
MS.560         	9.205          	0.62
MS.561         	9.188          	0.707
MS.562         	9.17           	0.612
MS.563         	9.15           	0.697
MS.564         	9.132          	0.636
MS.565         	9.115          	0.687
MS.566         	9.095          	0.653
MS.567         	9.077          	0.693
MS.568         	9.06           	0.592
MS.569         	9.042          	0.632
MS.570         	9.023          	0.594
MS.571         	9.005          	0.588
MS.572         	8.988          	0.584
MS.573         	8.97           	0.628
MS.574         	8.952          	0.62
MS.575         	8.932          	0.626
MS.576         	8.915          	0.59
MS.577         	8.898          	0.564
MS.578         	8.88           	0.61
MS.579         	8.863          	0.645
MS.580         	8.845          	0.566
MS.581         	8.827          	0.568
MS.582         	8.81           	0.582
MS.583         	8.792          	0.588
MS.584         	8.775          	0.506
MS.585         	8.757          	0.564
MS.586         	8.74           	0.53
MS.587         	8.722          	0.512
MS.588         	8.705          	0.528
MS.589         	8.688          	0.574
MS.590         	8.67           	0.518
MS.591         	8.653          	0.502
MS.592         	8.635          	0.568
MS.593         	8.617          	0.487
MS.594         	8.6            	0.495
MS.595         	8.582          	0.455
MS.596         	8.568          	0.548
MS.597         	8.55           	0.56
MS.598         	8.533          	0.493
MS.599         	8.515          	0.558
MS.600         	8.497          	0.415
MS.601         	8.48           	0.495
MS.602         	8.465          	0.479
MS.603         	8.448          	0.405
MS.604         	8.43           	0.469
MS.605         	8.412          	0.445
MS.606         	8.398          	0.399
MS.607         	8.38           	0.429
MS.608         	8.363          	0.443
MS.609         	8.347          	0.393
MS.610         	8.33           	0.357
MS.611         	8.312          	0.383
MS.612         	8.297          	0.397
MS.613         	8.28           	0.383
MS.614         	8.262          	0.393
MS.615         	8.247          	0.308
MS.616         	8.23           	0.373
MS.617         	8.215          	0.375
MS.618         	8.198          	0.367
MS.619         	8.18           	0.365
MS.620         	8.165          	0.334
MS.621         	8.148          	0.344
MS.622         	8.132          	0.328
MS.623         	8.115          	0.296
MS.624         	8.1            	0.26
MS.625         	8.082          	0.314
MS.626         	8.068          	0.324
MS.627         	8.052          	0.207
MS.628         	8.035          	0.286
MS.629         	8.02           	0.27
MS.630         	8.002          	0.187
MS.631         	7.987          	0.209
MS.632         	7.97           	0.171
MS.633         	7.955          	0.252
MS.634         	7.94           	0.268
MS.635         	7.922          	0.129
MS.636         	7.907          	0.183
MS.637         	7.892          	0.111
MS.638         	7.875          	0.091
MS.639         	7.86           	0.181
MS.640         	7.845          	0.189
MS.641         	7.83           	0.105
MS.642         	7.812          	0.139
MS.643         	7.797          	0.089
MS.644         	7.782          	0.087
MS.645         	7.767          	0.093
MS.646         	7.75           	0.089
MS.647         	7.735          	0.046
MS.648         	7.72           	0.095
MS.649         	7.705          	0.066
MS.650         	7.69           	0.066
MS.651         	7.675          	0.087
MS.652         	7.657          	0.048
MS.653         	7.642          	0.093
MS.654         	7.628          	0.089
MS.655         	7.612          	0.087
MS.656         	7.597          	0.058
MS.657         	7.582          	0.052
MS.658         	7.567          	0.093
MS.659         	7.552          	0.056
MS.660         	7.537          	0.06
MS.661         	7.523          	0.038
MS.662         	7.507          	0.044
MS.663         	7.492          	0.048
MS.664         	7.477          	0.056
MS.665         	7.462          	0.087
MS.666         	7.447          	0.066
MS.667         	7.432          	0.054
MS.668         	7.418          	0.052
MS.669         	7.402          	0.066
MS.670         	7.387          	0.058
MS.671         	7.372          	0.05
MS.672         	7.357          	0.05
MS.673         	7.342          	0.054
MS.674         	7.33           	0.05
MS.675         	7.315          	0.066
MS.676         	7.3            	0.07
MS.677         	7.285          	0.06
MS.678         	7.27           	0.073
MS.679         	7.255          	0.058
MS.680         	7.242          	0.054
MS.681         	7.227          	0.048
MS.682         	7.212          	0.048
MS.683         	7.197          	0.058
MS.684         	7.185          	0.077
MS.685         	7.17           	0.07
MS.686         	7.155          	0.068
MS.687         	7.14           	0.07
MS.688         	7.128          	0.052
MS.689         	7.112          	0.052
MS.690         	7.097          	0.062
MS.691         	7.085          	0.044
MS.692         	7.07           	0.075
MS.693         	7.055          	0.068
MS.694         	7.043          	0.054
MS.695         	7.027          	0.054
MS.696         	7.012          	0.075
MS.697         	7              	0.075
MS.698         	6.985          	0.06
MS.699         	6.972          	0.048
MS.700         	6.957          	0.062
MS.701         	6.942          	0.075
MS.702         	6.93           	0.077
MS.703         	6.915          	0.036
MS.704         	6.902          	0.05
MS.705         	6.887          	0.07
MS.706         	6.875          	0.052
MS.707         	6.86           	0.048
MS.708         	6.847          	0.068
MS.709         	6.832          	0.048
MS.710         	6.82           	0.077
MS.711         	6.805          	0.042
MS.712         	6.793          	0.052
MS.713         	6.78           	0.044
MS.714         	6.765          	0.05
MS.715         	6.753          	0.042
MS.716         	6.737          	0.044
MS.717         	6.725          	0.044
MS.718         	6.712          	0.038
MS.719         	6.697          	0.04
MS.720         	6.685          	0.028
MS.721         	6.672          	0.022
MS.722         	6.657          	0.04
MS.723         	6.645          	0.044
MS.724         	6.632          	0.046
MS.725         	6.617          	0.054
MS.726         	6.605          	0.05
MS.727         	6.592          	0.042
MS.728         	6.577          	0.04
MS.729         	6.565          	0.042
MS.730         	6.552          	0.046
MS.731         	6.54           	0.044
MS.732         	6.525          	0.044
MS.733         	6.512          	0.058
MS.734         	6.5            	0.04
MS.735         	6.487          	0.04
MS.736         	6.475          	0.089
MS.737         	6.462          	0.066
MS.738         	6.447          	0.046
MS.739         	6.435          	0.048
MS.740         	6.422          	0.046
MS.741         	6.41           	0.05
MS.742         	6.398          	0.046
MS.743         	6.385          	0.05
MS.744         	6.372          	0.046
MS.745         	6.36           	0.05
MS.746         	6.345          	0.028
MS.747         	6.332          	0.03
MS.748         	6.32           	0.046
MS.749         	6.307          	0.05
MS.750         	6.295          	0.03
MS.751         	6.282          	0.056
MS.752         	6.27           	0.05
MS.753         	6.257          	0.028
MS.754         	6.245          	0.048
MS.755         	6.233          	0.056
MS.756         	6.22           	0.046
MS.757         	6.207          	0.048
MS.758         	6.195          	0.06
MS.759         	6.182          	0.062
MS.760         	6.17           	0.028
MS.761         	6.157          	0.028
MS.762         	6.145          	0.056
MS.763         	6.135          	0.042
MS.764         	6.122          	0.034
MS.765         	6.11           	0.036
MS.766         	6.097          	0.036
MS.767         	6.085          	0.056
MS.768         	6.072          	0.032
MS.769         	6.06           	0.056
MS.770         	6.047          	0.034
DERIVED EXCITABILITY VARIABLES
Program = QTracP 3/4/2020
Threshold method = 6 (optimised for CAP, using data for present condition only)
SR method = 1 (using actual data values)
6.                 	0.000               	Peak response\(mV)
9.                 	32.6                	Temperature ( C)
17.                	52                  	Age (years)
18.                	1                   	Sex (M=1, F=2)

EXTRA VARIABLES

MScPeak(mV) = 7.23
MScS5(mA) = 8.27
MScS50(mA) = 12.5
MScS95(mA) = 19.29
MScNSteps = 2
MScSteps(%) = 4.3
MScStepMax(%) = 2.2
MScD50 = 69
MScSlope = 2.24
MSFPeakAmp(mV) = 7.45
MSFNUnits = 137
MSFMeanUnitAmp(uV) = 54.3
MSFHuntTime(m) = 3.69
MSFError(%) = 6.24
MSFNLarge = 32.37
MSFMedianAmp(%) = 0.519
MSFMedianAmp(mV) = 0.0386
MSFHalfAmpAmp(%) = 0.861
MSFHalfAmpAmp(mV) = 0.0641
MSFLargestAmp(%) = 3.91
MSFLargestAmp(mV) = 0.291
MSFMeanRS(%) = 2
MSFOpts = 10106121
MScDuration(min) = 7.3
MSFTraces = 680
MSFSizeLimit(uV) = 18.6
MSFLimitType = 1
MSFSmallestAmp(uV) = 19.2

EXTRA WAVEFORMS


!MScan Model
!137
	1	7.78	0.74	2
	2	7.83	0.27	2
	3	7.92	0.79	2
	4	8	0.69	2
	5	8.06	0.58	2
	6	8.08	0.55	2
	7	8.11	0.44	2
	8	8.16	0.29	2
	9	8.33	0.86	2
	10	8.54	0.85	2
	11	8.7	0.38	2
	12	8.76	0.41	2
	13	8.83	0.47	2
	14	9.06	0.6	2
	15	9.18	0.53	2
	16	9.4	1.1	2
	17	9.66	1.03	2
	18	9.71	0.49	2
	19	9.77	0.48	2
	20	9.91	0.72	2
	21	9.94	0.48	2
	22	9.98	0.63	2
	23	10	0.27	2
	24	10.03	0.47	2
	25	10.05	0.33	2
	26	10.1	1	2
	27	10.17	0.65	2
	28	10.21	0.49	2
	29	10.25	0.57	2
	30	10.28	0.49	2
	31	10.33	0.47	2
	32	10.37	0.61	2
	33	10.4	0.49	2
	34	10.42	0.42	2
	35	10.44	0.38	2
	36	10.47	0.52	2
	37	10.5	0.62	2
	38	10.54	0.77	2
	39	10.57	0.58	2
	40	10.6	0.43	2
	41	10.61	0.31	2
	42	10.63	0.36	2
	43	10.65	0.38	2
	44	10.67	0.47	2
	45	10.77	2.41	2
	46	10.87	1.51	2
	47	10.93	0.79	2
	48	10.99	0.98	2
	49	11.03	0.7	2
	50	11.05	0.29	2
	51	11.09	0.53	2
	52	11.11	0.52	2
	53	11.12	0.27	2
	54	11.13	0.27	2
	55	11.14	0.27	2
	56	11.15	0.27	2
	57	11.16	0.26	2
	58	11.17	0.26	2
	59	11.18	0.26	2
	60	11.2	0.51	2
	61	11.21	0.33	2
	62	11.22	0.33	2
	63	11.23	0.33	2
	64	11.24	0.33	2
	65	11.3	1.22	2
	66	11.37	1.09	2
	67	11.46	0.7	2
	68	11.5	0.59	2
	69	11.54	0.78	2
	70	11.57	0.35	2
	71	11.59	0.32	2
	72	11.63	0.48	2
	73	11.65	0.31	2
	74	11.68	0.33	2
	75	11.71	0.42	2
	76	11.78	0.88	2
	77	12.07	1.74	2
	78	12.26	2.02	2
	79	12.48	1.78	2
	80	12.79	1.95	2
	81	12.88	0.56	2
	82	13.04	1.73	2
	83	13.1	0.31	2
	84	13.16	0.39	2
	85	13.22	0.35	2
	86	13.26	0.29	2
	87	13.34	0.36	2
	88	13.49	0.54	2
	89	13.58	0.29	2
	90	13.68	0.41	2
	91	14.4	1.64	2
	92	14.92	0.9	2
	93	15.06	0.47	2
	94	15.11	0.6	2
	95	15.16	0.93	2
	96	15.29	1.85	2
	97	15.62	2.89	2
	98	15.77	0.56	2
	99	15.85	1.29	2
	100	16.25	3.91	2
	101	16.35	0.32	2
	102	16.4	0.75	2
	103	16.42	0.79	2
	104	16.45	0.94	2
	105	16.5	1.29	2
	106	16.55	1.07	2
	107	16.61	1.28	2
	108	16.71	2.07	2
	109	16.79	1.13	2
	110	16.85	0.46	2
	111	16.91	0.71	2
	112	16.95	0.68	2
	113	16.99	0.75	2
	114	17.04	0.83	2
	115	17.08	1.23	2
	116	17.15	1.21	2
	117	17.47	3.13	2
	118	17.85	0.86	2
	119	18.05	1.62	2
	120	21.42	0.33	2
	121	21.57	0.42	2
	122	21.57	0.28	2
	123	21.67	0.47	2
	124	21.76	0.38	2
	125	21.84	0.36	2
	126	21.92	0.42	2
	127	22.08	0.71	2
	128	22.27	0.43	2
	129	22.44	0.44	2
	130	22.71	0.8	2
	131	24.19	0.49	2
	132	24.4	0.42	2
	133	24.49	0.28	2
	134	24.59	0.33	2
	135	24.74	0.45	2
	136	24.96	0.38	2
	137	25.2	0.35	2

