File:              	C:\Qtrac\Data\Daniel M Sørensen\MScan multicentre study\Data from centres\Antalya\Processed data\TR.NC.ANT.9.2- NCC01208J.QZD
Name:              	TR.NC.ANT.9.2
Protocol:          	MSCAN-R2
Date:              	8/12/20
Start time:        	18:47:55
Age:               	48
Sex:               	f
Temperature:       	30
S/R sites:               TA
NC/disease:        	NC
Operator:          	ab
Comments:
M-SCAN DATA (8.8-0.6m)
Scanpts: 292, 297, 841, 861
Stim. (mA)     	Amp. (mV)
MS.1           	16.5           	5.924
MS.2           	16.5           	5.934
MS.3           	16.5           	5.932
MS.4           	16.5           	5.92
MS.5           	16.5           	5.918
MS.6           	16.5           	5.918
MS.7           	16.5           	5.899
MS.8           	16.5           	5.904
MS.9           	16.5           	5.904
MS.10          	16.5           	5.91
MS.11          	16.5           	5.899
MS.12          	16.5           	5.891
MS.13          	16.5           	5.901
MS.14          	16.5           	5.901
MS.15          	16.5           	5.904
MS.16          	16.5           	5.893
MS.17          	16.5           	5.904
MS.18          	16.5           	5.904
MS.19          	16.5           	5.899
MS.20          	16.5           	5.916
MS.21          	16.5           	5.895
MS.22          	16.5           	5.91
MS.23          	16.5           	5.906
MS.24          	16.435         	5.895
MS.25          	16.4           	5.877
MS.26          	16.368         	5.895
MS.27          	16.335         	5.897
MS.28          	16.302         	5.922
MS.29          	16.27          	5.914
MS.30          	16.237         	5.914
MS.31          	16.205         	5.912
MS.32          	16.172         	5.914
MS.33          	16.14          	5.916
MS.34          	16.108         	5.924
MS.35          	16.077         	5.924
MS.36          	16.045         	5.92
MS.37          	16.012         	5.934
MS.38          	15.98          	5.92
MS.39          	15.947         	5.922
MS.40          	15.917         	5.918
MS.41          	15.885         	5.922
MS.42          	15.852         	5.924
MS.43          	15.822         	5.934
MS.44          	15.79          	5.924
MS.45          	15.757         	5.928
MS.46          	15.727         	5.922
MS.47          	15.695         	5.934
MS.48          	15.665         	5.934
MS.49          	15.632         	5.92
MS.50          	15.602         	5.936
MS.51          	15.57          	5.932
MS.52          	15.54          	5.936
MS.53          	15.507         	5.936
MS.54          	15.477         	5.93
MS.55          	15.445         	5.938
MS.56          	15.415         	5.942
MS.57          	15.385         	5.94
MS.58          	15.352         	5.938
MS.59          	15.322         	5.932
MS.60          	15.292         	5.94
MS.61          	15.262         	5.942
MS.62          	15.233         	5.924
MS.63          	15.2           	5.946
MS.64          	15.17          	5.944
MS.65          	15.14          	5.948
MS.66          	15.11          	5.936
MS.67          	15.08          	5.938
MS.68          	15.05          	5.946
MS.69          	15.02          	5.95
MS.70          	14.99          	5.954
MS.71          	14.96          	5.948
MS.72          	14.93          	5.944
MS.73          	14.9           	5.956
MS.74          	14.87          	5.948
MS.75          	14.84          	5.954
MS.76          	14.81          	5.952
MS.77          	14.78          	5.964
MS.78          	14.752         	5.944
MS.79          	14.722         	5.958
MS.80          	14.693         	5.96
MS.81          	14.662         	5.954
MS.82          	14.635         	5.94
MS.83          	14.605         	5.958
MS.84          	14.575         	5.954
MS.85          	14.547         	5.96
MS.86          	14.517         	5.958
MS.87          	14.487         	5.962
MS.88          	14.46          	5.95
MS.89          	14.43          	5.962
MS.90          	14.403         	5.952
MS.91          	14.372         	5.936
MS.92          	14.345         	5.956
MS.93          	14.315         	5.954
MS.94          	14.287         	5.946
MS.95          	14.257         	5.964
MS.96          	14.23          	5.954
MS.97          	14.202         	5.962
MS.98          	14.172         	5.964
MS.99          	14.145         	5.966
MS.100         	14.117         	5.956
MS.101         	14.087         	5.972
MS.102         	14.06          	5.962
MS.103         	14.032         	5.964
MS.104         	14.005         	5.958
MS.105         	13.975         	5.964
MS.106         	13.947         	5.972
MS.107         	13.92          	5.964
MS.108         	13.892         	5.964
MS.109         	13.865         	5.96
MS.110         	13.837         	5.966
MS.111         	13.81          	5.968
MS.112         	13.782         	5.966
MS.113         	13.755         	5.958
MS.114         	13.727         	5.96
MS.115         	13.7           	5.98
MS.116         	13.672         	5.97
MS.117         	13.645         	5.956
MS.118         	13.617         	5.976
MS.119         	13.59          	5.976
MS.120         	13.562         	5.978
MS.121         	13.535         	5.968
MS.122         	13.51          	5.96
MS.123         	13.483         	5.984
MS.124         	13.455         	5.968
MS.125         	13.427         	5.976
MS.126         	13.403         	5.964
MS.127         	13.375         	5.978
MS.128         	13.347         	5.966
MS.129         	13.32          	5.972
MS.130         	13.295         	5.972
MS.131         	13.267         	5.972
MS.132         	13.242         	5.978
MS.133         	13.215         	5.964
MS.134         	13.188         	5.972
MS.135         	13.162         	5.98
MS.136         	13.135         	5.976
MS.137         	13.11          	5.984
MS.138         	13.082         	5.97
MS.139         	13.057         	5.984
MS.140         	13.032         	5.99
MS.141         	13.005         	5.978
MS.142         	12.98          	5.984
MS.143         	12.952         	5.99
MS.144         	12.927         	5.976
MS.145         	12.903         	5.972
MS.146         	12.875         	5.998
MS.147         	12.85          	5.974
MS.148         	12.825         	5.992
MS.149         	12.8           	5.994
MS.150         	12.773         	5.978
MS.151         	12.747         	5.986
MS.152         	12.722         	5.988
MS.153         	12.697         	5.988
MS.154         	12.672         	5.992
MS.155         	12.645         	5.99
MS.156         	12.62          	5.988
MS.157         	12.595         	5.97
MS.158         	12.57          	5.996
MS.159         	12.545         	5.984
MS.160         	12.52          	5.984
MS.161         	12.495         	5.986
MS.162         	12.47          	5.992
MS.163         	12.445         	5.996
MS.164         	12.42          	5.986
MS.165         	12.395         	5.98
MS.166         	12.37          	5.992
MS.167         	12.347         	5.986
MS.168         	12.322         	5.986
MS.169         	12.297         	6.004
MS.170         	12.273         	5.998
MS.171         	12.247         	5.98
MS.172         	12.222         	5.986
MS.173         	12.2           	5.986
MS.174         	12.175         	5.988
MS.175         	12.15          	5.978
MS.176         	12.125         	5.986
MS.177         	12.102         	5.992
MS.178         	12.077         	5.98
MS.179         	12.052         	5.996
MS.180         	12.03          	5.994
MS.181         	12.005         	6
MS.182         	11.983         	5.984
MS.183         	11.957         	5.994
MS.184         	11.932         	5.994
MS.185         	11.91          	5.992
MS.186         	11.885         	6
MS.187         	11.863         	5.984
MS.188         	11.837         	5.988
MS.189         	11.815         	5.99
MS.190         	11.79          	5.986
MS.191         	11.767         	5.986
MS.192         	11.745         	5.996
MS.193         	11.72          	5.998
MS.194         	11.697         	5.976
MS.195         	11.675         	5.986
MS.196         	11.65          	5.998
MS.197         	11.627         	5.99
MS.198         	11.605         	5.988
MS.199         	11.58          	5.996
MS.200         	11.557         	5.996
MS.201         	11.535         	5.998
MS.202         	11.512         	5.99
MS.203         	11.488         	5.994
MS.204         	11.465         	5.998
MS.205         	11.443         	6.002
MS.206         	11.42          	6.002
MS.207         	11.398         	5.988
MS.208         	11.375         	5.994
MS.209         	11.352         	5.992
MS.210         	11.33          	6.006
MS.211         	11.307         	5.992
MS.212         	11.282         	5.99
MS.213         	11.26          	5.996
MS.214         	11.238         	5.996
MS.215         	11.215         	5.994
MS.216         	11.195         	6.008
MS.217         	11.172         	5.988
MS.218         	11.15          	6
MS.219         	11.127         	6.01
MS.220         	11.105         	6.004
MS.221         	11.082         	6
MS.222         	11.06          	5.99
MS.223         	11.037         	5.984
MS.224         	11.015         	6.014
MS.225         	10.995         	5.996
MS.226         	10.972         	6
MS.227         	10.95          	6.004
MS.228         	10.927         	6.002
MS.229         	10.907         	6.004
MS.230         	10.885         	5.998
MS.231         	10.863         	6
MS.232         	10.84          	6.002
MS.233         	10.82          	5.998
MS.234         	10.797         	6.008
MS.235         	10.778         	5.994
MS.236         	10.755         	6
MS.237         	10.733         	6.006
MS.238         	10.712         	5.996
MS.239         	10.69          	6.002
MS.240         	10.67          	5.986
MS.241         	10.648         	5.992
MS.242         	10.627         	6.004
MS.243         	10.605         	5.994
MS.244         	10.585         	5.998
MS.245         	10.562         	5.992
MS.246         	10.542         	5.994
MS.247         	10.52          	6.008
MS.248         	10.5           	5.996
MS.249         	10.48          	6.002
MS.250         	10.457         	5.998
MS.251         	10.438         	6.008
MS.252         	10.415         	6
MS.253         	10.395         	5.992
MS.254         	10.375         	5.998
MS.255         	10.355         	5.988
MS.256         	10.332         	5.996
MS.257         	10.312         	6.004
MS.258         	10.292         	6.002
MS.259         	10.273         	5.998
MS.260         	10.25          	5.992
MS.261         	10.23          	6.008
MS.262         	10.21          	5.988
MS.263         	10.19          	5.996
MS.264         	10.17          	6.002
MS.265         	10.15          	6.004
MS.266         	10.127         	5.996
MS.267         	10.108         	5.988
MS.268         	10.087         	6.004
MS.269         	10.068         	6.008
MS.270         	10.047         	6.004
MS.271         	10.028         	6.012
MS.272         	10.007         	6.006
MS.273         	9.988          	6.004
MS.274         	9.967          	6.014
MS.275         	9.948          	5.996
MS.276         	9.927          	6.016
MS.277         	9.907          	6.002
MS.278         	9.887          	6.012
MS.279         	9.867          	6.006
MS.280         	9.85           	5.994
MS.281         	9.83           	6.018
MS.282         	9.81           	6.006
MS.283         	9.79           	6.004
MS.284         	9.77           	6.004
MS.285         	9.75           	5.996
MS.286         	9.733          	5.99
MS.287         	9.712          	6.002
MS.288         	9.693          	6.01
MS.289         	9.672          	6
MS.290         	9.655          	5.994
MS.291         	9.635          	6.004
MS.292         	9.615          	6.006
MS.293         	9.595          	6.016
MS.294         	9.577          	5.99
MS.295         	9.557          	6.008
MS.296         	9.537          	6.012
MS.297         	9.52           	6.006
MS.298         	9.5            	6.004
MS.299         	9.483          	6.002
MS.300         	9.462          	5.996
MS.301         	9.445          	6.012
MS.302         	9.425          	6.012
MS.303         	9.405          	6.006
MS.304         	9.387          	6.018
MS.305         	9.367          	6.006
MS.306         	9.35           	6.002
MS.307         	9.33           	5.988
MS.308         	9.312          	6.002
MS.309         	9.295          	6.012
MS.310         	9.275          	6.01
MS.311         	9.257          	5.966
MS.312         	9.238          	5.998
MS.313         	9.22           	5.992
MS.314         	9.202          	5.99
MS.315         	9.182          	6.008
MS.316         	9.165          	5.98
MS.317         	9.148          	5.998
MS.318         	9.127          	6.006
MS.319         	9.11           	5.998
MS.320         	9.092          	5.996
MS.321         	9.073          	5.982
MS.322         	9.055          	6.004
MS.323         	9.037          	5.99
MS.324         	9.02           	5.982
MS.325         	9              	5.98
MS.326         	8.983          	5.984
MS.327         	8.965          	5.986
MS.328         	8.948          	5.984
MS.329         	8.93           	5.972
MS.330         	8.912          	5.97
MS.331         	8.895          	5.966
MS.332         	8.875          	5.956
MS.333         	8.858          	5.964
MS.334         	8.84           	5.964
MS.335         	8.823          	5.946
MS.336         	8.805          	5.966
MS.337         	8.787          	5.96
MS.338         	8.77           	5.95
MS.339         	8.752          	5.952
MS.340         	8.735          	5.948
MS.341         	8.717          	5.922
MS.342         	8.7            	5.94
MS.343         	8.682          	5.95
MS.344         	8.665          	5.95
MS.345         	8.648          	5.936
MS.346         	8.63           	5.922
MS.347         	8.613          	5.93
MS.348         	8.597          	5.916
MS.349         	8.58           	5.916
MS.350         	8.562          	5.901
MS.351         	8.545          	5.922
MS.352         	8.528          	5.904
MS.353         	8.51           	5.914
MS.354         	8.495          	5.908
MS.355         	8.477          	5.904
MS.356         	8.46           	5.889
MS.357         	8.443          	5.885
MS.358         	8.427          	5.897
MS.359         	8.41           	5.889
MS.360         	8.392          	5.893
MS.361         	8.375          	5.865
MS.362         	8.36           	5.887
MS.363         	8.342          	5.906
MS.364         	8.325          	5.875
MS.365         	8.31           	5.873
MS.366         	8.292          	5.855
MS.367         	8.275          	5.863
MS.368         	8.26           	5.877
MS.369         	8.242          	5.881
MS.370         	8.227          	5.873
MS.371         	8.21           	5.869
MS.372         	8.193          	5.829
MS.373         	8.177          	5.863
MS.374         	8.16           	5.839
MS.375         	8.145          	5.807
MS.376         	8.127          	5.845
MS.377         	8.113          	5.797
MS.378         	8.095          	5.845
MS.379         	8.08           	5.819
MS.380         	8.062          	5.813
MS.381         	8.047          	5.829
MS.382         	8.033          	5.805
MS.383         	8.015          	5.785
MS.384         	8              	5.773
MS.385         	7.982          	5.801
MS.386         	7.967          	5.773
MS.387         	7.952          	5.783
MS.388         	7.935          	5.793
MS.389         	7.92           	5.767
MS.390         	7.905          	5.771
MS.391         	7.887          	5.736
MS.392         	7.872          	5.773
MS.393         	7.857          	5.756
MS.394         	7.84           	5.758
MS.395         	7.825          	5.738
MS.396         	7.81           	5.742
MS.397         	7.795          	5.734
MS.398         	7.777          	5.742
MS.399         	7.762          	5.738
MS.400         	7.747          	5.76
MS.401         	7.732          	5.73
MS.402         	7.717          	5.732
MS.403         	7.7            	5.736
MS.404         	7.685          	5.714
MS.405         	7.67           	5.694
MS.406         	7.655          	5.672
MS.407         	7.64           	5.73
MS.408         	7.625          	5.656
MS.409         	7.61           	5.656
MS.410         	7.595          	5.684
MS.411         	7.58           	5.694
MS.412         	7.562          	5.624
MS.413         	7.547          	5.64
MS.414         	7.532          	5.674
MS.415         	7.517          	5.624
MS.416         	7.503          	5.617
MS.417         	7.487          	5.601
MS.418         	7.472          	5.644
MS.419         	7.457          	5.599
MS.420         	7.442          	5.583
MS.421         	7.427          	5.607
MS.422         	7.415          	5.613
MS.423         	7.4            	5.585
MS.424         	7.385          	5.573
MS.425         	7.37           	5.565
MS.426         	7.355          	5.533
MS.427         	7.34           	5.541
MS.428         	7.325          	5.541
MS.429         	7.31           	5.483
MS.430         	7.295          	5.535
MS.431         	7.282          	5.541
MS.432         	7.267          	5.527
MS.433         	7.253          	5.517
MS.434         	7.237          	5.493
MS.435         	7.222          	5.495
MS.436         	7.21           	5.47
MS.437         	7.195          	5.47
MS.438         	7.18           	5.442
MS.439         	7.165          	5.45
MS.440         	7.152          	5.45
MS.441         	7.137          	5.446
MS.442         	7.122          	5.396
MS.443         	7.11           	5.438
MS.444         	7.095          	5.434
MS.445         	7.08           	5.356
MS.446         	7.067          	5.364
MS.447         	7.052          	5.333
MS.448         	7.037          	5.396
MS.449         	7.025          	5.36
MS.450         	7.01           	5.273
MS.451         	6.995          	5.295
MS.452         	6.983          	5.255
MS.453         	6.967          	5.323
MS.454         	6.955          	5.319
MS.455         	6.94           	5.307
MS.456         	6.927          	5.193
MS.457         	6.912          	5.207
MS.458         	6.9            	5.199
MS.459         	6.885          	5.156
MS.460         	6.872          	5.257
MS.461         	6.858          	5.207
MS.462         	6.845          	5.168
MS.463         	6.83           	5.195
MS.464         	6.817          	5.17
MS.465         	6.802          	5.17
MS.466         	6.79           	5.132
MS.467         	6.775          	5.124
MS.468         	6.762          	5.058
MS.469         	6.747          	5.09
MS.470         	6.735          	5.058
MS.471         	6.722          	5.072
MS.472         	6.707          	5.031
MS.473         	6.695          	5.064
MS.474         	6.682          	5.035
MS.475         	6.668          	5.013
MS.476         	6.655          	5.015
MS.477         	6.642          	4.939
MS.478         	6.628          	4.953
MS.479         	6.615          	4.989
MS.480         	6.602          	4.904
MS.481         	6.587          	4.862
MS.482         	6.575          	4.884
MS.483         	6.562          	4.854
MS.484         	6.55           	4.798
MS.485         	6.535          	4.8
MS.486         	6.523          	4.804
MS.487         	6.51           	4.802
MS.488         	6.497          	4.822
MS.489         	6.485          	4.798
MS.490         	6.47           	4.743
MS.491         	6.457          	4.798
MS.492         	6.445          	4.673
MS.493         	6.432          	4.747
MS.494         	6.42           	4.709
MS.495         	6.407          	4.596
MS.496         	6.395          	4.685
MS.497         	6.38           	4.687
MS.498         	6.367          	4.629
MS.499         	6.355          	4.572
MS.500         	6.342          	4.622
MS.501         	6.33           	4.516
MS.502         	6.317          	4.584
MS.503         	6.305          	4.546
MS.504         	6.293          	4.548
MS.505         	6.28           	4.538
MS.506         	6.267          	4.459
MS.507         	6.255          	4.512
MS.508         	6.242          	4.433
MS.509         	6.23           	4.314
MS.510         	6.217          	4.334
MS.511         	6.205          	4.296
MS.512         	6.192          	4.328
MS.513         	6.18           	4.314
MS.514         	6.168          	4.298
MS.515         	6.155          	4.218
MS.516         	6.142          	4.216
MS.517         	6.13           	4.216
MS.518         	6.117          	4.204
MS.519         	6.108          	4.173
MS.520         	6.095          	4.149
MS.521         	6.082          	4.165
MS.522         	6.07           	4.075
MS.523         	6.057          	3.994
MS.524         	6.045          	3.942
MS.525         	6.032          	3.97
MS.526         	6.023          	3.982
MS.527         	6.01           	3.895
MS.528         	5.997          	3.93
MS.529         	5.985          	3.895
MS.530         	5.972          	3.875
MS.531         	5.963          	3.825
MS.532         	5.95           	3.752
MS.533         	5.938          	3.779
MS.534         	5.925          	3.738
MS.535         	5.915          	3.664
MS.536         	5.902          	3.623
MS.537         	5.89           	3.696
MS.538         	5.88           	3.577
MS.539         	5.867          	3.565
MS.540         	5.855          	3.547
MS.541         	5.842          	3.474
MS.542         	5.832          	3.63
MS.543         	5.82           	3.519
MS.544         	5.807          	3.456
MS.545         	5.797          	3.412
MS.546         	5.785          	3.428
MS.547         	5.775          	3.382
MS.548         	5.762          	3.241
MS.549         	5.75           	3.311
MS.550         	5.74           	3.301
MS.551         	5.727          	3.227
MS.552         	5.717          	3.265
MS.553         	5.705          	3.126
MS.554         	5.692          	3.072
MS.555         	5.682          	3.158
MS.556         	5.67           	3.11
MS.557         	5.66           	2.981
MS.558         	5.648          	3.023
MS.559         	5.637          	2.941
MS.560         	5.625          	3.007
MS.561         	5.615          	2.991
MS.562         	5.602          	2.949
MS.563         	5.592          	2.929
MS.564         	5.58           	2.908
MS.565         	5.57           	2.921
MS.566         	5.557          	2.874
MS.567         	5.547          	2.862
MS.568         	5.537          	2.749
MS.569         	5.525          	2.689
MS.570         	5.515          	2.731
MS.571         	5.503          	2.681
MS.572         	5.492          	2.701
MS.573         	5.483          	2.715
MS.574         	5.47           	2.681
MS.575         	5.46           	2.558
MS.576         	5.447          	2.504
MS.577         	5.438          	2.6
MS.578         	5.427          	2.56
MS.579         	5.415          	2.433
MS.580         	5.405          	2.475
MS.581         	5.395          	2.467
MS.582         	5.382          	2.439
MS.583         	5.372          	2.359
MS.584         	5.362          	2.399
MS.585         	5.352          	2.342
MS.586         	5.34           	2.377
MS.587         	5.33           	2.322
MS.588         	5.32           	2.349
MS.589         	5.307          	2.244
MS.590         	5.297          	2.238
MS.591         	5.287          	2.25
MS.592         	5.277          	2.234
MS.593         	5.267          	2.153
MS.594         	5.255          	2.159
MS.595         	5.245          	2.171
MS.596         	5.235          	2.101
MS.597         	5.225          	1.998
MS.598         	5.215          	2.012
MS.599         	5.202          	2.022
MS.600         	5.193          	1.958
MS.601         	5.182          	2.044
MS.602         	5.172          	1.928
MS.603         	5.162          	1.974
MS.604         	5.152          	1.93
MS.605         	5.142          	1.881
MS.606         	5.132          	1.851
MS.607         	5.12           	1.789
MS.608         	5.11           	1.835
MS.609         	5.1            	1.797
MS.610         	5.09           	1.813
MS.611         	5.08           	1.688
MS.612         	5.07           	1.706
MS.613         	5.06           	1.756
MS.614         	5.05           	1.613
MS.615         	5.04           	1.593
MS.616         	5.03           	1.627
MS.617         	5.02           	1.652
MS.618         	5.01           	1.571
MS.619         	5              	1.531
MS.620         	4.99           	1.559
MS.621         	4.98           	1.492
MS.622         	4.97           	1.464
MS.623         	4.96           	1.482
MS.624         	4.95           	1.456
MS.625         	4.94           	1.446
MS.626         	4.93           	1.444
MS.627         	4.92           	1.45
MS.628         	4.91           	1.374
MS.629         	4.9            	1.392
MS.630         	4.89           	1.319
MS.631         	4.88           	1.335
MS.632         	4.872          	1.345
MS.633         	4.862          	1.281
MS.634         	4.852          	1.323
MS.635         	4.842          	1.289
MS.636         	4.832          	1.301
MS.637         	4.822          	1.204
MS.638         	4.812          	1.202
MS.639         	4.802          	1.269
MS.640         	4.795          	1.273
MS.641         	4.785          	1.178
MS.642         	4.775          	1.19
MS.643         	4.765          	1.198
MS.644         	4.755          	1.122
MS.645         	4.747          	1.184
MS.646         	4.737          	1.08
MS.647         	4.727          	1.106
MS.648         	4.717          	1.108
MS.649         	4.707          	1.096
MS.650         	4.7            	1.092
MS.651         	4.69           	1.025
MS.652         	4.68           	1.043
MS.653         	4.67           	1.041
MS.654         	4.662          	1.001
MS.655         	4.652          	1.011
MS.656         	4.642          	1.061
MS.657         	4.632          	0.961
MS.658         	4.625          	0.927
MS.659         	4.615          	0.973
MS.660         	4.605          	0.906
MS.661         	4.597          	0.935
MS.662         	4.588          	0.856
MS.663         	4.577          	0.858
MS.664         	4.57           	0.884
MS.665         	4.56           	0.85
MS.666         	4.55           	0.81
MS.667         	4.543          	0.8
MS.668         	4.532          	0.84
MS.669         	4.525          	0.745
MS.670         	4.515          	0.749
MS.671         	4.505          	0.771
MS.672         	4.497          	0.731
MS.673         	4.487          	0.657
MS.674         	4.48           	0.675
MS.675         	4.47           	0.683
MS.676         	4.46           	0.645
MS.677         	4.452          	0.687
MS.678         	4.443          	0.596
MS.679         	4.435          	0.653
MS.680         	4.425          	0.624
MS.681         	4.418          	0.59
MS.682         	4.407          	0.58
MS.683         	4.4            	0.538
MS.684         	4.39           	0.554
MS.685         	4.382          	0.548
MS.686         	4.372          	0.508
MS.687         	4.365          	0.566
MS.688         	4.355          	0.54
MS.689         	4.347          	0.532
MS.690         	4.338          	0.514
MS.691         	4.33           	0.56
MS.692         	4.32           	0.473
MS.693         	4.312          	0.495
MS.694         	4.302          	0.473
MS.695         	4.295          	0.439
MS.696         	4.285          	0.447
MS.697         	4.277          	0.415
MS.698         	4.27           	0.477
MS.699         	4.26           	0.423
MS.700         	4.253          	0.403
MS.701         	4.242          	0.443
MS.702         	4.235          	0.425
MS.703         	4.227          	0.377
MS.704         	4.217          	0.387
MS.705         	4.21           	0.377
MS.706         	4.2            	0.395
MS.707         	4.193          	0.369
MS.708         	4.185          	0.352
MS.709         	4.175          	0.359
MS.710         	4.168          	0.357
MS.711         	4.16           	0.336
MS.712         	4.15           	0.35
MS.713         	4.142          	0.326
MS.714         	4.135          	0.33
MS.715         	4.125          	0.33
MS.716         	4.117          	0.312
MS.717         	4.11           	0.292
MS.718         	4.102          	0.268
MS.719         	4.092          	0.284
MS.720         	4.085          	0.294
MS.721         	4.077          	0.254
MS.722         	4.07           	0.252
MS.723         	4.06           	0.244
MS.724         	4.052          	0.248
MS.725         	4.045          	0.236
MS.726         	4.037          	0.264
MS.727         	4.027          	0.232
MS.728         	4.02           	0.191
MS.729         	4.012          	0.228
MS.730         	4.005          	0.218
MS.731         	3.995          	0.209
MS.732         	3.987          	0.179
MS.733         	3.98           	0.183
MS.734         	3.972          	0.185
MS.735         	3.965          	0.214
MS.736         	3.957          	0.137
MS.737         	3.947          	0.165
MS.738         	3.94           	0.165
MS.739         	3.932          	0.161
MS.740         	3.925          	0.163
MS.741         	3.918          	0.145
MS.742         	3.91           	0.137
MS.743         	3.902          	0.137
MS.744         	3.892          	0.145
MS.745         	3.885          	0.139
MS.746         	3.877          	0.105
MS.747         	3.87           	0.111
MS.748         	3.862          	0.117
MS.749         	3.855          	0.105
MS.750         	3.847          	0.091
MS.751         	3.84           	0.095
MS.752         	3.832          	0.105
MS.753         	3.825          	0.077
MS.754         	3.817          	0.107
MS.755         	3.81           	0.093
MS.756         	3.803          	0.073
MS.757         	3.795          	0.095
MS.758         	3.785          	0.062
MS.759         	3.777          	0.064
MS.760         	3.77           	0.081
MS.761         	3.762          	0.07
MS.762         	3.755          	0.05
MS.763         	3.747          	0.066
MS.764         	3.74           	0.05
MS.765         	3.732          	0.056
MS.766         	3.725          	0.038
MS.767         	3.717          	0.052
MS.768         	3.71           	0.052
MS.769         	3.705          	0.046
MS.770         	3.697          	0.044
MS.771         	3.69           	0.056
MS.772         	3.682          	0.042
MS.773         	3.675          	0.05
MS.774         	3.668          	0.032
MS.775         	3.66           	0.022
MS.776         	3.652          	0.032
MS.777         	3.645          	0.024
MS.778         	3.637          	0.034
MS.779         	3.63           	0.016
MS.780         	3.622          	0.012
MS.781         	3.615          	0.016
MS.782         	3.607          	0.02
MS.783         	3.602          	0.024
MS.784         	3.595          	0.01
MS.785         	3.587          	0.016
MS.786         	3.58           	0.014
MS.787         	3.572          	0.012
MS.788         	3.565          	0.004
MS.789         	3.557          	0.012
MS.790         	3.553          	0.01
MS.791         	3.545          	0.02
MS.792         	3.537          	0.018
MS.793         	3.53           	0.004
MS.794         	3.523          	0.008
MS.795         	3.515          	0.006
MS.796         	3.51           	0.004
MS.797         	3.502          	0.008
MS.798         	3.495          	0.006
MS.799         	3.487          	0.018
MS.800         	3.48           	0.000
MS.801         	3.475          	0.004
MS.802         	3.467          	0.004
MS.803         	3.46           	0.004
MS.804         	3.452          	0.008
MS.805         	3.447          	0.004
MS.806         	3.44           	0.006
MS.807         	3.432          	0.002
MS.808         	3.425          	0.01
MS.809         	3.42           	0.004
MS.810         	3.412          	0.002
MS.811         	3.405          	0.008
MS.812         	3.398          	0.004
MS.813         	3.392          	0.004
MS.814         	3.385          	0.006
MS.815         	3.377          	0.004
MS.816         	3.372          	0.002
MS.817         	3.365          	0.006
MS.818         	3.357          	0.000
MS.819         	3.352          	0.002
MS.820         	3.345          	0.004
MS.821         	3.337          	0.006
MS.822         	3.332          	-0.002
MS.823         	3.325          	0.002
MS.824         	3.317          	0.002
MS.825         	3.312          	0.002
MS.826         	3.305          	0.004
MS.827         	3.297          	0.008
MS.828         	3.293          	0.004
MS.829         	3.285          	0.002
MS.830         	3.277          	0.000
MS.831         	3.273          	0.000
MS.832         	3.265          	0.002
MS.833         	3.26           	0.000
MS.834         	3.252          	0.004
MS.835         	3.245          	0.006
MS.836         	3.24           	0.006
MS.837         	3.232          	0.002
MS.838         	3.227          	0.004
MS.839         	3.22           	0.004
MS.840         	3.212          	0.004
MS.841         	3.207          	0.002
MS.842         	3.2            	0.002
MS.843         	3.195          	0.006
MS.844         	3.188          	0.002
MS.845         	3.182          	0.002
MS.846         	3.175          	0.002
MS.847         	3.17           	0.000
MS.848         	3.162          	0.002
MS.849         	3.155          	0.006
MS.850         	3.15           	0.002
MS.851         	3.142          	0.004
MS.852         	3.138          	0.002
MS.853         	3.13           	0.000
MS.854         	3.125          	0.000
MS.855         	3.117          	0.004
MS.856         	3.112          	0.002
MS.857         	3.105          	0.004
MS.858         	3.1            	0.006
MS.859         	3.092          	0.002
MS.860         	3.087          	0.006
MS.861         	3.082          	0.004
DERIVED EXCITABILITY VARIABLES
Program = QTracP 3/4/2020
Threshold method = 6 (optimised for CAP, using data for present condition only)
SR method = 1 (using actual data values)
6.                 	0.000               	Peak response\(mV)
9.                 	30                  	Temperature ( C)
17.                	48                  	Age (years)
18.                	2                   	Sex (M=1, F=2)

EXTRA VARIABLES

MScPeak(mV) = 5.91
MScS5(mA) = 4.11
MScS50(mA) = 5.63
MScS95(mA) = 7.46
MScNSteps = 0
MScSteps(%) = 0.0
MScStepMax(%) = 0.0
MScD50 = 70
MScSlope = 4.41
MSFPeakAmp(mV) = 6
MSFNUnits = 176
MSFMeanUnitAmp(uV) = 34.1
MSFHuntTime(m) = 3.66
MSFError(%) = 0.917
MSFNLarge = 62.87
MSFMedianAmp(%) = 0.516
MSFMedianAmp(mV) = 0.031
MSFHalfAmpAmp(%) = 0.593
MSFHalfAmpAmp(mV) = 0.0356
MSFLargestAmp(%) = 1.44
MSFLargestAmp(mV) = 0.0866
MSFMeanRS(%) = 2
MSFOpts = 10106121
MScDuration(min) = 8.2
MSFTraces = 570
MSFSizeLimit(uV) = 15
MSFLimitType = 1
MSFSmallestAmp(uV) = 15.4

EXTRA WAVEFORMS


!MScan Model
!176
	1	3.65	0.41	2
	2	3.72	0.34	2
	3	3.81	0.69	2
	4	3.88	0.55	2
	5	3.91	0.37	2
	6	3.95	0.36	2
	7	3.98	0.41	2
	8	4.01	0.4	2
	9	4.04	0.36	2
	10	4.07	0.62	2
	11	4.12	0.53	2
	12	4.15	0.47	2
	13	4.18	0.37	2
	14	4.2	0.32	2
	15	4.22	0.42	2
	16	4.26	0.39	2
	17	4.28	0.37	2
	18	4.3	0.45	2
	19	4.35	0.86	2
	20	4.39	0.61	2
	21	4.41	0.48	2
	22	4.44	0.57	2
	23	4.46	0.73	2
	24	4.48	0.57	2
	25	4.49	0.44	2
	26	4.52	0.5	2
	27	4.53	0.4	2
	28	4.54	0.44	2
	29	4.55	0.36	2
	30	4.57	0.4	2
	31	4.58	0.46	2
	32	4.6	0.56	2
	33	4.62	0.48	2
	34	4.63	0.56	2
	35	4.65	0.48	2
	36	4.67	0.47	2
	37	4.69	0.35	2
	38	4.7	0.4	2
	39	4.73	0.65	2
	40	4.76	0.74	2
	41	4.8	1	2
	42	4.84	1	2.4
	43	4.86	0.43	2
	44	4.88	0.46	2
	45	4.89	0.3	2
	46	4.89	0.27	2
	47	4.9	0.28	2
	48	4.91	0.29	2
	49	4.94	0.5	2
	50	4.95	0.29	2
	51	4.96	0.36	2
	52	4.97	0.43	2
	53	4.99	0.5	2
	54	5	0.53	2
	55	5.02	0.53	2
	56	5.03	0.58	2
	57	5.05	0.59	2
	58	5.06	0.52	2
	59	5.07	0.47	2
	60	5.08	0.3	2
	61	5.1	0.55	2
	62	5.11	0.7	2
	63	5.13	0.77	2
	64	5.15	0.62	2
	65	5.16	0.61	2
	66	5.18	0.75	2
	67	5.2	0.65	2
	68	5.21	0.35	2
	69	5.22	0.33	2
	70	5.23	0.29	2
	71	5.24	0.31	2
	72	5.25	0.43	2
	73	5.26	0.47	2
	74	5.27	0.65	2
	75	5.29	0.67	2
	76	5.3	0.48	2
	77	5.31	0.45	2
	78	5.33	0.44	2
	79	5.34	0.48	2
	80	5.35	0.46	2
	81	5.37	0.48	2
	82	5.38	0.52	2
	83	5.4	0.5	2
	84	5.41	0.65	2
	85	5.44	1.05	2
	86	5.46	0.81	2
	87	5.48	0.69	2
	88	5.5	0.79	2
	89	5.52	0.79	2
	90	5.53	0.69	2
	91	5.55	0.67	2
	92	5.56	0.52	2
	93	5.61	1.15	2
	94	5.64	0.96	2
	95	5.66	0.52	2
	96	5.68	0.76	2
	97	5.69	0.78	2
	98	5.7	0.51	2
	99	5.72	0.51	2
	100	5.73	0.67	2
	101	5.74	0.56	2
	102	5.75	0.65	2
	103	5.78	1.14	2
	104	5.8	0.6	2
	105	5.8	0.97	2
	106	5.83	0.95	2
	107	5.85	1.08	2
	108	5.87	0.67	2
	109	5.88	0.26	2
	110	5.88	0.26	2
	111	5.89	0.26	2
	112	5.91	0.5	2
	113	5.91	0.34	2
	114	5.92	0.34	2
	115	5.93	0.45	2
	116	5.94	0.62	2
	117	5.96	0.49	2
	118	5.97	0.45	2
	119	5.98	0.49	2
	120	6	0.48	2
	121	6.01	0.52	2
	122	6.03	0.79	2
	123	6.04	0.54	2
	124	6.05	0.5	2
	125	6.06	0.47	2
	126	6.09	0.69	2
	127	6.1	0.47	2
	128	6.11	0.55	2
	129	6.13	0.84	2
	130	6.16	0.62	2
	131	6.17	0.49	2
	132	6.19	0.38	2
	133	6.2	0.59	2
	134	6.22	0.68	2
	135	6.24	0.52	2
	136	6.26	0.82	2
	137	6.29	0.72	2
	138	6.33	1.19	2
	139	6.37	0.96	2
	140	6.42	0.95	2
	141	6.47	0.99	2
	142	6.5	0.55	2
	143	6.53	0.53	2
	144	6.55	0.47	2
	145	6.56	0.28	2
	146	6.59	0.4	2
	147	6.6	0.36	2
	148	6.61	0.36	2
	149	6.65	0.88	2
	150	6.68	0.58	2
	151	6.7	0.31	2
	152	6.72	0.46	2
	153	6.74	0.35	2
	154	6.78	0.64	2
	155	6.84	0.8	2
	156	6.92	1.22	2
	157	7.01	1.44	2
	158	7.06	0.66	2
	159	7.1	0.56	2
	160	7.14	0.44	2
	161	7.17	0.36	2
	162	7.21	0.47	2
	163	7.26	0.45	2
	164	7.33	0.72	2
	165	7.43	0.82	2
	166	7.53	0.75	2
	167	7.63	0.77	2
	168	7.7	0.41	2
	169	7.88	0.8	2
	170	8	0.54	2
	171	8.13	0.58	2
	172	8.26	0.66	2
	173	8.45	0.49	2
	174	8.58	0.5	2
	175	8.8	0.47	2
	176	9.02	0.55	2

