File:              	C:\Qtrac\Data\Daniel M Sørensen\MScan multicentre study\Data from centres\Antalya\Processed data\TR.NC.ANT.1.1-NCC00207B.QZD
Name:              	TR.NC.ANT.1.1
Protocol:          	MSCAN-R2
Date:              	7/2/20
Start time:        	19:58:51
Age:               	68
Sex:               	F
Temperature:       	34.6
S/R sites:         	ADM
NC/disease:        	NC
Operator:          	AB
Comments:          	RIGHT ULNAR MSCAN
M-SCAN DATA (9.3-1.5m)
Scanpts: 70, 75, 806, 827
Stim. (mA)     	Amp. (mV)
MS.1           	19.5           	6.913
MS.2           	19.5           	6.894
MS.3           	19.5           	6.907
MS.4           	19.5           	6.909
MS.5           	19.5           	6.915
MS.6           	19.5           	6.896
MS.7           	19.5           	6.927
MS.8           	19.5           	6.933
MS.9           	19.5           	6.848
MS.10          	19.5           	6.931
MS.11          	19.5           	6.941
MS.12          	19.5           	6.941
MS.13          	19.5           	6.927
MS.14          	19.5           	6.937
MS.15          	19.5           	6.971
MS.16          	19.5           	6.969
MS.17          	19.5           	6.949
MS.18          	19.5           	6.963
MS.19          	19.5           	6.985
MS.20          	19.5           	6.957
MS.21          	19.5           	6.979
MS.22          	19.5           	6.989
MS.23          	19.5           	7.001
MS.24          	19.422         	6.957
MS.25          	19.382         	6.965
MS.26          	19.345         	6.967
MS.27          	19.305         	6.955
MS.28          	19.267         	6.989
MS.29          	19.23          	6.953
MS.30          	19.19          	6.953
MS.31          	19.153         	6.955
MS.32          	19.115         	6.981
MS.33          	19.075         	6.977
MS.34          	19.038         	6.951
MS.35          	19             	6.979
MS.36          	18.962         	6.973
MS.37          	18.922         	6.957
MS.38          	18.885         	6.981
MS.39          	18.847         	6.969
MS.40          	18.81          	6.973
MS.41          	18.772         	6.961
MS.42          	18.735         	6.979
MS.43          	18.698         	6.961
MS.44          	18.66          	6.963
MS.45          	18.622         	6.977
MS.46          	18.585         	6.981
MS.47          	18.55          	6.979
MS.48          	18.512         	6.979
MS.49          	18.475         	6.995
MS.50          	18.438         	6.969
MS.51          	18.4           	6.985
MS.52          	18.365         	6.989
MS.53          	18.327         	7.009
MS.54          	18.29          	6.993
MS.55          	18.255         	7.001
MS.56          	18.217         	7.023
MS.57          	18.182         	7.009
MS.58          	18.145         	6.995
MS.59          	18.11          	7.005
MS.60          	18.073         	7.058
MS.61          	18.038         	7.08
MS.62          	18             	7.084
MS.63          	17.965         	7.058
MS.64          	17.93          	7.046
MS.65          	17.892         	7.052
MS.66          	17.858         	7.078
MS.67          	17.823         	7.074
MS.68          	17.785         	7.09
MS.69          	17.75          	7.086
MS.70          	17.715         	7.106
MS.71          	17.68          	7.142
MS.72          	17.645         	7.11
MS.73          	17.61          	7.11
MS.74          	17.575         	7.13
MS.75          	17.538         	7.136
MS.76          	17.503         	7.082
MS.77          	17.467         	7.12
MS.78          	17.435         	7.064
MS.79          	17.4           	7.104
MS.80          	17.365         	7.112
MS.81          	17.33          	7.126
MS.82          	17.295         	7.122
MS.83          	17.26          	7.098
MS.84          	17.225         	7.098
MS.85          	17.192         	7.06
MS.86          	17.157         	7.09
MS.87          	17.122         	7.048
MS.88          	17.087         	7.104
MS.89          	17.055         	7.084
MS.90          	17.02          	7.027
MS.91          	16.987         	6.971
MS.92          	16.952         	6.991
MS.93          	16.917         	7.039
MS.94          	16.885         	7.021
MS.95          	16.85          	7.082
MS.96          	16.817         	7.011
MS.97          	16.782         	6.991
MS.98          	16.75          	6.957
MS.99          	16.717         	7.046
MS.100         	16.682         	7.035
MS.101         	16.65          	6.87
MS.102         	16.618         	6.983
MS.103         	16.583         	6.991
MS.104         	16.55          	7.007
MS.105         	16.517         	6.927
MS.106         	16.485         	6.953
MS.107         	16.452         	6.947
MS.108         	16.417         	6.999
MS.109         	16.385         	6.925
MS.110         	16.352         	7.013
MS.111         	16.32          	6.919
MS.112         	16.288         	6.858
MS.113         	16.255         	6.917
MS.114         	16.222         	7.003
MS.115         	16.19          	6.915
MS.116         	16.157         	6.997
MS.117         	16.125         	6.969
MS.118         	16.092         	6.905
MS.119         	16.062         	6.898
MS.120         	16.03          	6.973
MS.121         	15.997         	6.903
MS.122         	15.965         	6.913
MS.123         	15.932         	6.898
MS.124         	15.902         	6.903
MS.125         	15.87          	6.957
MS.126         	15.837         	6.892
MS.127         	15.807         	6.947
MS.128         	15.775         	6.907
MS.129         	15.742         	6.88
MS.130         	15.712         	6.848
MS.131         	15.68          	6.848
MS.132         	15.65          	6.866
MS.133         	15.617         	6.874
MS.134         	15.587         	6.939
MS.135         	15.555         	6.755
MS.136         	15.525         	6.834
MS.137         	15.492         	6.725
MS.138         	15.462         	6.794
MS.139         	15.432         	6.886
MS.140         	15.4           	6.778
MS.141         	15.37          	6.707
MS.142         	15.34          	6.76
MS.143         	15.307         	6.836
MS.144         	15.277         	6.739
MS.145         	15.247         	6.735
MS.146         	15.217         	6.778
MS.147         	15.188         	6.8
MS.148         	15.155         	6.778
MS.149         	15.125         	6.768
MS.150         	15.095         	6.766
MS.151         	15.065         	6.739
MS.152         	15.035         	6.721
MS.153         	15.005         	6.699
MS.154         	14.975         	6.705
MS.155         	14.945         	6.778
MS.156         	14.915         	6.709
MS.157         	14.885         	6.401
MS.158         	14.855         	6.625
MS.159         	14.827         	6.715
MS.160         	14.797         	6.639
MS.161         	14.767         	6.375
MS.162         	14.737         	6.411
MS.163         	14.707         	6.407
MS.164         	14.68          	6.449
MS.165         	14.65          	6.339
MS.166         	14.62          	6.333
MS.167         	14.59          	6.355
MS.168         	14.562         	6.365
MS.169         	14.532         	6.32
MS.170         	14.505         	6.278
MS.171         	14.475         	6.288
MS.172         	14.445         	6.357
MS.173         	14.417         	6.318
MS.174         	14.387         	6.159
MS.175         	14.36          	6.034
MS.176         	14.33          	6.179
MS.177         	14.302         	6.296
MS.178         	14.273         	6.173
MS.179         	14.245         	6.149
MS.180         	14.217         	6.188
MS.181         	14.188         	5.992
MS.182         	14.16          	5.996
MS.183         	14.132         	6.004
MS.184         	14.102         	6.177
MS.185         	14.075         	6.061
MS.186         	14.047         	5.926
MS.187         	14.02          	5.861
MS.188         	13.99          	6.018
MS.189         	13.962         	5.887
MS.190         	13.935         	5.908
MS.191         	13.907         	5.988
MS.192         	13.88          	6.042
MS.193         	13.852         	5.867
MS.194         	13.825         	5.64
MS.195         	13.797         	5.829
MS.196         	13.77          	5.595
MS.197         	13.742         	5.891
MS.198         	13.715         	5.724
MS.199         	13.688         	5.624
MS.200         	13.66          	5.706
MS.201         	13.632         	5.819
MS.202         	13.605         	5.551
MS.203         	13.577         	5.321
MS.204         	13.55          	5.493
MS.205         	13.523         	5.515
MS.206         	13.495         	5.601
MS.207         	13.47          	5.47
MS.208         	13.443         	5.233
MS.209         	13.415         	5.168
MS.210         	13.387         	5.195
MS.211         	13.362         	5.223
MS.212         	13.335         	5.15
MS.213         	13.307         	5.235
MS.214         	13.282         	5.104
MS.215         	13.255         	5.126
MS.216         	13.23          	5.106
MS.217         	13.202         	5.068
MS.218         	13.175         	5.013
MS.219         	13.15          	5.267
MS.220         	13.122         	5.017
MS.221         	13.097         	4.943
MS.222         	13.07          	4.979
MS.223         	13.045         	4.87
MS.224         	13.02          	4.838
MS.225         	12.992         	4.852
MS.226         	12.967         	4.886
MS.227         	12.94          	4.786
MS.228         	12.915         	4.737
MS.229         	12.89          	4.731
MS.230         	12.862         	4.852
MS.231         	12.837         	4.78
MS.232         	12.812         	4.701
MS.233         	12.787         	4.629
MS.234         	12.76          	4.731
MS.235         	12.735         	4.546
MS.236         	12.71          	4.431
MS.237         	12.685         	4.526
MS.238         	12.66          	4.673
MS.239         	12.635         	4.469
MS.240         	12.61          	4.343
MS.241         	12.585         	4.437
MS.242         	12.557         	4.413
MS.243         	12.532         	4.33
MS.244         	12.507         	4.367
MS.245         	12.483         	4.353
MS.246         	12.457         	4.316
MS.247         	12.432         	4.308
MS.248         	12.41          	4.425
MS.249         	12.385         	4.407
MS.250         	12.36          	4.264
MS.251         	12.335         	4.236
MS.252         	12.31          	4.191
MS.253         	12.285         	4.304
MS.254         	12.26          	4.181
MS.255         	12.238         	4.131
MS.256         	12.212         	3.819
MS.257         	12.188         	3.841
MS.258         	12.162         	3.893
MS.259         	12.14          	3.666
MS.260         	12.115         	3.799
MS.261         	12.09          	3.716
MS.262         	12.065         	3.634
MS.263         	12.042         	3.652
MS.264         	12.017         	3.74
MS.265         	11.995         	3.509
MS.266         	11.97          	3.456
MS.267         	11.945         	3.569
MS.268         	11.922         	3.543
MS.269         	11.898         	3.444
MS.270         	11.875         	3.289
MS.271         	11.85          	3.507
MS.272         	11.827         	3.329
MS.273         	11.802         	3.134
MS.274         	11.78          	3.303
MS.275         	11.757         	3.366
MS.276         	11.733         	3.285
MS.277         	11.71          	3.291
MS.278         	11.685         	3.311
MS.279         	11.662         	3.249
MS.280         	11.64          	2.923
MS.281         	11.617         	3.17
MS.282         	11.592         	3.025
MS.283         	11.57          	2.957
MS.284         	11.547         	3.017
MS.285         	11.525         	3.033
MS.286         	11.5           	2.665
MS.287         	11.477         	2.826
MS.288         	11.455         	2.771
MS.289         	11.432         	2.78
MS.290         	11.41          	2.711
MS.291         	11.387         	2.755
MS.292         	11.363         	2.582
MS.293         	11.34          	2.661
MS.294         	11.318         	2.751
MS.295         	11.295         	2.34
MS.296         	11.273         	2.536
MS.297         	11.25          	2.431
MS.298         	11.227         	2.371
MS.299         	11.205         	2.375
MS.300         	11.182         	2.357
MS.301         	11.16          	2.246
MS.302         	11.137         	2.344
MS.303         	11.117         	2.377
MS.304         	11.095         	2.357
MS.305         	11.073         	2.214
MS.306         	11.05          	2.143
MS.307         	11.028         	2.091
MS.308         	11.005         	2.232
MS.309         	10.983         	1.984
MS.310         	10.962         	2.244
MS.311         	10.94          	2.085
MS.312         	10.917         	1.958
MS.313         	10.895         	2.103
MS.314         	10.875         	2.06
MS.315         	10.852         	1.833
MS.316         	10.83          	1.994
MS.317         	10.81          	1.805
MS.318         	10.787         	1.766
MS.319         	10.765         	1.678
MS.320         	10.745         	1.648
MS.321         	10.722         	1.732
MS.322         	10.702         	1.77
MS.323         	10.68          	1.613
MS.324         	10.66          	1.629
MS.325         	10.637         	1.476
MS.326         	10.617         	1.505
MS.327         	10.595         	1.484
MS.328         	10.575         	1.462
MS.329         	10.552         	1.335
MS.330         	10.532         	1.354
MS.331         	10.51          	1.414
MS.332         	10.49          	1.374
MS.333         	10.47          	1.321
MS.334         	10.448         	1.283
MS.335         	10.427         	1.335
MS.336         	10.407         	1.213
MS.337         	10.385         	1.112
MS.338         	10.365         	1.333
MS.339         	10.345         	1.319
MS.340         	10.323         	1.11
MS.341         	10.302         	1.335
MS.342         	10.282         	1.239
MS.343         	10.262         	1.253
MS.344         	10.24          	1.223
MS.345         	10.22          	1.118
MS.346         	10.2           	1.162
MS.347         	10.18          	1.031
MS.348         	10.16          	0.86
MS.349         	10.14          	1.198
MS.350         	10.12          	1.023
MS.351         	10.097         	0.987
MS.352         	10.077         	0.916
MS.353         	10.057         	1.043
MS.354         	10.037         	1.041
MS.355         	10.017         	0.969
MS.356         	9.997          	0.993
MS.357         	9.977          	1.019
MS.358         	9.957          	0.933
MS.359         	9.938          	0.739
MS.360         	9.917          	0.578
MS.361         	9.9            	0.667
MS.362         	9.88           	0.828
MS.363         	9.86           	0.729
MS.364         	9.84           	0.638
MS.365         	9.82           	0.588
MS.366         	9.8            	0.61
MS.367         	9.78           	0.604
MS.368         	9.76           	0.534
MS.369         	9.742          	0.586
MS.370         	9.722          	0.598
MS.371         	9.702          	0.56
MS.372         	9.682          	0.536
MS.373         	9.665          	0.576
MS.374         	9.645          	0.564
MS.375         	9.625          	0.53
MS.376         	9.605          	0.51
MS.377         	9.587          	0.558
MS.378         	9.568          	0.491
MS.379         	9.55           	0.423
MS.380         	9.53           	0.425
MS.381         	9.51           	0.465
MS.382         	9.492          	0.443
MS.383         	9.472          	0.367
MS.384         	9.452          	0.415
MS.385         	9.435          	0.385
MS.386         	9.415          	0.361
MS.387         	9.398          	0.367
MS.388         	9.377          	0.324
MS.389         	9.36           	0.361
MS.390         	9.34           	0.312
MS.391         	9.323          	0.276
MS.392         	9.302          	0.304
MS.393         	9.285          	0.29
MS.394         	9.267          	0.262
MS.395         	9.247          	0.306
MS.396         	9.23           	0.254
MS.397         	9.21           	0.191
MS.398         	9.193          	0.246
MS.399         	9.175          	0.248
MS.400         	9.155          	0.201
MS.401         	9.137          	0.254
MS.402         	9.12           	0.183
MS.403         	9.1            	0.252
MS.404         	9.082          	0.097
MS.405         	9.065          	0.169
MS.406         	9.047          	0.165
MS.407         	9.028          	0.105
MS.408         	9.01           	0.171
MS.409         	8.992          	0.179
MS.410         	8.975          	0.252
MS.411         	8.957          	0.254
MS.412         	8.94           	0.165
MS.413         	8.92           	0.113
MS.414         	8.903          	0.175
MS.415         	8.885          	0.101
MS.416         	8.867          	0.169
MS.417         	8.85           	0.167
MS.418         	8.832          	0.101
MS.419         	8.815          	0.107
MS.420         	8.797          	0.099
MS.421         	8.78           	0.107
MS.422         	8.762          	0.167
MS.423         	8.745          	0.107
MS.424         	8.727          	0.101
MS.425         	8.71           	0.107
MS.426         	8.693          	0.101
MS.427         	8.675          	0.101
MS.428         	8.658          	0.101
MS.429         	8.64           	0.103
MS.430         	8.622          	0.103
MS.431         	8.605          	0.101
MS.432         	8.587          	0.103
MS.433         	8.57           	0.101
MS.434         	8.555          	0.105
MS.435         	8.537          	0.097
MS.436         	8.52           	0.101
MS.437         	8.502          	0.101
MS.438         	8.485          	0.097
MS.439         	8.47           	0.097
MS.440         	8.452          	0.103
MS.441         	8.435          	0.103
MS.442         	8.417          	0.099
MS.443         	8.403          	0.101
MS.444         	8.385          	0.099
MS.445         	8.367          	0.101
MS.446         	8.35           	0.103
MS.447         	8.335          	0.103
MS.448         	8.318          	0.099
MS.449         	8.302          	0.097
MS.450         	8.285          	0.103
MS.451         	8.267          	0.097
MS.452         	8.252          	0.103
MS.453         	8.235          	0.101
MS.454         	8.217          	0.099
MS.455         	8.202          	0.095
MS.456         	8.185          	0.103
MS.457         	8.17           	0.101
MS.458         	8.153          	0.101
MS.459         	8.137          	0.097
MS.460         	8.12           	0.097
MS.461         	8.105          	0.099
MS.462         	8.087          	0.101
MS.463         	8.073          	0.099
MS.464         	8.055          	0.099
MS.465         	8.04           	0.095
MS.466         	8.025          	0.101
MS.467         	8.007          	0.095
MS.468         	7.992          	0.105
MS.469         	7.975          	0.103
MS.470         	7.96           	0.103
MS.471         	7.945          	0.099
MS.472         	7.927          	0.107
MS.473         	7.912          	0.101
MS.474         	7.898          	0.101
MS.475         	7.88           	0.099
MS.476         	7.865          	0.097
MS.477         	7.85           	0.095
MS.478         	7.832          	0.097
MS.479         	7.817          	0.099
MS.480         	7.802          	0.097
MS.481         	7.787          	0.099
MS.482         	7.77           	0.099
MS.483         	7.755          	0.099
MS.484         	7.74           	0.103
MS.485         	7.725          	0.099
MS.486         	7.71           	0.097
MS.487         	7.695          	0.101
MS.488         	7.677          	0.097
MS.489         	7.662          	0.097
MS.490         	7.648          	0.097
MS.491         	7.632          	0.101
MS.492         	7.617          	0.097
MS.493         	7.602          	0.095
MS.494         	7.587          	0.095
MS.495         	7.572          	0.099
MS.496         	7.557          	0.097
MS.497         	7.543          	0.095
MS.498         	7.527          	0.099
MS.499         	7.512          	0.095
MS.500         	7.497          	0.097
MS.501         	7.482          	0.097
MS.502         	7.467          	0.097
MS.503         	7.452          	0.095
MS.504         	7.438          	0.095
MS.505         	7.422          	0.097
MS.506         	7.407          	0.099
MS.507         	7.392          	0.093
MS.508         	7.378          	0.097
MS.509         	7.362          	0.093
MS.510         	7.347          	0.097
MS.511         	7.332          	0.097
MS.512         	7.317          	0.101
MS.513         	7.305          	0.101
MS.514         	7.29           	0.093
MS.515         	7.275          	0.091
MS.516         	7.26           	0.093
MS.517         	7.245          	0.095
MS.518         	7.23           	0.093
MS.519         	7.217          	0.097
MS.520         	7.202          	0.097
MS.521         	7.188          	0.099
MS.522         	7.172          	0.093
MS.523         	7.16           	0.093
MS.524         	7.145          	0.093
MS.525         	7.13           	0.101
MS.526         	7.117          	0.089
MS.527         	7.102          	0.093
MS.528         	7.087          	0.091
MS.529         	7.075          	0.095
MS.530         	7.06           	0.093
MS.531         	7.045          	0.093
MS.532         	7.032          	0.091
MS.533         	7.017          	0.095
MS.534         	7.003          	0.093
MS.535         	6.99           	0.099
MS.536         	6.975          	0.091
MS.537         	6.962          	0.091
MS.538         	6.947          	0.091
MS.539         	6.935          	0.095
MS.540         	6.92           	0.093
MS.541         	6.905          	0.099
MS.542         	6.892          	0.093
MS.543         	6.878          	0.095
MS.544         	6.865          	0.089
MS.545         	6.85           	0.093
MS.546         	6.837          	0.091
MS.547         	6.825          	0.095
MS.548         	6.81           	0.089
MS.549         	6.797          	0.093
MS.550         	6.782          	0.091
MS.551         	6.77           	0.093
MS.552         	6.755          	0.091
MS.553         	6.742          	0.093
MS.554         	6.73           	0.089
MS.555         	6.715          	0.095
MS.556         	6.702          	0.087
MS.557         	6.688          	0.095
MS.558         	6.675          	0.087
MS.559         	6.662          	0.095
MS.560         	6.648          	0.089
MS.561         	6.635          	0.093
MS.562         	6.622          	0.085
MS.563         	6.61           	0.091
MS.564         	6.595          	0.091
MS.565         	6.582          	0.093
MS.566         	6.57           	0.087
MS.567         	6.555          	0.091
MS.568         	6.543          	0.091
MS.569         	6.53           	0.087
MS.570         	6.517          	0.089
MS.571         	6.505          	0.091
MS.572         	6.49           	0.087
MS.573         	6.477          	0.093
MS.574         	6.465          	0.089
MS.575         	6.452          	0.093
MS.576         	6.44           	0.087
MS.577         	6.427          	0.089
MS.578         	6.412          	0.091
MS.579         	6.4            	0.089
MS.580         	6.387          	0.091
MS.581         	6.375          	0.091
MS.582         	6.362          	0.093
MS.583         	6.35           	0.089
MS.584         	6.338          	0.091
MS.585         	6.325          	0.093
MS.586         	6.312          	0.093
MS.587         	6.3            	0.089
MS.588         	6.287          	0.091
MS.589         	6.275          	0.091
MS.590         	6.262          	0.091
MS.591         	6.25           	0.093
MS.592         	6.237          	0.089
MS.593         	6.225          	0.093
MS.594         	6.213          	0.093
MS.595         	6.2            	0.087
MS.596         	6.188          	0.089
MS.597         	6.175          	0.091
MS.598         	6.162          	0.089
MS.599         	6.15           	0.085
MS.600         	6.137          	0.087
MS.601         	6.125          	0.089
MS.602         	6.112          	0.089
MS.603         	6.1            	0.093
MS.604         	6.088          	0.091
MS.605         	6.077          	0.091
MS.606         	6.065          	0.091
MS.607         	6.052          	0.091
MS.608         	6.04           	0.093
MS.609         	6.027          	0.087
MS.610         	6.015          	0.095
MS.611         	6.005          	0.087
MS.612         	5.992          	0.091
MS.613         	5.98           	0.087
MS.614         	5.967          	0.093
MS.615         	5.955          	0.089
MS.616         	5.945          	0.091
MS.617         	5.932          	0.087
MS.618         	5.92           	0.093
MS.619         	5.907          	0.089
MS.620         	5.898          	0.093
MS.621         	5.885          	0.091
MS.622         	5.872          	0.093
MS.623         	5.862          	0.085
MS.624         	5.85           	0.097
MS.625         	5.838          	0.089
MS.626         	5.827          	0.093
MS.627         	5.815          	0.091
MS.628         	5.802          	0.095
MS.629         	5.793          	0.089
MS.630         	5.78           	0.093
MS.631         	5.767          	0.089
MS.632         	5.757          	0.093
MS.633         	5.745          	0.089
MS.634         	5.735          	0.091
MS.635         	5.722          	0.091
MS.636         	5.71           	0.091
MS.637         	5.7            	0.089
MS.638         	5.688          	0.093
MS.639         	5.677          	0.091
MS.640         	5.665          	0.089
MS.641         	5.655          	0.087
MS.642         	5.642          	0.093
MS.643         	5.632          	0.089
MS.644         	5.62           	0.093
MS.645         	5.61           	0.087
MS.646         	5.597          	0.093
MS.647         	5.588          	0.089
MS.648         	5.575          	0.091
MS.649         	5.565          	0.091
MS.650         	5.552          	0.087
MS.651         	5.543          	0.089
MS.652         	5.53           	0.089
MS.653         	5.52           	0.091
MS.654         	5.51           	0.089
MS.655         	5.497          	0.091
MS.656         	5.487          	0.091
MS.657         	5.475          	0.093
MS.658         	5.465          	0.087
MS.659         	5.455          	0.091
MS.660         	5.443          	0.089
MS.661         	5.432          	0.089
MS.662         	5.422          	0.091
MS.663         	5.41           	0.091
MS.664         	5.4            	0.089
MS.665         	5.39           	0.089
MS.666         	5.378          	0.089
MS.667         	5.367          	0.091
MS.668         	5.358          	0.089
MS.669         	5.347          	0.091
MS.670         	5.335          	0.087
MS.671         	5.325          	0.093
MS.672         	5.315          	0.087
MS.673         	5.302          	0.099
MS.674         	5.293          	0.085
MS.675         	5.282          	0.091
MS.676         	5.273          	0.087
MS.677         	5.262          	0.095
MS.678         	5.25           	0.089
MS.679         	5.24           	0.091
MS.680         	5.23           	0.085
MS.681         	5.22           	0.089
MS.682         	5.21           	0.087
MS.683         	5.197          	0.091
MS.684         	5.188          	0.093
MS.685         	5.177          	0.087
MS.686         	5.168          	0.089
MS.687         	5.157          	0.087
MS.688         	5.148          	0.089
MS.689         	5.137          	0.089
MS.690         	5.128          	0.091
MS.691         	5.115          	0.093
MS.692         	5.105          	0.091
MS.693         	5.095          	0.091
MS.694         	5.085          	0.089
MS.695         	5.075          	0.089
MS.696         	5.065          	0.091
MS.697         	5.055          	0.087
MS.698         	5.045          	0.091
MS.699         	5.035          	0.089
MS.700         	5.025          	0.091
MS.701         	5.015          	0.087
MS.702         	5.005          	0.089
MS.703         	4.995          	0.087
MS.704         	4.985          	0.089
MS.705         	4.975          	0.091
MS.706         	4.965          	0.091
MS.707         	4.955          	0.087
MS.708         	4.945          	0.091
MS.709         	4.935          	0.089
MS.710         	4.925          	0.095
MS.711         	4.915          	0.091
MS.712         	4.905          	0.089
MS.713         	4.895          	0.089
MS.714         	4.885          	0.091
MS.715         	4.878          	0.089
MS.716         	4.867          	0.091
MS.717         	4.858          	0.089
MS.718         	4.847          	0.093
MS.719         	4.838          	0.087
MS.720         	4.827          	0.091
MS.721         	4.818          	0.087
MS.722         	4.807          	0.091
MS.723         	4.8            	0.089
MS.724         	4.79           	0.093
MS.725         	4.78           	0.087
MS.726         	4.77           	0.091
MS.727         	4.76           	0.089
MS.728         	4.753          	0.089
MS.729         	4.742          	0.089
MS.730         	4.733          	0.089
MS.731         	4.722          	0.091
MS.732         	4.713          	0.087
MS.733         	4.705          	0.091
MS.734         	4.695          	0.089
MS.735         	4.685          	0.087
MS.736         	4.675          	0.091
MS.737         	4.668          	0.089
MS.738         	4.657          	0.091
MS.739         	4.648          	0.093
MS.740         	4.637          	0.089
MS.741         	4.63           	0.091
MS.742         	4.62           	0.089
MS.743         	4.61           	0.091
MS.744         	4.602          	0.091
MS.745         	4.592          	0.093
MS.746         	4.582          	0.089
MS.747         	4.575          	0.091
MS.748         	4.565          	0.008
MS.749         	4.555          	0.095
MS.750         	4.548          	0.008
MS.751         	4.537          	0.091
MS.752         	4.527          	0.089
MS.753         	4.52           	0.095
MS.754         	4.51           	0.012
MS.755         	4.503          	0.091
MS.756         	4.492          	0.012
MS.757         	4.483          	0.014
MS.758         	4.475          	0.01
MS.759         	4.465          	0.01
MS.760         	4.457          	0.012
MS.761         	4.447          	0.093
MS.762         	4.44           	0.014
MS.763         	4.43           	0.014
MS.764         	4.42           	0.012
MS.765         	4.412          	0.02
MS.766         	4.402          	0.016
MS.767         	4.395          	0.014
MS.768         	4.385          	0.012
MS.769         	4.378          	0.014
MS.770         	4.367          	0.012
MS.771         	4.36           	0.014
MS.772         	4.35           	0.014
MS.773         	4.342          	0.016
MS.774         	4.332          	0.01
MS.775         	4.325          	0.01
MS.776         	4.318          	0.01
MS.777         	4.307          	0.014
MS.778         	4.3            	0.014
MS.779         	4.29           	0.012
MS.780         	4.282          	0.012
MS.781         	4.273          	0.012
MS.782         	4.265          	0.01
MS.783         	4.257          	0.012
MS.784         	4.247          	0.016
MS.785         	4.24           	0.01
MS.786         	4.23           	0.016
MS.787         	4.222          	0.012
MS.788         	4.215          	0.016
MS.789         	4.205          	0.012
MS.790         	4.197          	0.012
MS.791         	4.19           	0.018
MS.792         	4.18           	0.016
MS.793         	4.173          	0.012
MS.794         	4.162          	0.018
MS.795         	4.155          	0.016
MS.796         	4.148          	0.012
MS.797         	4.14           	0.014
MS.798         	4.13           	0.018
MS.799         	4.122          	0.016
MS.800         	4.115          	0.016
MS.801         	4.105          	0.016
MS.802         	4.097          	0.016
MS.803         	4.09           	0.016
MS.804         	4.082          	0.02
MS.805         	4.072          	0.014
MS.806         	4.065          	0.016
MS.807         	4.057          	0.018
MS.808         	4.05           	0.014
MS.809         	4.04           	0.018
MS.810         	4.032          	0.016
MS.811         	4.025          	0.016
MS.812         	4.017          	0.016
MS.813         	4.007          	0.018
MS.814         	4              	0.016
MS.815         	3.992          	0.016
MS.816         	3.985          	0.016
MS.817         	3.977          	0.014
MS.818         	3.967          	0.014
MS.819         	3.96           	0.016
MS.820         	3.952          	0.008
MS.821         	3.945          	0.016
MS.822         	3.938          	0.014
MS.823         	3.93           	0.018
MS.824         	3.922          	0.012
MS.825         	3.912          	0.016
MS.826         	3.905          	0.014
MS.827         	3.897          	0.016
DERIVED EXCITABILITY VARIABLES
Program = QTracP 3/4/2020
Threshold method = 6 (optimised for CAP, using data for present condition only)
SR method = 1 (using actual data values)
6.                 	0.000               	Peak response\(mV)
9.                 	34.6                	Temperature ( C)
17.                	68                  	Age (years)
18.                	2                   	Sex (M=1, F=2)

EXTRA VARIABLES

MScPeak(mV) = 6.92
MScS5(mA) = 9.37
MScS50(mA) = 11.91
MScS95(mA) = 14.85
MScNSteps = 3
MScSteps(%) = 8.1
MScStepMax(%) = 3.4
MScD50 = 48
MScSlope = 4.64
MSFPeakAmp(mV) = 7.11
MSFNUnits = 139
MSFMeanUnitAmp(uV) = 51.1
MSFHuntTime(m) = 4.45
MSFError(%) = 1.57
MSFNLarge = 42.71
MSFMedianAmp(%) = 0.619
MSFMedianAmp(mV) = 0.044
MSFHalfAmpAmp(%) = 0.811
MSFHalfAmpAmp(mV) = 0.0576
MSFLargestAmp(%) = 2.29
MSFLargestAmp(mV) = 0.163
MSFMeanRS(%) = 1.99
MSFOpts = 10106121
MScDuration(min) = 7.8
MSFTraces = 758
MSFSizeLimit(uV) = 17.8
MSFLimitType = 1
MSFSmallestAmp(uV) = 18.1

EXTRA WAVEFORMS


!MScan Model
!139
	1	4.6	0.99	2
	2	8.77	0.44	2
	3	9.07	1.11	2
	4	9.19	0.5	2
	5	9.22	0.27	2
	6	9.25	0.3	2
	7	9.32	0.49	2
	8	9.35	0.25	2
	9	9.4	0.5	2
	10	9.43	0.27	2
	11	9.45	0.28	2
	12	9.48	0.29	2
	13	9.51	0.26	2
	14	9.55	0.46	2
	15	9.6	0.42	2
	16	9.64	0.33	2
	17	9.76	1.1	2
	18	9.8	0.58	2
	19	9.84	0.79	2
	20	9.87	0.6	2
	21	9.91	0.42	2
	22	9.95	0.93	2
	23	10.04	1.98	2
	24	10.18	1.86	2
	25	10.29	1.22	2
	26	10.4	1.29	2
	27	10.48	0.98	2
	28	10.51	0.34	2
	29	10.53	0.46	2
	30	10.55	0.44	2
	31	10.57	0.33	2
	32	10.59	0.32	2
	33	10.61	0.3	2
	34	10.62	0.32	2
	35	10.64	0.37	2
	36	10.66	0.37	2
	37	10.67	0.38	2
	38	10.69	0.39	2
	39	10.71	0.44	2
	40	10.73	0.5	2
	41	10.74	0.48	2
	42	10.76	0.46	2
	43	10.79	0.75	2
	44	10.82	0.66	2
	45	10.85	0.58	2
	46	10.89	0.73	2
	47	10.93	0.92	2
	48	10.97	0.87	2
	49	11.02	1.08	2
	50	11.09	1.13	2
	51	11.13	0.56	2
	52	11.16	0.81	2
	53	11.19	0.73	2
	54	11.23	0.68	2
	55	11.26	0.65	2
	56	11.29	0.68	2
	57	11.33	0.73	2
	58	11.36	0.72	2
	59	11.4	0.74	2
	60	11.43	0.77	2
	61	11.45	0.56	2
	62	11.48	0.57	2
	63	11.5	0.74	2
	64	11.52	0.64	2
	65	11.55	0.64	2
	66	11.6	1.09	2
	67	11.64	0.69	2
	68	11.69	1.1	2
	69	11.75	1.21	2
	70	11.8	0.88	2
	71	11.84	1.03	2
	72	11.88	1.01	2
	73	11.89	0.87	2
	74	11.92	0.58	2
	75	11.96	0.43	2
	76	11.99	0.53	2
	77	12.02	0.69	2
	78	12.04	0.46	2
	79	12.06	0.49	2
	80	12.08	0.65	2
	81	12.1	0.65	2
	82	12.12	0.59	2
	83	12.14	0.57	2
	84	12.16	0.62	2
	85	12.19	0.61	2
	86	12.21	0.37	2
	87	12.23	0.56	2
	88	12.26	0.61	2
	89	12.31	1.47	2
	90	12.51	2.29	2
	91	12.55	0.43	2
	92	12.6	0.75	2
	93	12.64	0.65	2
	94	12.67	0.46	2
	95	12.71	0.26	2
	96	12.74	0.45	2
	97	12.77	0.56	2
	98	12.81	0.64	2
	99	12.85	0.61	2
	100	12.89	0.53	2
	101	12.93	0.52	2
	102	12.96	0.65	2
	103	13	0.57	2
	104	13.04	0.56	2
	105	13.08	0.49	2
	106	13.12	0.44	2
	107	13.16	0.6	2
	108	13.22	0.89	2
	109	13.27	0.94	2
	110	13.32	0.63	2
	111	13.35	0.47	2
	112	13.39	0.66	2
	113	13.43	0.84	2
	114	13.48	0.82	2
	115	13.53	0.82	2
	116	13.6	1.29	2
	117	13.67	1.43	2
	118	13.77	1.35	2
	119	13.88	1.51	2
	120	14.04	1.94	2
	121	14.17	1.13	2
	122	14.26	0.92	2
	123	14.34	0.62	2
	124	14.43	0.84	2
	125	14.53	1.06	2
	126	14.63	1.15	2
	127	14.71	0.95	2
	128	14.77	0.56	2
	129	14.85	0.55	2
	130	14.85	0.44	2
	131	14.96	1.9	1.6
	132	14.96	0.33	2
	133	15.44	1.24	2
	134	15.61	0.66	2
	135	15.77	0.47	2
	136	16.5	1.07	2
	137	16.91	0.92	2
	138	17.03	0.32	2
	139	17.19	0.33	2

