File:              	C:\Qtrac\Data\Daniel M Sørensen\MScan multicentre study\Data from centres\Oxford\Processed data\ATC01215G.QZD
Name:              	UK.OXF.NC.6.2
Protocol:          	MSCAN-R2
Date:              	15/12/20
Start time:        	17:42:19
Age:               	36
Sex:               	F
Temperature:       	33.1
S/R sites:         	TA
NC/disease:        	NC
Operator:          	AT
Comments:          	Peroneal N TA 2nd
M-SCAN DATA (8.3-1.7m)
Scanpts: 13, 20, 554, 564
Stim. (mA)     	Amp. (mV)
MS.1           	45             	4.463
MS.2           	45             	4.439
MS.3           	45             	4.467
MS.4           	45             	4.453
MS.5           	45             	4.443
MS.6           	45             	4.443
MS.7           	45             	4.431
MS.8           	45             	4.459
MS.9           	45             	4.465
MS.10          	45             	4.459
MS.11          	45             	4.467
MS.12          	45             	4.455
MS.13          	45             	4.455
MS.14          	45             	4.451
MS.15          	45             	4.459
MS.16          	45             	4.463
MS.17          	45             	4.463
MS.18          	45             	4.467
MS.19          	45             	4.443
MS.20          	45             	4.463
MS.21          	45             	4.461
MS.22          	45             	4.475
MS.23          	45             	4.467
MS.24          	44.82          	4.477
MS.25          	44.73          	4.455
MS.26          	44.642         	4.447
MS.27          	44.552         	4.445
MS.28          	44.462         	4.413
MS.29          	44.375         	4.449
MS.30          	44.285         	4.413
MS.31          	44.197         	4.407
MS.32          	44.11          	4.441
MS.33          	44.02          	4.405
MS.34          	43.932         	4.431
MS.35          	43.845         	4.409
MS.36          	43.757         	4.429
MS.37          	43.67          	4.431
MS.38          	43.583         	4.419
MS.39          	43.495         	4.413
MS.40          	43.407         	4.415
MS.41          	43.322         	4.415
MS.42          	43.235         	4.343
MS.43          	43.15          	4.373
MS.44          	43.062         	4.353
MS.45          	42.978         	4.381
MS.46          	42.89          	4.343
MS.47          	42.805         	4.353
MS.48          	42.72          	4.336
MS.49          	42.635         	4.349
MS.50          	42.55          	4.332
MS.51          	42.465         	4.347
MS.52          	42.38          	4.334
MS.53          	42.295         	4.312
MS.54          	42.21          	4.324
MS.55          	42.125         	4.381
MS.56          	42.042         	4.31
MS.57          	41.958         	4.286
MS.58          	41.872         	4.316
MS.59          	41.79          	4.324
MS.60          	41.708         	4.284
MS.61          	41.622         	4.292
MS.62          	41.54          	4.3
MS.63          	41.458         	4.298
MS.64          	41.375         	4.328
MS.65          	41.292         	4.316
MS.66          	41.21          	4.294
MS.67          	41.127         	4.246
MS.68          	41.045         	4.26
MS.69          	40.962         	4.27
MS.70          	40.88          	4.24
MS.71          	40.8           	4.226
MS.72          	40.717         	4.248
MS.73          	40.635         	4.258
MS.74          	40.555         	4.254
MS.75          	40.475         	4.25
MS.76          	40.392         	4.187
MS.77          	40.312         	4.21
MS.78          	40.232         	4.2
MS.79          	40.153         	4.204
MS.80          	40.07          	4.189
MS.81          	39.99          	4.175
MS.82          	39.912         	4.2
MS.83          	39.833         	4.157
MS.84          	39.752         	4.137
MS.85          	39.673         	4.147
MS.86          	39.592         	4.139
MS.87          	39.515         	4.167
MS.88          	39.435         	4.163
MS.89          	39.357         	4.137
MS.90          	39.278         	4.125
MS.91          	39.2           	4.127
MS.92          	39.12          	4.119
MS.93          	39.042         	4.097
MS.94          	38.965         	4.101
MS.95          	38.888         	4.117
MS.96          	38.81          	4.133
MS.97          	38.732         	4.105
MS.98          	38.655         	4.055
MS.99          	38.577         	4.075
MS.100         	38.5           	4.075
MS.101         	38.423         	4.095
MS.102         	38.347         	4.055
MS.103         	38.27          	4.059
MS.104         	38.192         	4.061
MS.105         	38.118         	4.069
MS.106         	38.04          	3.986
MS.107         	37.965         	4.057
MS.108         	37.89          	4.012
MS.109         	37.812         	4.014
MS.110         	37.737         	4.012
MS.111         	37.662         	3.988
MS.112         	37.587         	3.992
MS.113         	37.513         	3.978
MS.114         	37.438         	4.004
MS.115         	37.362         	3.92
MS.116         	37.287         	3.93
MS.117         	37.212         	3.859
MS.118         	37.138         	3.897
MS.119         	37.065         	3.946
MS.120         	36.99          	3.841
MS.121         	36.917         	3.843
MS.122         	36.842         	3.914
MS.123         	36.77          	3.805
MS.124         	36.695         	3.877
MS.125         	36.622         	3.771
MS.126         	36.55          	3.736
MS.127         	36.475         	3.777
MS.128         	36.403         	3.718
MS.129         	36.33          	3.712
MS.130         	36.257         	3.718
MS.131         	36.185         	3.779
MS.132         	36.112         	3.638
MS.133         	36.04          	3.805
MS.134         	35.97          	3.684
MS.135         	35.897         	3.71
MS.136         	35.825         	3.642
MS.137         	35.755         	3.595
MS.138         	35.682         	3.569
MS.139         	35.61          	3.583
MS.140         	35.54          	3.507
MS.141         	35.47          	3.509
MS.142         	35.397         	3.466
MS.143         	35.327         	3.458
MS.144         	35.257         	3.484
MS.145         	35.188         	3.468
MS.146         	35.115         	3.426
MS.147         	35.045         	3.4
MS.148         	34.975         	3.4
MS.149         	34.905         	3.404
MS.150         	34.835         	3.442
MS.151         	34.767         	3.354
MS.152         	34.697         	3.388
MS.153         	34.627         	3.358
MS.154         	34.557         	3.325
MS.155         	34.49          	3.41
MS.156         	34.42          	3.321
MS.157         	34.353         	3.273
MS.158         	34.282         	3.313
MS.159         	34.215         	3.372
MS.160         	34.147         	3.346
MS.161         	34.077         	3.182
MS.162         	34.01          	3.221
MS.163         	33.943         	3.255
MS.164         	33.875         	3.257
MS.165         	33.807         	3.192
MS.166         	33.74          	3.293
MS.167         	33.673         	3.082
MS.168         	33.605         	3.062
MS.169         	33.537         	3.16
MS.170         	33.47          	3.074
MS.171         	33.403         	3.033
MS.172         	33.337         	3.015
MS.173         	33.27          	3.066
MS.174         	33.202         	3.124
MS.175         	33.138         	3.019
MS.176         	33.07          	2.955
MS.177         	33.005         	3.023
MS.178         	32.94          	2.999
MS.179         	32.872         	2.888
MS.180         	32.807         	2.864
MS.181         	32.743         	2.921
MS.182         	32.677         	2.864
MS.183         	32.612         	2.751
MS.184         	32.545         	2.715
MS.185         	32.48          	2.796
MS.186         	32.415         	2.773
MS.187         	32.353         	2.715
MS.188         	32.287         	2.767
MS.189         	32.222         	2.691
MS.190         	32.157         	2.745
MS.191         	32.092         	2.596
MS.192         	32.03          	2.709
MS.193         	31.965         	2.51
MS.194         	31.903         	2.665
MS.195         	31.837         	2.653
MS.196         	31.775         	2.492
MS.197         	31.71          	2.49
MS.198         	31.647         	2.429
MS.199         	31.585         	2.526
MS.200         	31.52          	2.463
MS.201         	31.457         	2.518
MS.202         	31.395         	2.373
MS.203         	31.332         	2.357
MS.204         	31.27          	2.395
MS.205         	31.207         	2.353
MS.206         	31.145         	2.371
MS.207         	31.082         	2.351
MS.208         	31.02          	2.268
MS.209         	30.96          	2.258
MS.210         	30.897         	2.236
MS.211         	30.835         	2.262
MS.212         	30.772         	2.222
MS.213         	30.712         	2.165
MS.214         	30.65          	2.165
MS.215         	30.59          	2.155
MS.216         	30.528         	2.159
MS.217         	30.467         	2.163
MS.218         	30.407         	2.127
MS.219         	30.345         	2.077
MS.220         	30.285         	2.052
MS.221         	30.225         	2.073
MS.222         	30.165         	2.032
MS.223         	30.105         	2.062
MS.224         	30.045         	1.968
MS.225         	29.985         	2.006
MS.226         	29.925         	1.996
MS.227         	29.865         	1.96
MS.228         	29.805         	1.978
MS.229         	29.745         	1.964
MS.230         	29.685         	1.944
MS.231         	29.625         	1.897
MS.232         	29.567         	1.869
MS.233         	29.507         	1.895
MS.234         	29.45          	1.837
MS.235         	29.39          	1.791
MS.236         	29.332         	1.797
MS.237         	29.272         	1.795
MS.238         	29.215         	1.746
MS.239         	29.155         	1.764
MS.240         	29.097         	1.734
MS.241         	29.04          	1.74
MS.242         	28.983         	1.744
MS.243         	28.922         	1.704
MS.244         	28.865         	1.708
MS.245         	28.807         	1.728
MS.246         	28.75          	1.688
MS.247         	28.692         	1.635
MS.248         	28.635         	1.686
MS.249         	28.577         	1.668
MS.250         	28.522         	1.64
MS.251         	28.465         	1.609
MS.252         	28.407         	1.615
MS.253         	28.35          	1.565
MS.254         	28.295         	1.597
MS.255         	28.237         	1.579
MS.256         	28.182         	1.555
MS.257         	28.125         	1.515
MS.258         	28.07          	1.545
MS.259         	28.012         	1.529
MS.260         	27.957         	1.519
MS.261         	27.9           	1.507
MS.262         	27.845         	1.488
MS.263         	27.79          	1.492
MS.264         	27.735         	1.48
MS.265         	27.677         	1.46
MS.266         	27.622         	1.402
MS.267         	27.567         	1.42
MS.268         	27.512         	1.44
MS.269         	27.457         	1.388
MS.270         	27.403         	1.325
MS.271         	27.347         	1.374
MS.272         	27.295         	1.281
MS.273         	27.24          	1.311
MS.274         	27.185         	1.245
MS.275         	27.13          	1.253
MS.276         	27.077         	1.279
MS.277         	27.022         	1.253
MS.278         	26.967         	1.176
MS.279         	26.915         	1.202
MS.280         	26.86          	1.299
MS.281         	26.807         	1.196
MS.282         	26.752         	1.156
MS.283         	26.7           	1.057
MS.284         	26.647         	1.152
MS.285         	26.592         	1.13
MS.286         	26.54          	1.061
MS.287         	26.487         	1.049
MS.288         	26.435         	1.08
MS.289         	26.382         	1.082
MS.290         	26.327         	0.995
MS.291         	26.275         	1.015
MS.292         	26.222         	1.001
MS.293         	26.17          	1.08
MS.294         	26.12          	0.997
MS.295         	26.067         	0.983
MS.296         	26.015         	1.001
MS.297         	25.962         	0.943
MS.298         	25.91          	0.967
MS.299         	25.86          	0.922
MS.300         	25.807         	0.912
MS.301         	25.755         	0.882
MS.302         	25.705         	0.945
MS.303         	25.653         	0.927
MS.304         	25.602         	0.846
MS.305         	25.55          	0.848
MS.306         	25.5           	0.828
MS.307         	25.448         	0.836
MS.308         	25.397         	0.816
MS.309         	25.347         	0.844
MS.310         	25.297         	0.812
MS.311         	25.245         	0.741
MS.312         	25.195         	0.769
MS.313         	25.145         	0.751
MS.314         	25.095         	0.745
MS.315         	25.045         	0.743
MS.316         	24.995         	0.709
MS.317         	24.945         	0.755
MS.318         	24.895         	0.721
MS.319         	24.845         	0.731
MS.320         	24.795         	0.685
MS.321         	24.745         	0.727
MS.322         	24.698         	0.649
MS.323         	24.647         	0.675
MS.324         	24.597         	0.713
MS.325         	24.547         	0.649
MS.326         	24.5           	0.653
MS.327         	24.45          	0.606
MS.328         	24.403         	0.598
MS.329         	24.352         	0.6
MS.330         	24.305         	0.584
MS.331         	24.255         	0.62
MS.332         	24.207         	0.592
MS.333         	24.16          	0.576
MS.334         	24.11          	0.556
MS.335         	24.062         	0.528
MS.336         	24.015         	0.524
MS.337         	23.967         	0.504
MS.338         	23.917         	0.536
MS.339         	23.87          	0.518
MS.340         	23.823         	0.495
MS.341         	23.775         	0.518
MS.342         	23.727         	0.506
MS.343         	23.68          	0.479
MS.344         	23.632         	0.506
MS.345         	23.585         	0.477
MS.346         	23.54          	0.453
MS.347         	23.493         	0.463
MS.348         	23.445         	0.451
MS.349         	23.397         	0.455
MS.350         	23.352         	0.453
MS.351         	23.305         	0.431
MS.352         	23.257         	0.463
MS.353         	23.212         	0.443
MS.354         	23.165         	0.421
MS.355         	23.12          	0.417
MS.356         	23.073         	0.453
MS.357         	23.028         	0.433
MS.358         	22.98          	0.451
MS.359         	22.935         	0.419
MS.360         	22.89          	0.435
MS.361         	22.842         	0.391
MS.362         	22.797         	0.389
MS.363         	22.752         	0.405
MS.364         	22.707         	0.403
MS.365         	22.663         	0.363
MS.366         	22.615         	0.371
MS.367         	22.57          	0.334
MS.368         	22.525         	0.348
MS.369         	22.48          	0.326
MS.370         	22.435         	0.31
MS.371         	22.39          	0.28
MS.372         	22.345         	0.342
MS.373         	22.302         	0.322
MS.374         	22.257         	0.25
MS.375         	22.212         	0.242
MS.376         	22.167         	0.248
MS.377         	22.125         	0.306
MS.378         	22.08          	0.256
MS.379         	22.035         	0.262
MS.380         	21.993         	0.224
MS.381         	21.948         	0.228
MS.382         	21.905         	0.205
MS.383         	21.86          	0.214
MS.384         	21.817         	0.199
MS.385         	21.772         	0.236
MS.386         	21.73          	0.199
MS.387         	21.685         	0.165
MS.388         	21.642         	0.157
MS.389         	21.6           	0.185
MS.390         	21.555         	0.179
MS.391         	21.512         	0.165
MS.392         	21.47          	0.169
MS.393         	21.427         	0.147
MS.394         	21.385         	0.175
MS.395         	21.342         	0.135
MS.396         	21.3           	0.151
MS.397         	21.257         	0.141
MS.398         	21.215         	0.157
MS.399         	21.172         	0.135
MS.400         	21.13          	0.119
MS.401         	21.087         	0.099
MS.402         	21.045         	0.125
MS.403         	21.002         	0.111
MS.404         	20.96          	0.113
MS.405         	20.92          	0.119
MS.406         	20.877         	0.111
MS.407         	20.835         	0.097
MS.408         	20.795         	0.095
MS.409         	20.752         	0.091
MS.410         	20.71          	0.089
MS.411         	20.67          	0.101
MS.412         	20.627         	0.103
MS.413         	20.587         	0.085
MS.414         	20.545         	0.093
MS.415         	20.505         	0.091
MS.416         	20.465         	0.089
MS.417         	20.422         	0.079
MS.418         	20.382         	0.091
MS.419         	20.342         	0.091
MS.420         	20.3           	0.091
MS.421         	20.26          	0.077
MS.422         	20.22          	0.081
MS.423         	20.18          	0.091
MS.424         	20.14          	0.079
MS.425         	20.1           	0.077
MS.426         	20.057         	0.075
MS.427         	20.017         	0.073
MS.428         	19.977         	0.079
MS.429         	19.938         	0.083
MS.430         	19.9           	0.077
MS.431         	19.86          	0.068
MS.432         	19.82          	0.081
MS.433         	19.78          	0.077
MS.434         	19.74          	0.081
MS.435         	19.7           	0.081
MS.436         	19.663         	0.079
MS.437         	19.622         	0.066
MS.438         	19.583         	0.077
MS.439         	19.545         	0.07
MS.440         	19.505         	0.077
MS.441         	19.465         	0.077
MS.442         	19.427         	0.066
MS.443         	19.387         	0.07
MS.444         	19.35          	0.07
MS.445         	19.31          	0.06
MS.446         	19.272         	0.073
MS.447         	19.233         	0.066
MS.448         	19.195         	0.068
MS.449         	19.157         	0.07
MS.450         	19.118         	0.066
MS.451         	19.08          	0.073
MS.452         	19.042         	0.075
MS.453         	19.005         	0.062
MS.454         	18.965         	0.068
MS.455         	18.927         	0.064
MS.456         	18.89          	0.068
MS.457         	18.852         	0.062
MS.458         	18.815         	0.054
MS.459         	18.778         	0.06
MS.460         	18.74          	0.064
MS.461         	18.702         	0.066
MS.462         	18.665         	0.05
MS.463         	18.628         	0.046
MS.464         	18.59          	0.044
MS.465         	18.552         	0.05
MS.466         	18.517         	0.042
MS.467         	18.48          	0.042
MS.468         	18.442         	0.06
MS.469         	18.405         	0.044
MS.470         	18.37          	0.036
MS.471         	18.333         	0.06
MS.472         	18.295         	0.052
MS.473         	18.26          	0.05
MS.474         	18.222         	0.04
MS.475         	18.185         	0.042
MS.476         	18.15          	0.044
MS.477         	18.112         	0.038
MS.478         	18.077         	0.038
MS.479         	18.04          	0.04
MS.480         	18.005         	0.038
MS.481         	17.97          	0.038
MS.482         	17.932         	0.046
MS.483         	17.897         	0.04
MS.484         	17.862         	0.042
MS.485         	17.825         	0.038
MS.486         	17.79          	0.038
MS.487         	17.755         	0.038
MS.488         	17.72          	0.044
MS.489         	17.685         	0.044
MS.490         	17.647         	0.038
MS.491         	17.612         	0.038
MS.492         	17.577         	0.052
MS.493         	17.542         	0.036
MS.494         	17.507         	0.042
MS.495         	17.472         	0.04
MS.496         	17.438         	0.04
MS.497         	17.403         	0.038
MS.498         	17.368         	0.036
MS.499         	17.335         	0.038
MS.500         	17.3           	0.036
MS.501         	17.265         	0.036
MS.502         	17.23          	0.036
MS.503         	17.195         	0.04
MS.504         	17.163         	0.034
MS.505         	17.128         	0.038
MS.506         	17.092         	0.038
MS.507         	17.057         	0.038
MS.508         	17.025         	0.038
MS.509         	16.99          	0.034
MS.510         	16.958         	0.034
MS.511         	16.922         	0.042
MS.512         	16.89          	0.046
MS.513         	16.855         	0.044
MS.514         	16.823         	0.04
MS.515         	16.788         	0.05
MS.516         	16.755         	0.038
MS.517         	16.72          	0.044
MS.518         	16.688         	0.042
MS.519         	16.655         	0.044
MS.520         	16.62          	0.034
MS.521         	16.587         	0.048
MS.522         	16.555         	0.036
MS.523         	16.522         	0.036
MS.524         	16.487         	0.038
MS.525         	16.455         	0.036
MS.526         	16.422         	0.034
MS.527         	16.39          	0.04
MS.528         	16.358         	0.038
MS.529         	16.325         	0.038
MS.530         	16.292         	0.036
MS.531         	16.26          	0.034
MS.532         	16.227         	0.056
MS.533         	16.195         	0.042
MS.534         	16.163         	0.032
MS.535         	16.13          	0.046
MS.536         	16.097         	0.036
MS.537         	16.065         	0.04
MS.538         	16.032         	0.036
MS.539         	16             	0.036
MS.540         	15.97          	0.036
MS.541         	15.938         	0.04
MS.542         	15.905         	0.036
MS.543         	15.872         	0.034
MS.544         	15.842         	0.034
MS.545         	15.81          	0.036
MS.546         	15.777         	0.034
MS.547         	15.747         	0.038
MS.548         	15.715         	0.034
MS.549         	15.685         	0.04
MS.550         	15.652         	0.038
MS.551         	15.622         	0.044
MS.552         	15.59          	0.028
MS.553         	15.56          	0.042
MS.554         	15.527         	0.046
MS.555         	15.497         	0.042
MS.556         	15.465         	0.034
MS.557         	15.435         	0.048
MS.558         	15.405         	0.034
MS.559         	15.372         	0.038
MS.560         	15.342         	0.034
MS.561         	15.312         	0.032
MS.562         	15.282         	0.038
MS.563         	15.25          	0.034
MS.564         	15.22          	0.032
MS.565         	15.19          	0.036
MS.566         	15.16          	0.032
MS.567         	15.13          	0.036
MS.568         	15.1           	0.028
MS.569         	15.07          	0.036
MS.570         	15.04          	0.03
MS.571         	15.01          	0.026
MS.572         	14.98          	0.028
MS.573         	14.95          	0.03
MS.574         	14.92          	0.04
MS.575         	14.89          	0.048
MS.576         	14.86          	0.046
MS.577         	14.83          	0.034
MS.578         	14.8           	0.04
MS.579         	14.77          	0.034
MS.580         	14.742         	0.032
MS.581         	14.712         	0.03
MS.582         	14.682         	0.034
MS.583         	14.652         	0.034
MS.584         	14.625         	0.032
MS.585         	14.595         	0.036
MS.586         	14.565         	0.038
MS.587         	14.537         	0.034
MS.588         	14.507         	0.048
MS.589         	14.477         	0.036
MS.590         	14.45          	0.034
MS.591         	14.42          	0.036
MS.592         	14.392         	0.03
MS.593         	14.362         	0.032
MS.594         	14.335         	0.034
MS.595         	14.305         	0.034
MS.596         	14.278         	0.03
MS.597         	14.247         	0.02
MS.598         	14.22          	0.044
MS.599         	14.193         	0.028
MS.600         	14.162         	0.03
MS.601         	14.135         	0.032
MS.602         	14.108         	0.032
MS.603         	14.077         	0.044
MS.604         	14.05          	0.034
MS.605         	14.023         	0.036
MS.606         	13.995         	0.032
MS.607         	13.967         	0.032
MS.608         	13.938         	0.032
MS.609         	13.91          	0.028
MS.610         	13.882         	0.034
MS.611         	13.855         	0.022
MS.612         	13.827         	0.032
MS.613         	13.8           	0.038
MS.614         	13.773         	0.032
MS.615         	13.745         	0.032
MS.616         	13.717         	0.034
MS.617         	13.69          	0.032
MS.618         	13.662         	0.03
MS.619         	13.635         	0.024
MS.620         	13.608         	0.036
MS.621         	13.58          	0.042
MS.622         	13.552         	0.03
MS.623         	13.528         	0.034
MS.624         	13.5           	0.038
MS.625         	13.472         	0.028
MS.626         	13.445         	0.034
MS.627         	13.42          	0.034
MS.628         	13.392         	0.03
MS.629         	13.365         	0.03
MS.630         	13.337         	0.03
MS.631         	13.312         	0.03
MS.632         	13.285         	0.03
MS.633         	13.26          	0.028
MS.634         	13.233         	0.034
MS.635         	13.205         	0.03
MS.636         	13.18          	0.032
MS.637         	13.153         	0.03
MS.638         	13.127         	0.032
MS.639         	13.1           	0.028
MS.640         	13.075         	0.03
MS.641         	13.047         	0.028
MS.642         	13.023         	0.026
MS.643         	12.995         	0.026
MS.644         	12.97          	0.032
MS.645         	12.945         	0.04
MS.646         	12.917         	0.036
MS.647         	12.892         	0.03
MS.648         	12.867         	0.028
MS.649         	12.84          	0.032
MS.650         	12.815         	0.026
MS.651         	12.79          	0.028
MS.652         	12.765         	0.034
MS.653         	12.74          	0.026
MS.654         	12.712         	0.03
MS.655         	12.688         	0.026
MS.656         	12.662         	0.03
MS.657         	12.637         	0.026
MS.658         	12.613         	0.026
MS.659         	12.587         	0.032
MS.660         	12.562         	0.03
MS.661         	12.537         	0.034
MS.662         	12.512         	0.028
MS.663         	12.488         	0.032
MS.664         	12.462         	0.028
MS.665         	12.438         	0.03
MS.666         	12.412         	0.028
MS.667         	12.387         	0.028
MS.668         	12.363         	0.028
MS.669         	12.337         	0.028
MS.670         	12.312         	0.026
MS.671         	12.287         	0.028
MS.672         	12.265         	0.03
MS.673         	12.24          	0.024
MS.674         	12.215         	0.03
MS.675         	12.19          	0.026
MS.676         	12.165         	0.028
MS.677         	12.142         	0.032
MS.678         	12.117         	0.026
MS.679         	12.092         	0.024
MS.680         	12.07          	0.032
MS.681         	12.045         	0.03
MS.682         	12.02          	0.028
MS.683         	11.997         	0.018
MS.684         	11.972         	0.028
MS.685         	11.95          	0.03
MS.686         	11.925         	0.026
MS.687         	11.903         	0.028
MS.688         	11.877         	0.03
MS.689         	11.855         	0.024
MS.690         	11.83          	0.026
MS.691         	11.807         	0.042
MS.692         	11.782         	0.024
MS.693         	11.76          	0.026
MS.694         	11.735         	0.03
MS.695         	11.712         	0.022
MS.696         	11.69          	0.022
MS.697         	11.665         	0.028
MS.698         	11.642         	0.02
MS.699         	11.62          	0.024
MS.700         	11.595         	0.022
MS.701         	11.572         	0.022
MS.702         	11.55          	0.024
MS.703         	11.528         	0.022
MS.704         	11.502         	0.02
MS.705         	11.48          	0.024
DERIVED EXCITABILITY VARIABLES
Program = QTracP 3/4/2020
Threshold method = 6 (optimised for CAP, using data for present condition only)
SR method = 1 (using actual data values)
6.                 	0.000               	Peak response\(mV)
9.                 	33.1                	Temperature ( C)
17.                	36                  	Age (years)
18.                	2                   	Sex (M=1, F=2)

EXTRA VARIABLES

MScPeak(mV) = 4.43
MScS5(mA) = 21.83
MScS50(mA) = 30.77
MScS95(mA) = 40.35
MScNSteps = 0
MScSteps(%) = 0.0
MScStepMax(%) = 0.0
MScD50 = 68
MScSlope = 4.04
MSFPeakAmp(mV) = 4.42
MSFNUnits = 173
MSFMeanUnitAmp(uV) = 25.6
MSFHuntTime(m) = 3.07
MSFError(%) = 0.919
MSFNLarge = 48.64
MSFMedianAmp(%) = 0.446
MSFMedianAmp(mV) = 0.0197
MSFHalfAmpAmp(%) = 0.629
MSFHalfAmpAmp(mV) = 0.0278
MSFLargestAmp(%) = 2.05
MSFLargestAmp(mV) = 0.0905
MSFMeanRS(%) = 2
MSFOpts = 10106121
MScDuration(min) = 6.6
MSFTraces = 552
MSFSizeLimit(uV) = 11.1
MSFLimitType = 1
MSFSmallestAmp(uV) = 11.3

EXTRA WAVEFORMS


!MScan Model
!173
	1	18.8	0.78	2
	2	20.6	0.5	2
	3	20.96	0.39	2
	4	21.07	0.28	2
	5	21.26	0.4	2
	6	21.46	0.53	2
	7	21.61	0.36	2
	8	21.77	0.48	2
	9	21.97	0.62	2
	10	22.11	0.63	2
	11	22.25	0.6	2
	12	22.38	0.66	2
	13	22.46	0.35	2
	14	22.54	0.36	2
	15	22.63	0.41	2
	16	22.71	0.41	2
	17	22.8	0.3	2
	18	23.01	0.7	2
	19	23.32	0.77	2
	20	23.51	0.4	2
	21	23.62	0.3	2
	22	23.74	0.31	2
	23	23.83	0.3	2
	24	23.92	0.43	2
	25	24	0.3	2
	26	24.15	0.54	2
	27	24.22	0.37	2
	28	24.3	0.43	2
	29	24.39	0.45	2
	30	24.49	0.47	2
	31	24.59	0.46	2
	32	24.7	0.42	2
	33	24.85	0.76	2
	34	24.99	0.59	2
	35	25.09	0.37	2
	36	25.19	0.41	2
	37	25.27	0.38	2
	38	25.35	0.36	2
	39	25.43	0.46	2
	40	25.5	0.42	2
	41	25.57	0.43	2
	42	25.64	0.46	2
	43	25.71	0.4	2
	44	25.82	0.58	2
	45	25.96	0.81	2
	46	26.09	0.64	2
	47	26.21	0.66	2
	48	26.38	0.88	2
	49	26.6	1.29	2
	50	26.74	0.84	2
	51	26.88	0.92	2
	52	27.01	0.89	2
	53	27.13	0.93	2
	54	27.18	0.34	2
	55	27.22	0.27	2
	56	27.27	0.27	2
	57	27.31	0.32	2
	58	27.36	0.35	2
	59	27.4	0.31	2
	60	27.44	0.31	2
	61	27.48	0.3	2
	62	27.51	0.29	2
	63	27.59	0.49	2
	64	27.63	0.26	2
	65	27.67	0.26	2
	66	27.73	0.43	2
	67	27.8	0.45	2
	68	27.87	0.32	2
	69	27.96	0.4	2
	70	28.04	0.37	2
	71	28.11	0.43	2
	72	28.19	0.39	2
	73	28.28	0.44	2
	74	28.38	0.45	2
	75	28.44	0.25	2
	76	28.5	0.33	2
	77	28.58	0.38	2
	78	28.65	0.34	2
	79	28.72	0.31	2
	80	28.8	0.33	2
	81	28.88	0.37	2
	82	28.96	0.43	2
	83	29.04	0.4	2
	84	29.1	0.33	2
	85	29.2	0.47	2
	86	29.27	0.42	2
	87	29.33	0.46	2
	88	29.4	0.48	2
	89	29.44	0.29	2
	90	29.53	0.54	2
	91	29.61	0.41	2
	92	29.66	0.37	2
	93	29.72	0.4	2
	94	29.77	0.42	2
	95	29.83	0.4	2
	96	29.89	0.33	2
	97	29.94	0.31	2
	98	30	0.3	2
	99	30.05	0.28	2
	100	30.1	0.31	2
	101	30.15	0.31	2
	102	30.2	0.3	2
	103	30.24	0.27	2
	104	30.33	0.47	2
	105	30.37	0.26	2
	106	30.41	0.28	2
	107	30.45	0.29	2
	108	30.53	0.51	2
	109	30.62	0.5	2
	110	30.66	0.27	2
	111	30.7	0.33	2
	112	30.75	0.36	2
	113	30.79	0.34	2
	114	30.83	0.29	2
	115	30.91	0.54	2
	116	30.99	0.55	2
	117	31.08	0.58	2
	118	31.16	0.62	2
	119	31.28	0.94	2
	120	31.46	1.37	2
	121	31.63	0.95	2
	122	31.79	1.64	2
	123	32.01	1.49	2
	124	32.2	1.28	2
	125	32.36	1.31	2
	126	32.36	0.93	2
	127	32.5	1.15	2
	128	32.6	0.81	2
	129	32.7	0.9	2
	130	32.86	1.37	2
	131	33.05	1.1	2
	132	33.29	1.84	2
	133	33.52	1.56	2
	134	33.97	1.66	2
	135	34.31	1.72	2
	136	34.58	1.03	2
	137	34.77	0.6	2
	138	34.87	0.39	2
	139	34.98	0.4	2
	140	35.09	0.47	2
	141	35.19	0.45	2
	142	35.28	0.37	2
	143	35.36	0.49	2
	144	35.45	0.65	2
	145	35.59	1.06	2
	146	35.75	0.62	2
	147	35.91	1.04	2
	148	36.3	2.05	2
	149	36.66	1.75	2
	150	36.85	0.64	2
	151	37.04	0.93	2
	152	37.23	0.84	2
	153	37.41	0.71	2
	154	37.57	0.47	2
	155	37.78	0.71	1.6
	156	38.07	0.76	2
	157	38.43	0.78	2
	158	38.68	0.45	2
	159	38.95	0.46	2
	160	39.45	0.69	2
	161	39.62	0.31	2
	162	39.81	0.35	2
	163	40.02	0.44	2
	164	40.24	0.42	2
	165	40.47	0.37	2
	166	40.75	0.55	2
	167	41.14	0.61	2
	168	41.97	0.94	2
	169	42.57	0.61	2
	170	42.81	0.27	2
	171	43.06	0.43	2
	172	43.53	0.66	2
	173	44.47	0.84	2

