File:              	C:\Qtrac\Data\Daniel M Sørensen\MScan multicentre study\Data from centres\Oxford\Raw data (sorted for use)\ATC01207L.QZD
Name:              	UK.OXF.NC.5.1
Protocol:          	MSCAN-R2
Date:              	7/12/20
Start time:        	16:07:27
Age:               	48
Sex:               	F
Temperature:       	34.6
S/R sites:         	TA
NC/disease:        	NC
Operator:          	AT
Comments:          	Second attempt - TA 1st
M-SCAN DATA (8.8-1.5m)
Scanpts: 7, 14, 608, 615
Stim. (mA)     	Amp. (mV)
MS.1           	29             	3.138
MS.2           	29             	3.132
MS.3           	29             	3.114
MS.4           	29             	3.096
MS.5           	29             	3.078
MS.6           	29             	3.102
MS.7           	29             	3.08
MS.8           	29             	3.076
MS.9           	29             	3.098
MS.10          	29             	3.102
MS.11          	29             	3.078
MS.12          	29             	3.088
MS.13          	29             	3.062
MS.14          	29             	3.076
MS.15          	29             	3.029
MS.16          	29             	3.078
MS.17          	29             	3.062
MS.18          	29             	3.078
MS.19          	29             	3.062
MS.20          	29             	3.104
MS.21          	29             	3.039
MS.22          	29             	3.057
MS.23          	29             	3.049
MS.24          	28.885         	3.039
MS.25          	28.827         	3.076
MS.26          	28.77          	3.019
MS.27          	28.712         	3.035
MS.28          	28.655         	3.001
MS.29          	28.597         	3.029
MS.30          	28.54          	3.055
MS.31          	28.483         	3.031
MS.32          	28.425         	2.985
MS.33          	28.37          	2.975
MS.34          	28.312         	3.009
MS.35          	28.255         	2.967
MS.36          	28.2           	2.951
MS.37          	28.142         	2.951
MS.38          	28.087         	2.933
MS.39          	28.03          	2.955
MS.40          	27.975         	2.884
MS.41          	27.917         	2.917
MS.42          	27.862         	2.906
MS.43          	27.807         	2.91
MS.44          	27.752         	2.89
MS.45          	27.695         	2.921
MS.46          	27.64          	2.89
MS.47          	27.585         	2.888
MS.48          	27.53          	2.894
MS.49          	27.475         	2.856
MS.50          	27.42          	2.878
MS.51          	27.365         	2.854
MS.52          	27.31          	2.88
MS.53          	27.257         	2.826
MS.54          	27.202         	2.834
MS.55          	27.147         	2.812
MS.56          	27.092         	2.8
MS.57          	27.04          	2.848
MS.58          	26.985         	2.814
MS.59          	26.932         	2.808
MS.60          	26.877         	2.784
MS.61          	26.825         	2.78
MS.62          	26.77          	2.729
MS.63          	26.717         	2.8
MS.64          	26.662         	2.719
MS.65          	26.61          	2.802
MS.66          	26.557         	2.731
MS.67          	26.505         	2.761
MS.68          	26.45          	2.767
MS.69          	26.397         	2.727
MS.70          	26.345         	2.737
MS.71          	26.292         	2.661
MS.72          	26.24          	2.705
MS.73          	26.188         	2.687
MS.74          	26.135         	2.653
MS.75          	26.082         	2.635
MS.76          	26.03          	2.626
MS.77          	25.98          	2.687
MS.78          	25.927         	2.578
MS.79          	25.875         	2.622
MS.80          	25.823         	2.655
MS.81          	25.772         	2.624
MS.82          	25.72          	2.626
MS.83          	25.67          	2.602
MS.84          	25.618         	2.616
MS.85          	25.567         	2.578
MS.86          	25.515         	2.55
MS.87          	25.465         	2.55
MS.88          	25.415         	2.578
MS.89          	25.362         	2.544
MS.90          	25.312         	2.54
MS.91          	25.262         	2.554
MS.92          	25.212         	2.542
MS.93          	25.16          	2.53
MS.94          	25.11          	2.516
MS.95          	25.06          	2.518
MS.96          	25.01          	2.506
MS.97          	24.96          	2.518
MS.98          	24.91          	2.485
MS.99          	24.86          	2.516
MS.100         	24.81          	2.443
MS.101         	24.762         	2.485
MS.102         	24.712         	2.403
MS.103         	24.663         	2.369
MS.104         	24.612         	2.302
MS.105         	24.565         	2.403
MS.106         	24.515         	2.328
MS.107         	24.465         	2.395
MS.108         	24.417         	2.357
MS.109         	24.368         	2.294
MS.110         	24.32          	2.318
MS.111         	24.27          	2.33
MS.112         	24.222         	2.306
MS.113         	24.175         	2.34
MS.114         	24.125         	2.214
MS.115         	24.077         	2.25
MS.116         	24.03          	2.24
MS.117         	23.983         	2.27
MS.118         	23.935         	2.206
MS.119         	23.885         	2.167
MS.120         	23.837         	2.214
MS.121         	23.79          	2.159
MS.122         	23.743         	2.161
MS.123         	23.695         	2.071
MS.124         	23.647         	2.129
MS.125         	23.6           	2.101
MS.126         	23.555         	2.195
MS.127         	23.507         	2.113
MS.128         	23.46          	2.157
MS.129         	23.413         	2.087
MS.130         	23.365         	2.175
MS.131         	23.32          	2.083
MS.132         	23.272         	2.117
MS.133         	23.227         	2.067
MS.134         	23.18          	2.056
MS.135         	23.132         	2.022
MS.136         	23.087         	2.03
MS.137         	23.042         	2.026
MS.138         	22.995         	2.01
MS.139         	22.95          	2.083
MS.140         	22.903         	2.03
MS.141         	22.858         	1.998
MS.142         	22.812         	1.958
MS.143         	22.767         	1.982
MS.144         	22.72          	2.04
MS.145         	22.675         	1.97
MS.146         	22.63          	1.915
MS.147         	22.585         	1.893
MS.148         	22.54          	1.883
MS.149         	22.495         	1.903
MS.150         	22.45          	1.865
MS.151         	22.405         	1.889
MS.152         	22.36          	1.877
MS.153         	22.315         	1.859
MS.154         	22.27          	1.855
MS.155         	22.227         	1.819
MS.156         	22.182         	1.837
MS.157         	22.137         	1.793
MS.158         	22.092         	1.762
MS.159         	22.05          	1.805
MS.160         	22.005         	1.797
MS.161         	21.962         	1.716
MS.162         	21.917         	1.752
MS.163         	21.875         	1.774
MS.164         	21.83          	1.783
MS.165         	21.788         	1.752
MS.166         	21.743         	1.774
MS.167         	21.7           	1.684
MS.168         	21.655         	1.67
MS.169         	21.612         	1.72
MS.170         	21.57          	1.664
MS.171         	21.528         	1.672
MS.172         	21.483         	1.694
MS.173         	21.44          	1.666
MS.174         	21.397         	1.581
MS.175         	21.355         	1.638
MS.176         	21.312         	1.587
MS.177         	21.27          	1.666
MS.178         	21.227         	1.642
MS.179         	21.185         	1.587
MS.180         	21.142         	1.531
MS.181         	21.1           	1.577
MS.182         	21.057         	1.549
MS.183         	21.015         	1.525
MS.184         	20.975         	1.446
MS.185         	20.932         	1.49
MS.186         	20.89          	1.488
MS.187         	20.847         	1.408
MS.188         	20.807         	1.42
MS.189         	20.765         	1.416
MS.190         	20.725         	1.456
MS.191         	20.682         	1.448
MS.192         	20.642         	1.37
MS.193         	20.6           	1.345
MS.194         	20.56          	1.462
MS.195         	20.517         	1.392
MS.196         	20.477         	1.356
MS.197         	20.435         	1.4
MS.198         	20.395         	1.382
MS.199         	20.355         	1.339
MS.200         	20.312         	1.422
MS.201         	20.272         	1.374
MS.202         	20.233         	1.36
MS.203         	20.192         	1.404
MS.204         	20.153         	1.333
MS.205         	20.112         	1.343
MS.206         	20.073         	1.311
MS.207         	20.03          	1.333
MS.208         	19.99          	1.289
MS.209         	19.952         	1.382
MS.210         	19.913         	1.247
MS.211         	19.872         	1.315
MS.212         	19.833         	1.356
MS.213         	19.792         	1.273
MS.214         	19.752         	1.291
MS.215         	19.712         	1.281
MS.216         	19.675         	1.237
MS.217         	19.635         	1.194
MS.218         	19.595         	1.293
MS.219         	19.555         	1.221
MS.220         	19.517         	1.247
MS.221         	19.477         	1.283
MS.222         	19.44          	1.184
MS.223         	19.4           	1.237
MS.224         	19.362         	1.261
MS.225         	19.323         	1.219
MS.226         	19.285         	1.182
MS.227         	19.245         	1.15
MS.228         	19.208         	1.166
MS.229         	19.17          	1.267
MS.230         	19.13          	1.19
MS.231         	19.092         	1.1
MS.232         	19.055         	1.158
MS.233         	19.015         	1.1
MS.234         	18.977         	1.082
MS.235         	18.94          	1.055
MS.236         	18.903         	1.031
MS.237         	18.865         	1.055
MS.238         	18.827         	1.104
MS.239         	18.79          	1.019
MS.240         	18.753         	0.999
MS.241         	18.715         	0.973
MS.242         	18.677         	1.065
MS.243         	18.64          	1.076
MS.244         	18.602         	1.041
MS.245         	18.565         	1.027
MS.246         	18.528         	0.953
MS.247         	18.49          	1.045
MS.248         	18.455         	1.023
MS.249         	18.417         	1.023
MS.250         	18.38          	1.023
MS.251         	18.345         	1.055
MS.252         	18.307         	1.114
MS.253         	18.27          	0.999
MS.254         	18.235         	1.019
MS.255         	18.198         	0.991
MS.256         	18.163         	1.023
MS.257         	18.125         	0.971
MS.258         	18.09          	1.045
MS.259         	18.052         	0.973
MS.260         	18.017         	1.033
MS.261         	17.98          	0.884
MS.262         	17.945         	1.017
MS.263         	17.91          	0.987
MS.264         	17.872         	0.922
MS.265         	17.837         	0.922
MS.266         	17.802         	0.902
MS.267         	17.765         	0.91
MS.268         	17.73          	0.973
MS.269         	17.695         	0.848
MS.270         	17.66          	0.969
MS.271         	17.625         	0.902
MS.272         	17.59          	0.977
MS.273         	17.555         	0.868
MS.274         	17.52          	0.842
MS.275         	17.485         	0.864
MS.276         	17.45          	0.794
MS.277         	17.415         	0.753
MS.278         	17.38          	0.886
MS.279         	17.345         	0.804
MS.280         	17.31          	0.858
MS.281         	17.275         	0.834
MS.282         	17.24          	0.767
MS.283         	17.208         	0.775
MS.284         	17.172         	0.804
MS.285         	17.137         	0.814
MS.286         	17.102         	0.788
MS.287         	17.07          	0.852
MS.288         	17.035         	0.83
MS.289         	17.003         	0.862
MS.290         	16.967         	0.866
MS.291         	16.932         	0.808
MS.292         	16.9           	0.786
MS.293         	16.865         	0.759
MS.294         	16.833         	0.814
MS.295         	16.797         	0.808
MS.296         	16.765         	0.745
MS.297         	16.733         	0.773
MS.298         	16.698         	0.828
MS.299         	16.665         	0.844
MS.300         	16.632         	0.81
MS.301         	16.597         	0.769
MS.302         	16.565         	0.794
MS.303         	16.532         	0.798
MS.304         	16.5           	0.779
MS.305         	16.465         	0.814
MS.306         	16.432         	0.777
MS.307         	16.4           	0.81
MS.308         	16.368         	0.725
MS.309         	16.335         	0.733
MS.310         	16.302         	0.743
MS.311         	16.27          	0.701
MS.312         	16.237         	0.632
MS.313         	16.205         	0.669
MS.314         	16.172         	0.753
MS.315         	16.14          	0.562
MS.316         	16.108         	0.677
MS.317         	16.075         	0.675
MS.318         	16.042         	0.663
MS.319         	16.012         	0.647
MS.320         	15.98          	0.634
MS.321         	15.947         	0.661
MS.322         	15.915         	0.602
MS.323         	15.882         	0.643
MS.324         	15.852         	0.487
MS.325         	15.82          	0.57
MS.326         	15.787         	0.514
MS.327         	15.757         	0.566
MS.328         	15.725         	0.586
MS.329         	15.695         	0.564
MS.330         	15.662         	0.433
MS.331         	15.632         	0.55
MS.332         	15.6           	0.526
MS.333         	15.57          	0.53
MS.334         	15.537         	0.465
MS.335         	15.507         	0.391
MS.336         	15.475         	0.417
MS.337         	15.445         	0.5
MS.338         	15.415         	0.485
MS.339         	15.382         	0.423
MS.340         	15.352         	0.328
MS.341         	15.322         	0.354
MS.342         	15.292         	0.365
MS.343         	15.26          	0.352
MS.344         	15.23          	0.334
MS.345         	15.2           	0.344
MS.346         	15.17          	0.431
MS.347         	15.14          	0.35
MS.348         	15.11          	0.312
MS.349         	15.08          	0.346
MS.350         	15.047         	0.292
MS.351         	15.017         	0.318
MS.352         	14.987         	0.338
MS.353         	14.957         	0.272
MS.354         	14.93          	0.357
MS.355         	14.9           	0.29
MS.356         	14.87          	0.27
MS.357         	14.84          	0.308
MS.358         	14.81          	0.224
MS.359         	14.78          	0.252
MS.360         	14.75          	0.316
MS.361         	14.722         	0.228
MS.362         	14.693         	0.248
MS.363         	14.662         	0.222
MS.364         	14.632         	0.224
MS.365         	14.605         	0.24
MS.366         	14.575         	0.266
MS.367         	14.545         	0.236
MS.368         	14.517         	0.214
MS.369         	14.487         	0.274
MS.370         	14.457         	0.232
MS.371         	14.43          	0.236
MS.372         	14.4           	0.169
MS.373         	14.372         	0.165
MS.374         	14.342         	0.181
MS.375         	14.315         	0.123
MS.376         	14.285         	0.179
MS.377         	14.257         	0.252
MS.378         	14.23          	0.189
MS.379         	14.2           	0.175
MS.380         	14.172         	0.091
MS.381         	14.145         	0.199
MS.382         	14.115         	0.113
MS.383         	14.087         	0.195
MS.384         	14.06          	0.187
MS.385         	14.032         	0.203
MS.386         	14.002         	0.199
MS.387         	13.975         	0.298
MS.388         	13.947         	0.185
MS.389         	13.92          	0.131
MS.390         	13.892         	0.207
MS.391         	13.865         	0.187
MS.392         	13.837         	0.242
MS.393         	13.807         	0.141
MS.394         	13.78          	0.161
MS.395         	13.752         	0.27
MS.396         	13.725         	0.209
MS.397         	13.697         	0.141
MS.398         	13.67          	0.155
MS.399         	13.645         	0.121
MS.400         	13.617         	0.147
MS.401         	13.59          	0.099
MS.402         	13.562         	0.131
MS.403         	13.535         	0.153
MS.404         	13.507         	0.113
MS.405         	13.48          	0.113
MS.406         	13.455         	0.062
MS.407         	13.427         	0.077
MS.408         	13.4           	0.149
MS.409         	13.372         	0.087
MS.410         	13.347         	0.077
MS.411         	13.32          	0.211
MS.412         	13.292         	0.081
MS.413         	13.267         	0.093
MS.414         	13.24          	0.101
MS.415         	13.215         	0.093
MS.416         	13.188         	0.083
MS.417         	13.162         	0.103
MS.418         	13.135         	0.117
MS.419         	13.11          	0.079
MS.420         	13.082         	0.087
MS.421         	13.057         	0.083
MS.422         	13.03          	0.103
MS.423         	13.005         	0.083
MS.424         	12.977         	0.07
MS.425         	12.952         	0.089
MS.426         	12.927         	0.085
MS.427         	12.9           	0.06
MS.428         	12.875         	0.079
MS.429         	12.85          	0.091
MS.430         	12.822         	0.06
MS.431         	12.797         	0.087
MS.432         	12.773         	0.105
MS.433         	12.747         	0.077
MS.434         	12.722         	0.109
MS.435         	12.695         	0.085
MS.436         	12.67          	0.083
MS.437         	12.645         	0.056
MS.438         	12.62          	0.101
MS.439         	12.595         	0.062
MS.440         	12.57          	0.07
MS.441         	12.545         	0.099
MS.442         	12.52          	0.097
MS.443         	12.495         	0.085
MS.444         	12.47          	0.07
MS.445         	12.445         	0.081
MS.446         	12.42          	0.093
MS.447         	12.395         	0.075
MS.448         	12.37          	0.068
MS.449         	12.345         	0.111
MS.450         	12.32          	0.119
MS.451         	12.295         	0.058
MS.452         	12.273         	0.093
MS.453         	12.247         	0.089
MS.454         	12.222         	0.068
MS.455         	12.197         	0.068
MS.456         	12.175         	0.081
MS.457         	12.15          	0.085
MS.458         	12.125         	0.095
MS.459         	12.1           	0.093
MS.460         	12.077         	0.103
MS.461         	12.052         	0.101
MS.462         	12.028         	0.087
MS.463         	12.005         	0.087
MS.464         	11.98          	0.091
MS.465         	11.957         	0.064
MS.466         	11.932         	0.089
MS.467         	11.91          	0.06
MS.468         	11.885         	0.087
MS.469         	11.863         	0.085
MS.470         	11.837         	0.077
MS.471         	11.815         	0.093
MS.472         	11.79          	0.07
MS.473         	11.767         	0.066
MS.474         	11.742         	0.079
MS.475         	11.72          	0.056
MS.476         	11.697         	0.068
MS.477         	11.672         	0.056
MS.478         	11.65          	0.093
MS.479         	11.627         	0.075
MS.480         	11.602         	0.058
MS.481         	11.58          	0.093
MS.482         	11.557         	0.085
MS.483         	11.535         	0.054
MS.484         	11.51          	0.073
MS.485         	11.488         	0.056
MS.486         	11.465         	0.077
MS.487         	11.443         	0.079
MS.488         	11.42          	0.05
MS.489         	11.398         	0.103
MS.490         	11.372         	0.054
MS.491         	11.35          	0.058
MS.492         	11.327         	0.058
MS.493         	11.305         	0.079
MS.494         	11.282         	0.056
MS.495         	11.26          	0.089
MS.496         	11.238         	0.05
MS.497         	11.215         	0.05
MS.498         	11.193         	0.05
MS.499         	11.17          	0.054
MS.500         	11.148         	0.054
MS.501         	11.125         	0.06
MS.502         	11.105         	0.062
MS.503         	11.082         	0.052
MS.504         	11.06          	0.062
MS.505         	11.037         	0.054
MS.506         	11.015         	0.054
MS.507         	10.992         	0.048
MS.508         	10.972         	0.054
MS.509         	10.95          	0.077
MS.510         	10.927         	0.081
MS.511         	10.905         	0.066
MS.512         	10.885         	0.046
MS.513         	10.863         	0.066
MS.514         	10.84          	0.064
MS.515         	10.82          	0.032
MS.516         	10.797         	0.052
MS.517         	10.775         	0.054
MS.518         	10.755         	0.056
MS.519         	10.733         	0.079
MS.520         	10.71          	0.056
MS.521         	10.69          	0.058
MS.522         	10.667         	0.046
MS.523         	10.648         	0.085
MS.524         	10.625         	0.056
MS.525         	10.605         	0.054
MS.526         	10.582         	0.064
MS.527         	10.562         	0.066
MS.528         	10.54          	0.052
MS.529         	10.52          	0.054
MS.530         	10.5           	0.07
MS.531         	10.477         	0.058
MS.532         	10.457         	0.054
MS.533         	10.438         	0.062
MS.534         	10.415         	0.05
MS.535         	10.395         	0.046
MS.536         	10.375         	0.056
MS.537         	10.352         	0.054
MS.538         	10.332         	0.083
MS.539         	10.312         	0.062
MS.540         	10.29          	0.066
MS.541         	10.27          	0.052
MS.542         	10.25          	0.054
MS.543         	10.23          	0.064
MS.544         	10.21          	0.05
MS.545         	10.19          	0.06
MS.546         	10.167         	0.054
MS.547         	10.148         	0.05
MS.548         	10.127         	0.056
MS.549         	10.108         	0.046
MS.550         	10.087         	0.052
MS.551         	10.068         	0.052
MS.552         	10.047         	0.052
MS.553         	10.028         	0.06
MS.554         	10.007         	0.06
MS.555         	9.988          	0.052
MS.556         	9.967          	0.058
MS.557         	9.948          	0.052
MS.558         	9.927          	0.052
MS.559         	9.907          	0.052
MS.560         	9.887          	0.058
MS.561         	9.867          	0.042
MS.562         	9.847          	0.064
MS.563         	9.827          	0.05
MS.564         	9.81           	0.042
MS.565         	9.79           	0.058
MS.566         	9.77           	0.054
MS.567         	9.75           	0.05
MS.568         	9.73           	0.056
MS.569         	9.712          	0.093
MS.570         	9.693          	0.04
MS.571         	9.672          	0.044
MS.572         	9.653          	0.073
MS.573         	9.635          	0.046
MS.574         	9.615          	0.04
MS.575         	9.595          	0.046
MS.576         	9.577          	0.058
MS.577         	9.557          	0.066
MS.578         	9.537          	0.058
MS.579         	9.52           	0.06
MS.580         	9.5            	0.062
MS.581         	9.48           	0.073
MS.582         	9.462          	0.04
MS.583         	9.443          	0.052
MS.584         	9.425          	0.044
MS.585         	9.405          	0.056
MS.586         	9.387          	0.046
MS.587         	9.367          	0.044
MS.588         	9.35           	0.044
MS.589         	9.33           	0.054
MS.590         	9.312          	0.048
MS.591         	9.292          	0.052
MS.592         	9.275          	0.048
MS.593         	9.255          	0.04
MS.594         	9.238          	0.042
MS.595         	9.22           	0.081
MS.596         	9.2            	0.048
MS.597         	9.182          	0.056
MS.598         	9.165          	0.052
MS.599         	9.145          	0.062
MS.600         	9.127          	0.054
MS.601         	9.11           	0.044
MS.602         	9.09           	0.05
MS.603         	9.073          	0.05
MS.604         	9.055          	0.044
MS.605         	9.037          	0.038
MS.606         	9.017          	0.052
MS.607         	9              	0.05
MS.608         	8.983          	0.046
MS.609         	8.965          	0.044
MS.610         	8.948          	0.05
MS.611         	8.93           	0.046
MS.612         	8.91           	0.048
MS.613         	8.892          	0.044
MS.614         	8.875          	0.038
MS.615         	8.858          	0.06
MS.616         	8.84           	0.05
MS.617         	8.823          	0.05
MS.618         	8.805          	0.058
MS.619         	8.787          	0.044
MS.620         	8.77           	0.054
MS.621         	8.752          	0.046
MS.622         	8.735          	0.044
MS.623         	8.717          	0.06
MS.624         	8.7            	0.064
MS.625         	8.682          	0.048
MS.626         	8.665          	0.042
MS.627         	8.648          	0.046
MS.628         	8.63           	0.06
MS.629         	8.613          	0.05
MS.630         	8.595          	0.044
MS.631         	8.58           	0.046
MS.632         	8.562          	0.054
MS.633         	8.545          	0.044
MS.634         	8.528          	0.044
MS.635         	8.51           	0.054
MS.636         	8.492          	0.044
MS.637         	8.477          	0.044
MS.638         	8.46           	0.06
MS.639         	8.443          	0.054
MS.640         	8.425          	0.048
MS.641         	8.41           	0.052
MS.642         	8.392          	0.05
MS.643         	8.375          	0.048
MS.644         	8.358          	0.038
MS.645         	8.342          	0.052
MS.646         	8.325          	0.052
MS.647         	8.307          	0.044
MS.648         	8.292          	0.054
MS.649         	8.275          	0.068
MS.650         	8.26           	0.06
MS.651         	8.242          	0.054
MS.652         	8.225          	0.083
MS.653         	8.21           	0.048
MS.654         	8.193          	0.046
MS.655         	8.177          	0.058
MS.656         	8.16           	0.042
MS.657         	8.145          	0.052
MS.658         	8.127          	0.06
MS.659         	8.113          	0.054
MS.660         	8.095          	0.05
MS.661         	8.08           	0.052
MS.662         	8.062          	0.044
MS.663         	8.047          	0.048
MS.664         	8.03           	0.062
MS.665         	8.015          	0.05
MS.666         	8              	0.042
MS.667         	7.982          	0.075
MS.668         	7.967          	0.044
MS.669         	7.95           	0.046
MS.670         	7.935          	0.044
MS.671         	7.92           	0.052
MS.672         	7.902          	0.054
MS.673         	7.887          	0.062
MS.674         	7.872          	0.05
MS.675         	7.855          	0.05
MS.676         	7.84           	0.05
MS.677         	7.825          	0.056
MS.678         	7.81           	0.046
MS.679         	7.793          	0.05
MS.680         	7.777          	0.042
MS.681         	7.762          	0.054
MS.682         	7.747          	0.052
MS.683         	7.732          	0.046
MS.684         	7.715          	0.05
MS.685         	7.7            	0.048
MS.686         	7.685          	0.056
MS.687         	7.67           	0.05
MS.688         	7.655          	0.06
MS.689         	7.64           	0.064
MS.690         	7.625          	0.046
MS.691         	7.607          	0.046
MS.692         	7.592          	0.052
MS.693         	7.577          	0.044
MS.694         	7.562          	0.044
MS.695         	7.547          	0.042
MS.696         	7.532          	0.044
MS.697         	7.517          	0.044
MS.698         	7.503          	0.046
MS.699         	7.487          	0.042
MS.700         	7.472          	0.089
MS.701         	7.457          	0.042
MS.702         	7.442          	0.032
MS.703         	7.427          	0.05
MS.704         	7.412          	0.054
MS.705         	7.398          	0.066
MS.706         	7.385          	0.05
MS.707         	7.37           	0.05
MS.708         	7.355          	0.052
MS.709         	7.34           	0.044
MS.710         	7.325          	0.056
MS.711         	7.31           	0.04
MS.712         	7.295          	0.042
MS.713         	7.28           	0.038
MS.714         	7.267          	0.052
MS.715         	7.253          	0.04
MS.716         	7.237          	0.048
MS.717         	7.222          	0.054
MS.718         	7.207          	0.048
MS.719         	7.195          	0.066
MS.720         	7.18           	0.04
MS.721         	7.165          	0.048
MS.722         	7.152          	0.05
MS.723         	7.137          	0.048
MS.724         	7.122          	0.042
MS.725         	7.108          	0.05
MS.726         	7.095          	0.044
MS.727         	7.08           	0.034
MS.728         	7.065          	0.044
MS.729         	7.052          	0.048
MS.730         	7.037          	0.03
MS.731         	7.023          	0.034
MS.732         	7.01           	0.042
MS.733         	6.995          	0.044
MS.734         	6.983          	0.044
MS.735         	6.967          	0.042
MS.736         	6.955          	0.042
MS.737         	6.94           	0.052
MS.738         	6.925          	0.056
MS.739         	6.912          	0.036
MS.740         	6.898          	0.05
MS.741         	6.885          	0.042
MS.742         	6.87           	0.036
MS.743         	6.858          	0.036
MS.744         	6.842          	0.04
MS.745         	6.83           	0.044
MS.746         	6.815          	0.048
MS.747         	6.802          	0.042
MS.748         	6.79           	0.042
MS.749         	6.775          	0.054
MS.750         	6.762          	0.046
MS.751         	6.747          	0.038
MS.752         	6.735          	0.038
MS.753         	6.722          	0.052
MS.754         	6.707          	0.056
MS.755         	6.695          	0.04
MS.756         	6.68           	0.052
MS.757         	6.668          	0.034
MS.758         	6.655          	0.026
MS.759         	6.64           	0.048
MS.760         	6.628          	0.044
MS.761         	6.615          	0.05
MS.762         	6.602          	0.04
MS.763         	6.587          	0.075
MS.764         	6.575          	0.044
MS.765         	6.562          	0.028
MS.766         	6.55           	0.038
MS.767         	6.535          	0.042
MS.768         	6.523          	0.044
MS.769         	6.51           	0.032
DERIVED EXCITABILITY VARIABLES
Program = QTracP 3/4/2020
Threshold method = 6 (optimised for CAP, using data for present condition only)
SR method = 1 (using actual data values)
6.                 	0.000               	Peak response\(mV)
9.                 	34.6                	Temperature ( C)
17.                	48                  	Age (years)
18.                	2                   	Sex (M=1, F=2)

EXTRA VARIABLES

MScPeak(mV) = 3.04
MScS5(mA) = 13.85
MScS50(mA) = 21.01
MScS95(mA) = 27.82
MScNSteps = 0
MScSteps(%) = 0.0
MScStepMax(%) = 0.0
MScD50 = 73
MScSlope = 2.91
MSFPeakAmp(mV) = 3.04
MSFNUnits = 131
MSFMeanUnitAmp(uV) = 23.2
MSFHuntTime(m) = 3.68
MSFError(%) = 0.93
MSFNLarge = 34.93
MSFMedianAmp(%) = 0.57
MSFMedianAmp(mV) = 0.0173
MSFHalfAmpAmp(%) = 0.98
MSFHalfAmpAmp(mV) = 0.0297
MSFLargestAmp(%) = 2.5
MSFLargestAmp(mV) = 0.0758
MSFMeanRS(%) = 1.99
MSFOpts = 10106121
MScDuration(min) = 7.3
MSFTraces = 609
MSFSizeLimit(uV) = 7.6
MSFLimitType = 1
MSFSmallestAmp(uV) = 7.86

EXTRA WAVEFORMS


!MScan Model
!131
	1	11.4	0.78	1.6
	2	11.64	0.52	1.6
	3	13.44	1.42	2
	4	13.62	1.05	2
	5	13.62	0.26	2
	6	14.34	1.19	2
	7	14.45	0.47	2
	8	14.72	1.5	2
	9	14.94	1.65	2
	10	15.16	1.45	2
	11	15.26	0.5	2
	12	15.26	0.3	2
	13	15.32	0.45	2
	14	15.37	0.92	2
	15	15.46	0.98	2
	16	15.55	1.33	2
	17	15.69	1.48	2
	18	15.73	1.6	2
	19	15.77	0.78	2
	20	15.84	0.91	2
	21	15.98	1.58	2
	22	16.17	1.79	2
	23	16.24	0.55	2
	24	16.31	1.09	2
	25	17.21	1.32	2
	26	17.4	0.64	2
	27	17.53	1	2
	28	17.74	1.93	2
	29	17.92	1.37	2
	30	18.2	1.59	2
	31	18.79	1.2	2
	32	18.88	0.54	2
	33	18.95	0.39	2
	34	18.95	0.26	2
	35	19.01	0.81	2
	36	19.12	1.19	2
	37	19.41	2.5	2
	38	19.68	1.53	2
	39	19.9	1.33	2
	40	20.17	1.48	2
	41	20.64	1.58	2
	42	20.82	0.59	2
	43	20.86	0.49	2
	44	20.94	0.47	2
	45	20.96	0.38	2
	46	20.98	0.38	2
	47	21.01	0.38	2
	48	21.05	0.69	2
	49	21.1	0.92	2
	50	21.31	2.11	2
	51	21.47	0.99	2
	52	21.53	0.31	2
	53	21.58	0.93	2
	54	21.58	0.59	2
	55	21.64	0.53	2
	56	21.76	1.1	2
	57	21.89	0.69	2
	58	21.95	0.33	2
	59	22.01	0.59	2
	60	22.07	0.43	2
	61	22.12	0.37	2
	62	22.16	0.33	2
	63	22.21	0.29	2
	64	22.25	0.3	2
	65	22.3	0.33	2
	66	22.35	0.39	2
	67	22.41	0.46	2
	68	22.47	0.78	2
	69	22.53	0.52	2
	70	22.58	0.52	2
	71	22.64	0.5	2
	72	22.7	0.5	2
	73	22.76	0.57	2
	74	22.94	1.66	2
	75	23.08	0.68	2
	76	23.19	0.84	2
	77	23.52	1.69	2
	78	23.68	1.02	2
	79	23.74	0.41	2
	80	23.84	0.37	2
	81	23.89	0.57	2
	82	23.94	0.57	2
	83	23.98	0.53	2
	84	24.03	0.53	2
	85	24.08	0.33	2
	86	24.12	0.47	2
	87	24.17	0.47	2
	88	24.37	1.45	2
	89	24.46	0.58	2
	90	24.52	0.44	2
	91	24.59	0.79	2
	92	24.65	0.72	2
	93	24.7	0.58	2
	94	24.75	0.58	2
	95	24.85	0.52	2
	96	24.91	0.55	2
	97	25.07	1.65	2
	98	25.25	0.66	2
	99	25.33	0.35	2
	100	25.41	0.39	2
	101	25.5	0.46	2
	102	25.6	0.41	2
	103	25.73	0.72	2
	104	25.93	1.05	2
	105	26.1	0.52	2
	106	26.16	0.48	2
	107	26.27	0.88	2
	108	26.42	0.81	2
	109	26.61	1.21	2
	110	26.76	0.65	2
	111	26.95	0.55	2
	112	27.04	0.47	2
	113	27.11	0.45	2
	114	27.19	0.39	2
	115	27.26	0.32	2
	116	27.32	0.38	2
	117	27.5	0.59	2
	118	27.58	0.31	2
	119	27.68	0.33	2
	120	27.78	0.32	2
	121	27.88	0.33	2
	122	28.01	0.48	2
	123	28.1	0.46	2
	124	28.16	0.3	2
	125	28.22	0.37	2
	126	28.28	0.43	2
	127	28.33	0.29	2
	128	28.45	0.55	2
	129	28.64	0.8	2
	130	28.84	0.66	2
	131	29.36	0.69	2

