File:              	C:\Qtrac\Data\Daniel M Sørensen\MScan multicentre study\Data from centres\Aarhus\Processed data\DMSC00930C.QZD
Name:              	DK.AAR.NC.10.2
Protocol:          	MSCAN-R2
Date:              	30/9/20
Start time:        	15:24:04
Age:               	70
Sex:               	m
Temperature:       	34,5
S/R sites:         	TA
NC/disease:        	NC
Operator:          	DS
Comments:
M-SCAN DATA (2.3-0.0m)
Scanpts: 7, 18, 721, 749
Stim. (mA)     	Amp. (mV)
MS.1           	35.5           	1.777
MS.2           	35.5           	1.773
MS.3           	35.357         	1.785
MS.4           	35.287         	1.787
MS.5           	35.217         	1.777
MS.6           	35.147         	1.762
MS.7           	35.077         	1.783
MS.8           	35.007         	1.767
MS.9           	34.938         	1.779
MS.10          	34.868         	1.779
MS.11          	34.798         	1.758
MS.12          	34.728         	1.753
MS.13          	34.657         	1.763
MS.14          	34.59          	1.767
MS.15          	34.52          	1.76
MS.16          	34.45          	1.755
MS.17          	34.382         	1.777
MS.18          	34.312         	1.763
MS.19          	34.245         	1.764
MS.20          	34.175         	1.769
MS.21          	34.107         	1.771
MS.22          	34.04          	1.778
MS.23          	33.972         	1.765
MS.24          	33.905         	1.761
MS.25          	33.835         	1.76
MS.26          	33.767         	1.766
MS.27          	33.7           	1.757
MS.28          	33.632         	1.765
MS.29          	33.568         	1.757
MS.30          	33.5           	1.753
MS.31          	33.432         	1.766
MS.32          	33.365         	1.761
MS.33          	33.3           	1.757
MS.34          	33.232         	1.759
MS.35          	33.165         	1.737
MS.36          	33.1           	1.737
MS.37          	33.032         	1.76
MS.38          	32.967         	1.755
MS.39          	32.903         	1.747
MS.40          	32.835         	1.76
MS.41          	32.77          	1.744
MS.42          	32.705         	1.74
MS.43          	32.64          	1.727
MS.44          	32.575         	1.744
MS.45          	32.51          	1.733
MS.46          	32.445         	1.736
MS.47          	32.38          	1.729
MS.48          	32.315         	1.733
MS.49          	32.25          	1.732
MS.50          	32.185         	1.73
MS.51          	32.122         	1.74
MS.52          	32.057         	1.742
MS.53          	31.992         	1.736
MS.54          	31.93          	1.738
MS.55          	31.865         	1.754
MS.56          	31.802         	1.724
MS.57          	31.737         	1.735
MS.58          	31.675         	1.736
MS.59          	31.612         	1.723
MS.60          	31.547         	1.752
MS.61          	31.485         	1.74
MS.62          	31.422         	1.741
MS.63          	31.36          	1.724
MS.64          	31.297         	1.741
MS.65          	31.235         	1.744
MS.66          	31.172         	1.725
MS.67          	31.11          	1.734
MS.68          	31.047         	1.732
MS.69          	30.985         	1.736
MS.70          	30.925         	1.715
MS.71          	30.862         	1.711
MS.72          	30.8           	1.725
MS.73          	30.74          	1.722
MS.74          	30.677         	1.691
MS.75          	30.615         	1.744
MS.76          	30.555         	1.721
MS.77          	30.495         	1.708
MS.78          	30.432         	1.683
MS.79          	30.372         	1.689
MS.80          	30.312         	1.679
MS.81          	30.25          	1.689
MS.82          	30.19          	1.706
MS.83          	30.13          	1.697
MS.84          	30.07          	1.718
MS.85          	30.01          	1.68
MS.86          	29.95          	1.708
MS.87          	29.89          	1.711
MS.88          	29.83          	1.686
MS.89          	29.77          	1.717
MS.90          	29.712         	1.68
MS.91          	29.653         	1.67
MS.92          	29.592         	1.691
MS.93          	29.532         	1.686
MS.94          	29.475         	1.691
MS.95          	29.415         	1.668
MS.96          	29.358         	1.686
MS.97          	29.297         	1.682
MS.98          	29.24          	1.685
MS.99          	29.182         	1.714
MS.100         	29.122         	1.672
MS.101         	29.065         	1.685
MS.102         	29.007         	1.669
MS.103         	28.95          	1.657
MS.104         	28.89          	1.671
MS.105         	28.832         	1.666
MS.106         	28.775         	1.663
MS.107         	28.717         	1.674
MS.108         	28.66          	1.654
MS.109         	28.602         	1.657
MS.110         	28.547         	1.674
MS.111         	28.49          	1.662
MS.112         	28.432         	1.66
MS.113         	28.375         	1.638
MS.114         	28.32          	1.653
MS.115         	28.262         	1.644
MS.116         	28.205         	1.675
MS.117         	28.15          	1.658
MS.118         	28.092         	1.656
MS.119         	28.037         	1.669
MS.120         	27.98          	1.655
MS.121         	27.925         	1.661
MS.122         	27.87          	1.616
MS.123         	27.812         	1.65
MS.124         	27.757         	1.629
MS.125         	27.702         	1.647
MS.126         	27.647         	1.66
MS.127         	27.592         	1.63
MS.128         	27.537         	1.639
MS.129         	27.483         	1.619
MS.130         	27.427         	1.571
MS.131         	27.372         	1.611
MS.132         	27.317         	1.624
MS.133         	27.262         	1.592
MS.134         	27.207         	1.6
MS.135         	27.155         	1.605
MS.136         	27.1           	1.605
MS.137         	27.045         	1.572
MS.138         	26.993         	1.597
MS.139         	26.938         	1.617
MS.140         	26.885         	1.566
MS.141         	26.83          	1.574
MS.142         	26.778         	1.599
MS.143         	26.722         	1.555
MS.144         	26.67          	1.53
MS.145         	26.618         	1.577
MS.146         	26.562         	1.555
MS.147         	26.51          	1.588
MS.148         	26.457         	1.505
MS.149         	26.405         	1.536
MS.150         	26.352         	1.574
MS.151         	26.3           	1.516
MS.152         	26.247         	1.526
MS.153         	26.195         	1.526
MS.154         	26.142         	1.526
MS.155         	26.09          	1.496
MS.156         	26.037         	1.554
MS.157         	25.985         	1.508
MS.158         	25.932         	1.544
MS.159         	25.882         	1.512
MS.160         	25.83          	1.51
MS.161         	25.778         	1.531
MS.162         	25.727         	1.519
MS.163         	25.675         	1.478
MS.164         	25.625         	1.505
MS.165         	25.573         	1.506
MS.166         	25.522         	1.485
MS.167         	25.47          	1.485
MS.168         	25.42          	1.477
MS.169         	25.37          	1.497
MS.170         	25.317         	1.478
MS.171         	25.267         	1.508
MS.172         	25.217         	1.462
MS.173         	25.167         	1.449
MS.174         	25.118         	1.483
MS.175         	25.067         	1.49
MS.176         	25.017         	1.448
MS.177         	24.967         	1.468
MS.178         	24.917         	1.464
MS.179         	24.868         	1.448
MS.180         	24.817         	1.473
MS.181         	24.767         	1.443
MS.182         	24.717         	1.473
MS.183         	24.667         	1.44
MS.184         	24.62          	1.44
MS.185         	24.57          	1.435
MS.186         	24.52          	1.44
MS.187         	24.472         	1.402
MS.188         	24.422         	1.415
MS.189         	24.375         	1.427
MS.190         	24.325         	1.396
MS.191         	24.278         	1.403
MS.192         	24.227         	1.415
MS.193         	24.18          	1.43
MS.194         	24.132         	1.435
MS.195         	24.082         	1.405
MS.196         	24.035         	1.394
MS.197         	23.987         	1.406
MS.198         	23.94          	1.369
MS.199         	23.892         	1.374
MS.200         	23.845         	1.39
MS.201         	23.797         	1.393
MS.202         	23.747         	1.375
MS.203         	23.702         	1.367
MS.204         	23.655         	1.387
MS.205         	23.608         	1.375
MS.206         	23.56          	1.418
MS.207         	23.512         	1.373
MS.208         	23.465         	1.36
MS.209         	23.417         	1.332
MS.210         	23.372         	1.327
MS.211         	23.325         	1.359
MS.212         	23.278         	1.36
MS.213         	23.233         	1.353
MS.214         	23.185         	1.348
MS.215         	23.14          	1.343
MS.216         	23.092         	1.337
MS.217         	23.047         	1.3
MS.218         	23             	1.304
MS.219         	22.955         	1.342
MS.220         	22.91          	1.355
MS.221         	22.862         	1.348
MS.222         	22.817         	1.342
MS.223         	22.772         	1.371
MS.224         	22.727         	1.285
MS.225         	22.68          	1.3
MS.226         	22.635         	1.343
MS.227         	22.59          	1.344
MS.228         	22.545         	1.283
MS.229         	22.5           	1.334
MS.230         	22.455         	1.332
MS.231         	22.41          	1.34
MS.232         	22.365         	1.297
MS.233         	22.32          	1.293
MS.234         	22.278         	1.317
MS.235         	22.233         	1.279
MS.236         	22.188         	1.359
MS.237         	22.142         	1.281
MS.238         	22.1           	1.304
MS.239         	22.055         	1.289
MS.240         	22.01          	1.296
MS.241         	21.967         	1.274
MS.242         	21.922         	1.282
MS.243         	21.88          	1.281
MS.244         	21.835         	1.283
MS.245         	21.792         	1.233
MS.246         	21.747         	1.276
MS.247         	21.705         	1.296
MS.248         	21.663         	1.285
MS.249         	21.618         	1.275
MS.250         	21.575         	1.296
MS.251         	21.532         	1.204
MS.252         	21.487         	1.246
MS.253         	21.445         	1.234
MS.254         	21.403         	1.241
MS.255         	21.36          	1.223
MS.256         	21.317         	1.218
MS.257         	21.275         	1.251
MS.258         	21.233         	1.231
MS.259         	21.19          	1.213
MS.260         	21.147         	1.225
MS.261         	21.105         	1.228
MS.262         	21.062         	1.201
MS.263         	21.02          	1.185
MS.264         	20.98          	1.212
MS.265         	20.938         	1.191
MS.266         	20.895         	1.192
MS.267         	20.852         	1.197
MS.268         	20.812         	1.211
MS.269         	20.77          	1.191
MS.270         	20.73          	1.18
MS.271         	20.688         	1.202
MS.272         	20.645         	1.149
MS.273         	20.605         	1.187
MS.274         	20.562         	1.154
MS.275         	20.522         	1.181
MS.276         	20.483         	1.085
MS.277         	20.44          	1.129
MS.278         	20.4           	1.133
MS.279         	20.36          	1.08
MS.280         	20.317         	1.144
MS.281         	20.278         	1.103
MS.282         	20.237         	1.078
MS.283         	20.198         	1.048
MS.284         	20.157         	1.12
MS.285         	20.118         	1.08
MS.286         	20.075         	1.084
MS.287         	20.035         	1.061
MS.288         	19.995         	1.01
MS.289         	19.955         	1.038
MS.290         	19.915         	1.046
MS.291         	19.877         	0.99
MS.292         	19.837         	1.016
MS.293         	19.797         	1.016
MS.294         	19.757         	1.047
MS.295         	19.717         	0.961
MS.296         	19.677         	1.003
MS.297         	19.64          	1.008
MS.298         	19.6           	1.05
MS.299         	19.56          	0.972
MS.300         	19.522         	1.006
MS.301         	19.483         	0.979
MS.302         	19.445         	1.021
MS.303         	19.405         	0.989
MS.304         	19.365         	0.954
MS.305         	19.327         	0.972
MS.306         	19.29          	0.961
MS.307         	19.25          	0.964
MS.308         	19.212         	0.92
MS.309         	19.172         	0.951
MS.310         	19.135         	0.95
MS.311         	19.097         	0.94
MS.312         	19.06          	0.928
MS.313         	19.02          	0.97
MS.314         	18.983         	0.919
MS.315         	18.945         	0.948
MS.316         	18.907         	0.944
MS.317         	18.87          	0.941
MS.318         	18.833         	0.916
MS.319         	18.795         	0.926
MS.320         	18.757         	0.911
MS.321         	18.72          	0.92
MS.322         	18.682         	0.913
MS.323         	18.645         	0.912
MS.324         	18.608         	0.916
MS.325         	18.57          	0.902
MS.326         	18.532         	0.911
MS.327         	18.495         	0.875
MS.328         	18.458         	0.895
MS.329         	18.422         	0.869
MS.330         	18.385         	0.909
MS.331         	18.347         	0.884
MS.332         	18.312         	0.848
MS.333         	18.275         	0.869
MS.334         	18.237         	0.887
MS.335         	18.202         	0.914
MS.336         	18.165         	0.831
MS.337         	18.13          	0.856
MS.338         	18.092         	0.823
MS.339         	18.057         	0.858
MS.340         	18.02          	0.844
MS.341         	17.985         	0.836
MS.342         	17.95          	0.809
MS.343         	17.913         	0.809
MS.344         	17.878         	0.742
MS.345         	17.842         	0.758
MS.346         	17.805         	0.75
MS.347         	17.77          	0.782
MS.348         	17.735         	0.738
MS.349         	17.7           	0.751
MS.350         	17.665         	0.789
MS.351         	17.628         	0.782
MS.352         	17.592         	0.808
MS.353         	17.557         	0.697
MS.354         	17.522         	0.811
MS.355         	17.487         	0.764
MS.356         	17.452         	0.759
MS.357         	17.417         	0.765
MS.358         	17.382         	0.665
MS.359         	17.35          	0.739
MS.360         	17.315         	0.731
MS.361         	17.28          	0.739
MS.362         	17.245         	0.643
MS.363         	17.21          	0.666
MS.364         	17.177         	0.626
MS.365         	17.142         	0.666
MS.366         	17.108         	0.69
MS.367         	17.073         	0.685
MS.368         	17.04          	0.607
MS.369         	17.005         	0.608
MS.370         	16.972         	0.659
MS.371         	16.938         	0.678
MS.372         	16.903         	0.645
MS.373         	16.87          	0.577
MS.374         	16.835         	0.692
MS.375         	16.802         	0.593
MS.376         	16.77          	0.596
MS.377         	16.735         	0.602
MS.378         	16.702         	0.632
MS.379         	16.667         	0.629
MS.380         	16.635         	0.631
MS.381         	16.602         	0.582
MS.382         	16.57          	0.611
MS.383         	16.535         	0.575
MS.384         	16.503         	0.55
MS.385         	16.47          	0.584
MS.386         	16.438         	0.567
MS.387         	16.405         	0.536
MS.388         	16.372         	0.565
MS.389         	16.337         	0.574
MS.390         	16.305         	0.522
MS.391         	16.272         	0.558
MS.392         	16.24          	0.563
MS.393         	16.208         	0.538
MS.394         	16.175         	0.616
MS.395         	16.142         	0.596
MS.396         	16.112         	0.53
MS.397         	16.08          	0.543
MS.398         	16.047         	0.53
MS.399         	16.015         	0.543
MS.400         	15.983         	0.498
MS.401         	15.95          	0.5
MS.402         	15.92          	0.489
MS.403         	15.887         	0.516
MS.404         	15.855         	0.475
MS.405         	15.825         	0.535
MS.406         	15.792         	0.475
MS.407         	15.76          	0.495
MS.408         	15.73          	0.524
MS.409         	15.697         	0.469
MS.410         	15.667         	0.467
MS.411         	15.635         	0.509
MS.412         	15.605         	0.519
MS.413         	15.572         	0.505
MS.414         	15.542         	0.479
MS.415         	15.51          	0.494
MS.416         	15.48          	0.459
MS.417         	15.45          	0.476
MS.418         	15.417         	0.457
MS.419         	15.387         	0.429
MS.420         	15.358         	0.494
MS.421         	15.325         	0.474
MS.422         	15.295         	0.402
MS.423         	15.265         	0.419
MS.424         	15.235         	0.431
MS.425         	15.202         	0.403
MS.426         	15.172         	0.436
MS.427         	15.142         	0.396
MS.428         	15.112         	0.414
MS.429         	15.082         	0.414
MS.430         	15.052         	0.383
MS.431         	15.023         	0.412
MS.432         	14.992         	0.428
MS.433         	14.962         	0.385
MS.434         	14.932         	0.381
MS.435         	14.902         	0.369
MS.436         	14.872         	0.388
MS.437         	14.842         	0.41
MS.438         	14.812         	0.369
MS.439         	14.785         	0.374
MS.440         	14.755         	0.371
MS.441         	14.725         	0.406
MS.442         	14.695         	0.345
MS.443         	14.665         	0.359
MS.444         	14.637         	0.367
MS.445         	14.608         	0.327
MS.446         	14.577         	0.358
MS.447         	14.55          	0.341
MS.448         	14.52          	0.388
MS.449         	14.49          	0.337
MS.450         	14.462         	0.334
MS.451         	14.432         	0.312
MS.452         	14.405         	0.274
MS.453         	14.375         	0.331
MS.454         	14.347         	0.278
MS.455         	14.318         	0.312
MS.456         	14.29          	0.323
MS.457         	14.26          	0.292
MS.458         	14.233         	0.343
MS.459         	14.205         	0.253
MS.460         	14.175         	0.314
MS.461         	14.148         	0.271
MS.462         	14.12          	0.268
MS.463         	14.09          	0.287
MS.464         	14.062         	0.251
MS.465         	14.035         	0.242
MS.466         	14.007         	0.239
MS.467         	13.977         	0.244
MS.468         	13.95          	0.23
MS.469         	13.922         	0.234
MS.470         	13.895         	0.244
MS.471         	13.867         	0.249
MS.472         	13.84          	0.233
MS.473         	13.812         	0.228
MS.474         	13.785         	0.228
MS.475         	13.757         	0.225
MS.476         	13.73          	0.222
MS.477         	13.702         	0.212
MS.478         	13.675         	0.225
MS.479         	13.648         	0.229
MS.480         	13.62          	0.222
MS.481         	13.592         	0.193
MS.482         	13.565         	0.211
MS.483         	13.537         	0.201
MS.484         	13.512         	0.199
MS.485         	13.485         	0.203
MS.486         	13.457         	0.211
MS.487         	13.43          	0.211
MS.488         	13.403         	0.172
MS.489         	13.377         	0.196
MS.490         	13.35          	0.193
MS.491         	13.322         	0.169
MS.492         	13.297         	0.195
MS.493         	13.27          	0.171
MS.494         	13.245         	0.175
MS.495         	13.217         	0.173
MS.496         	13.19          	0.195
MS.497         	13.165         	0.172
MS.498         	13.137         	0.186
MS.499         	13.112         	0.161
MS.500         	13.085         	0.181
MS.501         	13.06          	0.149
MS.502         	13.032         	0.177
MS.503         	13.007         	0.166
MS.504         	12.983         	0.189
MS.505         	12.955         	0.159
MS.506         	12.93          	0.159
MS.507         	12.905         	0.146
MS.508         	12.877         	0.164
MS.509         	12.852         	0.168
MS.510         	12.827         	0.168
MS.511         	12.8           	0.153
MS.512         	12.775         	0.16
MS.513         	12.75          	0.154
MS.514         	12.725         	0.146
MS.515         	12.7           	0.143
MS.516         	12.672         	0.143
MS.517         	12.648         	0.143
MS.518         	12.622         	0.146
MS.519         	12.597         	0.14
MS.520         	12.572         	0.132
MS.521         	12.547         	0.14
MS.522         	12.523         	0.127
MS.523         	12.497         	0.138
MS.524         	12.472         	0.139
MS.525         	12.447         	0.137
MS.526         	12.422         	0.129
MS.527         	12.398         	0.134
MS.528         	12.372         	0.125
MS.529         	12.347         	0.121
MS.530         	12.325         	0.116
MS.531         	12.3           	0.116
MS.532         	12.275         	0.118
MS.533         	12.25          	0.112
MS.534         	12.225         	0.116
MS.535         	12.2           	0.12
MS.536         	12.177         	0.12
MS.537         	12.153         	0.121
MS.538         	12.127         	0.112
MS.539         	12.105         	0.113
MS.540         	12.08          	0.097
MS.541         	12.055         	0.111
MS.542         	12.032         	0.107
MS.543         	12.007         	0.115
MS.544         	11.983         	0.109
MS.545         	11.96          	0.095
MS.546         	11.935         	0.107
MS.547         	11.912         	0.118
MS.548         	11.887         	0.111
MS.549         	11.865         	0.104
MS.550         	11.84          	0.104
MS.551         	11.818         	0.102
MS.552         	11.792         	0.103
MS.553         	11.77          	0.101
MS.554         	11.745         	0.104
MS.555         	11.722         	0.099
MS.556         	11.7           	0.099
MS.557         	11.675         	0.106
MS.558         	11.653         	0.096
MS.559         	11.63          	0.098
MS.560         	11.605         	0.085
MS.561         	11.582         	0.092
MS.562         	11.56          	0.093
MS.563         	11.537         	0.096
MS.564         	11.512         	0.095
MS.565         	11.49          	0.095
MS.566         	11.467         	0.094
MS.567         	11.445         	0.087
MS.568         	11.422         	0.093
MS.569         	11.4           	0.093
MS.570         	11.377         	0.089
MS.571         	11.352         	0.092
MS.572         	11.33          	0.095
MS.573         	11.307         	0.095
MS.574         	11.285         	0.081
MS.575         	11.262         	0.086
MS.576         	11.24          	0.089
MS.577         	11.217         	0.09
MS.578         	11.195         	0.093
MS.579         	11.172         	0.089
MS.580         	11.15          	0.089
MS.581         	11.127         	0.077
MS.582         	11.108         	0.079
MS.583         	11.085         	0.079
MS.584         	11.062         	0.073
MS.585         	11.04          	0.079
MS.586         	11.017         	0.071
MS.587         	10.995         	0.07
MS.588         	10.975         	0.079
MS.589         	10.952         	0.067
MS.590         	10.93          	0.069
MS.591         	10.907         	0.062
MS.592         	10.887         	0.064
MS.593         	10.865         	0.064
MS.594         	10.842         	0.067
MS.595         	10.823         	0.052
MS.596         	10.8           	0.054
MS.597         	10.778         	0.056
MS.598         	10.757         	0.054
MS.599         	10.735         	0.054
MS.600         	10.715         	0.048
MS.601         	10.693         	0.052
MS.602         	10.67          	0.049
MS.603         	10.65          	0.046
MS.604         	10.627         	0.051
MS.605         	10.608         	0.045
MS.606         	10.585         	0.048
MS.607         	10.565         	0.046
MS.608         	10.542         	0.042
MS.609         	10.523         	0.042
MS.610         	10.502         	0.038
MS.611         	10.48          	0.042
MS.612         	10.46          	0.04
MS.613         	10.44          	0.04
MS.614         	10.417         	0.04
MS.615         	10.398         	0.043
MS.616         	10.377         	0.042
MS.617         	10.355         	0.04
MS.618         	10.335         	0.038
MS.619         	10.315         	0.035
MS.620         	10.292         	0.038
MS.621         	10.273         	0.035
MS.622         	10.252         	0.032
MS.623         	10.233         	0.035
MS.624         	10.212         	0.034
MS.625         	10.19          	0.035
MS.626         	10.17          	0.037
MS.627         	10.15          	0.034
MS.628         	10.13          	0.034
MS.629         	10.11          	0.032
MS.630         	10.09          	0.038
MS.631         	10.07          	0.03
MS.632         	10.05          	0.029
MS.633         	10.03          	0.032
MS.634         	10.01          	0.029
MS.635         	9.99           	0.03
MS.636         	9.97           	0.029
MS.637         	9.95           	0.03
MS.638         	9.93           	0.029
MS.639         	9.91           	0.027
MS.640         	9.89           	0.025
MS.641         	9.87           	0.028
MS.642         	9.85           	0.027
MS.643         	9.83           	0.026
MS.644         	9.81           	0.032
MS.645         	9.792          	0.029
MS.646         	9.773          	0.026
MS.647         	9.752          	0.027
MS.648         	9.733          	0.022
MS.649         	9.712          	0.026
MS.650         	9.695          	0.022
MS.651         	9.675          	0.024
MS.652         	9.655          	0.023
MS.653         	9.635          	0.024
MS.654         	9.617          	0.021
MS.655         	9.597          	0.023
MS.656         	9.577          	0.018
MS.657         	9.56           	0.019
MS.658         	9.54           	0.021
MS.659         	9.523          	0.021
MS.660         	9.502          	0.02
MS.661         	9.483          	0.023
MS.662         	9.465          	0.018
MS.663         	9.445          	0.02
MS.664         	9.427          	0.015
MS.665         	9.407          	0.015
MS.666         	9.39           	0.018
MS.667         	9.37           	0.016
MS.668         	9.352          	0.014
MS.669         	9.332          	0.016
MS.670         	9.315          	0.018
MS.671         	9.295          	0.016
MS.672         	9.278          	0.015
MS.673         	9.257          	0.015
MS.674         	9.24           	0.016
MS.675         	9.222          	0.009
MS.676         	9.202          	0.013
MS.677         	9.185          	0.018
MS.678         	9.167          	0.016
MS.679         	9.148          	0.009
MS.680         	9.13           	0.008
MS.681         	9.113          	0.013
MS.682         	9.092          	0.01
MS.683         	9.075          	0.009
MS.684         	9.057          	0.008
MS.685         	9.04           	0.008
MS.686         	9.02           	0.009
MS.687         	9.002          	0.013
MS.688         	8.985          	0.009
MS.689         	8.967          	0.01
MS.690         	8.95           	0.01
MS.691         	8.93           	0.015
MS.692         	8.912          	0.01
MS.693         	8.895          	0.009
MS.694         	8.877          	0.009
MS.695         	8.86           	0.01
MS.696         	8.842          	0.008
MS.697         	8.825          	0.008
MS.698         	8.807          	0.008
MS.699         	8.79           	0.009
MS.700         	8.773          	0.009
MS.701         	8.755          	0.007
MS.702         	8.738          	0.008
MS.703         	8.72           	0.007
MS.704         	8.702          	0.009
MS.705         	8.685          	0.009
MS.706         	8.667          	0.009
MS.707         	8.65           	0.007
MS.708         	8.632          	0.007
MS.709         	8.615          	0.007
MS.710         	8.597          	0.005
MS.711         	8.58           	0.005
MS.712         	8.562          	0.007
MS.713         	8.547          	0.007
MS.714         	8.53           	0.007
MS.715         	8.512          	0.006
MS.716         	8.495          	0.007
MS.717         	8.477          	0.007
MS.718         	8.462          	0.007
MS.719         	8.445          	0.008
MS.720         	8.427          	0.006
MS.721         	8.41           	0.006
MS.722         	8.395          	0.006
MS.723         	8.377          	0.007
MS.724         	8.36           	0.006
MS.725         	8.345          	0.006
MS.726         	8.327          	0.007
MS.727         	8.31           	0.006
MS.728         	8.295          	0.005
MS.729         	8.278          	0.006
MS.730         	8.26           	0.005
MS.731         	8.245          	0.007
MS.732         	8.227          	0.007
MS.733         	8.212          	0.007
MS.734         	8.195          	0.006
MS.735         	8.177          	0.006
MS.736         	8.162          	0.007
MS.737         	8.145          	0.005
MS.738         	8.13           	0.008
MS.739         	8.113          	0.006
MS.740         	8.097          	0.006
MS.741         	8.08           	0.006
MS.742         	8.065          	0.007
MS.743         	8.05           	0.007
MS.744         	8.033          	0.007
MS.745         	8.017          	0.005
MS.746         	8              	0.008
MS.747         	7.985          	0.007
MS.748         	7.97           	0.006
MS.749         	7.952          	0.005
MS.750         	7.938          	0.006
MS.751         	7.92           	0.006
MS.752         	7.905          	0.007
MS.753         	7.89           	0.009
MS.754         	7.872          	0.008
MS.755         	7.857          	0.007
MS.756         	7.842          	0.008
MS.757         	7.827          	0.006
DERIVED EXCITABILITY VARIABLES
Program = QTracP 9/10/2021
Threshold method = 6 (optimised for CAP, using data for present condition only)
SR method = 1 (using actual data values)
6.                 	0.000               	Peak response\(mV)
9.                 	34                  	Temperature ( C)
17.                	70                  	Age (years)
18.                	1                   	Sex (M=1, F=2)

EXTRA VARIABLES

MScPeak(mV) = 0.01
MScS95(mA) = 8.32
MScNSteps = 50
MScSteps(%) = 600
MScStepMax(%) = 34.3
MScD50 = 90
MScDuration(min) = 2.3
MSFTraces = 743
MSFPeakAmp(mV) = 1.76
MSFNUnits = 102
MSFMeanUnitAmp(uV) = 17.3
MSFHuntTime(m) = 3.11
MSFError(%) = 0.647
MSFNLarge = 29.23
MSFMedianAmp(%) = 0.866
MSFMedianAmp(mV) = 0.0152
MSFHalfAmpAmp(%) = 1.08
MSFHalfAmpAmp(mV) = 0.0189
MSFLargestAmp(%) = 3.17
MSFLargestAmp(mV) = 0.0558
MSFMeanRS(%) = 1.99
MSFSizeLimit(uV) = 5
MSFLimitType = 0
MSFSmallestAmp(uV) = 5.33
MSFOpts = 10106121

EXTRA WAVEFORMS


!MScan Model
!102
	1	9.27	0.57	2
	2	9.36	0.31	2
	3	9.83	0.37	2
	4	10.08	0.3	2
	5	10.33	0.3	2
	6	10.56	0.38	2
	7	10.68	0.31	2
	8	10.81	0.44	2
	9	10.91	0.57	2
	10	10.94	0.45	2
	11	11.05	0.49	2
	12	11.48	0.51	2
	13	11.71	0.52	2
	14	12.13	0.76	2
	15	12.42	0.79	2
	16	12.53	0.4	2
	17	12.67	0.51	2
	18	12.74	0.34	2
	19	12.99	0.91	2
	20	13.27	0.93	2
	21	13.42	0.53	2
	22	13.53	0.74	2
	23	13.64	0.53	2
	24	13.72	0.46	2
	25	13.85	0.58	2
	26	13.91	0.35	2
	27	13.96	0.39	2
	28	14.02	0.4	2
	29	14.07	0.55	2
	30	14.18	1.35	2
	31	14.38	1.78	2
	32	14.49	0.69	2
	33	14.66	2	2
	34	14.82	1	2
	35	14.96	0.76	2
	36	15.13	1.01	2
	37	15.24	0.98	2
	38	15.34	0.91	1.8
	39	15.41	1.15	2
	40	15.78	1.98	2
	41	15.95	0.92	2
	42	16.02	0.75	2
	43	16.44	2.45	2
	44	16.54	0.95	2
	45	16.86	2.6	2
	46	17.16	2.18	2
	47	17.26	1.6	2
	48	17.3	0.67	2
	49	17.36	1.08	2
	50	17.76	3.17	2
	51	17.82	0.49	2
	52	17.88	0.72	2
	53	17.95	0.94	2
	54	18.08	0.86	2
	55	18.41	1.89	2
	56	18.41	1.26	2
	57	18.54	0.55	2
	58	18.65	0.53	2
	59	18.77	0.71	2
	60	19.01	0.88	2
	61	19.14	0.73	2
	62	19.26	0.73	2
	63	19.35	0.54	2
	64	19.76	2.41	2
	65	19.87	0.59	2
	66	19.98	1.06	2
	67	20.08	1.08	2
	68	20.17	1.06	2
	69	20.3	1.41	1.6
	70	20.42	1.22	2
	71	20.51	0.83	2
	72	20.76	2.54	2
	73	20.9	0.65	2
	74	21	0.61	2
	75	21.12	0.41	2
	76	21.24	0.51	2
	77	21.4	0.87	2
	78	21.88	2.49	2
	79	22	1.44	2
	80	23.29	1.91	2
	81	23.63	1.35	2
	82	23.78	0.64	2
	83	23.91	0.66	2
	84	24.28	1.17	2
	85	24.55	1.04	2
	86	24.7	0.8	2
	87	25.18	1.65	2
	88	25.5	0.99	2
	89	25.74	0.95	2
	90	26.28	1.47	2
	91	26.61	1.51	2
	92	26.86	1.01	2
	93	27.15	1.14	2
	94	27.47	1.14	2
	95	27.72	1.1	2
	96	28.66	1.32	2
	97	29.08	0.94	2
	98	29.78	0.89	2
	99	30.51	0.84	2
	100	30.93	1.02	2
	101	32.57	0.82	2
	102	33.16	0.96	2

