File:              	C:\Qtrac\Data\Daniel M Sørensen\MScan multicentre study\Data from centres\Ankara\Processed data\FBC10113C.QZD
Name:              	TR.ANK.NC.5.1
Protocol:          	MSCAN-R2
Date:              	13/1/21
Start time:        	16:38:32
Age:               	33
Sex:               	F
Temperature:
S/R sites:         	TA
NC/disease:        	NC
Operator:          	EB
Comments:
M-SCAN DATA (6.4-1.4m)
Scanpts: 5, 11, 521, 542
Stim. (mA)     	Amp. (mV)
MS.1           	30             	5.442
MS.2           	30             	5.479
MS.3           	30             	5.406
MS.4           	30             	5.432
MS.5           	30             	5.418
MS.6           	30             	5.42
MS.7           	30             	5.472
MS.8           	30             	5.456
MS.9           	30             	5.458
MS.10          	30             	5.42
MS.11          	30             	5.424
MS.12          	30             	5.466
MS.13          	30             	5.44
MS.14          	30             	5.466
MS.15          	30             	5.454
MS.16          	30             	5.464
MS.17          	30             	5.444
MS.18          	30             	5.432
MS.19          	30             	5.446
MS.20          	30             	5.416
MS.21          	30             	5.466
MS.22          	30             	5.422
MS.23          	30             	5.489
MS.24          	29.88          	5.398
MS.25          	29.82          	5.412
MS.26          	29.76          	5.4
MS.27          	29.702         	5.406
MS.28          	29.642         	5.418
MS.29          	29.582         	5.426
MS.30          	29.522         	5.434
MS.31          	29.465         	5.416
MS.32          	29.405         	5.41
MS.33          	29.347         	5.426
MS.34          	29.287         	5.404
MS.35          	29.23          	5.398
MS.36          	29.172         	5.438
MS.37          	29.112         	5.4
MS.38          	29.055         	5.372
MS.39          	28.997         	5.398
MS.40          	28.94          	5.394
MS.41          	28.882         	5.41
MS.42          	28.823         	5.376
MS.43          	28.765         	5.36
MS.44          	28.707         	5.38
MS.45          	28.65          	5.37
MS.46          	28.595         	5.327
MS.47          	28.537         	5.394
MS.48          	28.48          	5.354
MS.49          	28.422         	5.368
MS.50          	28.365         	5.36
MS.51          	28.31          	5.311
MS.52          	28.252         	5.342
MS.53          	28.198         	5.372
MS.54          	28.14          	5.315
MS.55          	28.085         	5.305
MS.56          	28.028         	5.342
MS.57          	27.972         	5.338
MS.58          	27.915         	5.368
MS.59          	27.86          	5.348
MS.60          	27.805         	5.338
MS.61          	27.75          	5.331
MS.62          	27.692         	5.336
MS.63          	27.637         	5.301
MS.64          	27.582         	5.333
MS.65          	27.528         	5.319
MS.66          	27.472         	5.261
MS.67          	27.417         	5.255
MS.68          	27.362         	5.283
MS.69          	27.307         	5.279
MS.70          	27.255         	5.285
MS.71          	27.2           	5.211
MS.72          	27.145         	5.269
MS.73          	27.09          	5.15
MS.74          	27.037         	5.17
MS.75          	26.983         	5.237
MS.76          	26.927         	5.1
MS.77          	26.875         	5.172
MS.78          	26.82          	5.112
MS.79          	26.767         	5.233
MS.80          	26.715         	5.076
MS.81          	26.66          	5.072
MS.82          	26.608         	4.967
MS.83          	26.555         	4.937
MS.84          	26.502         	5.029
MS.85          	26.448         	4.945
MS.86          	26.395         	4.975
MS.87          	26.342         	4.828
MS.88          	26.29          	4.896
MS.89          	26.237         	4.822
MS.90          	26.185         	4.701
MS.91          	26.132         	4.689
MS.92          	26.08          	4.798
MS.93          	26.028         	4.6
MS.94          	25.977         	4.786
MS.95          	25.925         	4.568
MS.96          	25.872         	4.713
MS.97          	25.82          	4.635
MS.98          	25.77          	4.447
MS.99          	25.717         	4.526
MS.100         	25.667         	4.538
MS.101         	25.615         	4.572
MS.102         	25.565         	4.373
MS.103         	25.512         	4.516
MS.104         	25.462         	4.453
MS.105         	25.413         	4.471
MS.106         	25.36          	4.477
MS.107         	25.31          	4.363
MS.108         	25.26          	4.375
MS.109         	25.21          	4.326
MS.110         	25.157         	4.441
MS.111         	25.108         	4.371
MS.112         	25.057         	4.445
MS.113         	25.007         	4.341
MS.114         	24.957         	4.23
MS.115         	24.907         	4.288
MS.116         	24.858         	4.242
MS.117         	24.807         	4.264
MS.118         	24.76          	4.24
MS.119         	24.71          	4.179
MS.120         	24.66          	4.246
MS.121         	24.61          	4.121
MS.122         	24.562         	4.204
MS.123         	24.512         	4.145
MS.124         	24.465         	4.065
MS.125         	24.415         	4.131
MS.126         	24.365         	4.046
MS.127         	24.317         	3.926
MS.128         	24.27          	4.02
MS.129         	24.22          	4.01
MS.130         	24.172         	3.946
MS.131         	24.122         	3.936
MS.132         	24.075         	3.948
MS.133         	24.028         	3.867
MS.134         	23.98          	3.94
MS.135         	23.932         	3.752
MS.136         	23.882         	3.75
MS.137         	23.835         	3.889
MS.138         	23.788         	3.732
MS.139         	23.74          	3.68
MS.140         	23.692         	3.797
MS.141         	23.645         	3.819
MS.142         	23.597         	3.644
MS.143         	23.552         	3.611
MS.144         	23.505         	3.585
MS.145         	23.457         	3.567
MS.146         	23.41          	3.541
MS.147         	23.365         	3.495
MS.148         	23.317         	3.464
MS.149         	23.27          	3.474
MS.150         	23.225         	3.573
MS.151         	23.177         	3.408
MS.152         	23.132         	3.438
MS.153         	23.085         	3.398
MS.154         	23.04          	3.42
MS.155         	22.993         	3.311
MS.156         	22.948         	3.344
MS.157         	22.903         	3.404
MS.158         	22.855         	3.325
MS.159         	22.81          	3.378
MS.160         	22.765         	3.339
MS.161         	22.72          	3.374
MS.162         	22.672         	3.297
MS.163         	22.627         	3.315
MS.164         	22.582         	3.311
MS.165         	22.538         	3.279
MS.166         	22.493         	3.205
MS.167         	22.448         	3.215
MS.168         	22.403         	3.166
MS.169         	22.358         	3.205
MS.170         	22.312         	3.259
MS.171         	22.27          	3.086
MS.172         	22.225         	3.045
MS.173         	22.18          	3.106
MS.174         	22.135         	3.033
MS.175         	22.092         	3.06
MS.176         	22.047         	3.11
MS.177         	22.002         	3.051
MS.178         	21.96          	2.917
MS.179         	21.915         	2.876
MS.180         	21.872         	3.007
MS.181         	21.827         	2.846
MS.182         	21.785         	2.892
MS.183         	21.74          	2.9
MS.184         	21.698         	2.771
MS.185         	21.655         	2.761
MS.186         	21.61          	2.717
MS.187         	21.567         	2.663
MS.188         	21.525         	2.717
MS.189         	21.483         	2.677
MS.190         	21.438         	2.641
MS.191         	21.395         	2.693
MS.192         	21.352         	2.635
MS.193         	21.31          	2.592
MS.194         	21.267         	2.725
MS.195         	21.225         	2.5
MS.196         	21.182         	2.492
MS.197         	21.14          	2.516
MS.198         	21.097         	2.423
MS.199         	21.055         	2.393
MS.200         	21.015         	2.355
MS.201         	20.972         	2.32
MS.202         	20.93          	2.338
MS.203         	20.887         	2.355
MS.204         	20.847         	2.425
MS.205         	20.805         	2.441
MS.206         	20.762         	2.32
MS.207         	20.722         	2.284
MS.208         	20.68          	2.316
MS.209         	20.64          	2.296
MS.210         	20.597         	2.274
MS.211         	20.557         	2.099
MS.212         	20.515         	2.077
MS.213         	20.475         	2.083
MS.214         	20.435         	2.183
MS.215         	20.392         	2.058
MS.216         	20.352         	2.075
MS.217         	20.312         	1.926
MS.218         	20.27          	1.859
MS.219         	20.23          	1.917
MS.220         	20.19          	1.843
MS.221         	20.15          	1.803
MS.222         	20.11          	1.7
MS.223         	20.07          	1.706
MS.224         	20.03          	1.734
MS.225         	19.99          	1.631
MS.226         	19.95          	1.597
MS.227         	19.91          	1.68
MS.228         	19.87          	1.662
MS.229         	19.83          	1.625
MS.230         	19.79          	1.537
MS.231         	19.75          	1.507
MS.232         	19.712         	1.529
MS.233         	19.672         	1.555
MS.234         	19.632         	1.412
MS.235         	19.592         	1.476
MS.236         	19.555         	1.478
MS.237         	19.515         	1.436
MS.238         	19.475         	1.456
MS.239         	19.438         	1.337
MS.240         	19.397         	1.416
MS.241         	19.36          	1.384
MS.242         	19.32          	1.358
MS.243         	19.282         	1.414
MS.244         	19.245         	1.255
MS.245         	19.205         	1.249
MS.246         	19.167         	1.347
MS.247         	19.13          	1.283
MS.248         	19.09          	1.263
MS.249         	19.052         	1.223
MS.250         	19.015         	1.283
MS.251         	18.977         	1.198
MS.252         	18.938         	1.204
MS.253         	18.9           	1.194
MS.254         	18.862         	1.122
MS.255         	18.825         	1.227
MS.256         	18.788         	1.158
MS.257         	18.75          	1.15
MS.258         	18.712         	1.114
MS.259         	18.675         	1.076
MS.260         	18.637         	1.154
MS.261         	18.6           	1.065
MS.262         	18.562         	1.011
MS.263         	18.528         	1.009
MS.264         	18.49          	0.993
MS.265         	18.452         	1.065
MS.266         	18.415         	0.941
MS.267         	18.378         	0.953
MS.268         	18.342         	0.965
MS.269         	18.305         	0.929
MS.270         	18.27          	0.854
MS.271         	18.233         	0.902
MS.272         	18.195         	0.87
MS.273         	18.16          	0.854
MS.274         	18.122         	0.84
MS.275         	18.087         	0.816
MS.276         	18.05          	0.892
MS.277         	18.015         	0.796
MS.278         	17.98          	0.802
MS.279         	17.942         	0.804
MS.280         	17.907         	0.81
MS.281         	17.87          	0.765
MS.282         	17.835         	0.806
MS.283         	17.8           	0.796
MS.284         	17.765         	0.798
MS.285         	17.73          	0.769
MS.286         	17.692         	0.725
MS.287         	17.657         	0.657
MS.288         	17.622         	0.665
MS.289         	17.587         	0.719
MS.290         	17.552         	0.769
MS.291         	17.517         	0.691
MS.292         	17.483         	0.62
MS.293         	17.448         	0.715
MS.294         	17.413         	0.643
MS.295         	17.378         	0.693
MS.296         	17.342         	0.612
MS.297         	17.307         	0.566
MS.298         	17.275         	0.526
MS.299         	17.24          	0.602
MS.300         	17.205         	0.596
MS.301         	17.17          	0.544
MS.302         	17.135         	0.602
MS.303         	17.102         	0.522
MS.304         	17.067         	0.578
MS.305         	17.032         	0.534
MS.306         	17             	0.554
MS.307         	16.965         	0.554
MS.308         	16.932         	0.497
MS.309         	16.897         	0.54
MS.310         	16.865         	0.455
MS.311         	16.83          	0.526
MS.312         	16.797         	0.497
MS.313         	16.762         	0.51
MS.314         	16.73          	0.449
MS.315         	16.698         	0.377
MS.316         	16.663         	0.447
MS.317         	16.63          	0.403
MS.318         	16.597         	0.401
MS.319         	16.562         	0.441
MS.320         	16.53          	0.431
MS.321         	16.497         	0.369
MS.322         	16.465         	0.312
MS.323         	16.432         	0.427
MS.324         	16.397         	0.361
MS.325         	16.365         	0.401
MS.326         	16.333         	0.292
MS.327         	16.3           	0.363
MS.328         	16.267         	0.308
MS.329         	16.235         	0.367
MS.330         	16.202         	0.292
MS.331         	16.17          	0.324
MS.332         	16.137         	0.274
MS.333         	16.105         	0.304
MS.334         	16.075         	0.326
MS.335         	16.042         	0.292
MS.336         	16.01          	0.278
MS.337         	15.977         	0.266
MS.338         	15.945         	0.244
MS.339         	15.915         	0.262
MS.340         	15.882         	0.258
MS.341         	15.85          	0.254
MS.342         	15.818         	0.26
MS.343         	15.787         	0.28
MS.344         	15.755         	0.262
MS.345         	15.725         	0.256
MS.346         	15.693         	0.224
MS.347         	15.662         	0.203
MS.348         	15.63          	0.242
MS.349         	15.6           	0.254
MS.350         	15.568         	0.256
MS.351         	15.537         	0.254
MS.352         	15.505         	0.23
MS.353         	15.475         	0.238
MS.354         	15.443         	0.209
MS.355         	15.412         	0.256
MS.356         	15.382         	0.224
MS.357         	15.35          	0.26
MS.358         	15.32          	0.234
MS.359         	15.29          	0.205
MS.360         	15.26          	0.232
MS.361         	15.23          	0.181
MS.362         	15.197         	0.187
MS.363         	15.167         	0.193
MS.364         	15.137         	0.187
MS.365         	15.108         	0.214
MS.366         	15.077         	0.187
MS.367         	15.047         	0.159
MS.368         	15.017         	0.179
MS.369         	14.987         	0.157
MS.370         	14.957         	0.163
MS.371         	14.927         	0.173
MS.372         	14.898         	0.143
MS.373         	14.867         	0.159
MS.374         	14.837         	0.155
MS.375         	14.807         	0.155
MS.376         	14.78          	0.137
MS.377         	14.75          	0.151
MS.378         	14.72          	0.139
MS.379         	14.69          	0.129
MS.380         	14.66          	0.143
MS.381         	14.632         	0.147
MS.382         	14.602         	0.149
MS.383         	14.572         	0.145
MS.384         	14.545         	0.139
MS.385         	14.515         	0.143
MS.386         	14.485         	0.141
MS.387         	14.457         	0.125
MS.388         	14.427         	0.129
MS.389         	14.4           	0.133
MS.390         	14.37          	0.157
MS.391         	14.342         	0.127
MS.392         	14.312         	0.127
MS.393         	14.285         	0.129
MS.394         	14.255         	0.141
MS.395         	14.227         	0.135
MS.396         	14.2           	0.141
MS.397         	14.17          	0.129
MS.398         	14.142         	0.119
MS.399         	14.115         	0.113
MS.400         	14.085         	0.125
MS.401         	14.057         	0.115
MS.402         	14.03          	0.125
MS.403         	14.002         	0.149
MS.404         	13.975         	0.119
MS.405         	13.945         	0.117
MS.406         	13.917         	0.101
MS.407         	13.89          	0.119
MS.408         	13.862         	0.111
MS.409         	13.835         	0.109
MS.410         	13.807         	0.111
MS.411         	13.78          	0.109
MS.412         	13.752         	0.097
MS.413         	13.725         	0.095
MS.414         	13.697         	0.091
MS.415         	13.67          	0.097
MS.416         	13.642         	0.093
MS.417         	13.615         	0.099
MS.418         	13.587         	0.091
MS.419         	13.56          	0.091
MS.420         	13.535         	0.091
MS.421         	13.507         	0.097
MS.422         	13.48          	0.089
MS.423         	13.452         	0.099
MS.424         	13.425         	0.087
MS.425         	13.4           	0.089
MS.426         	13.372         	0.083
MS.427         	13.345         	0.087
MS.428         	13.32          	0.085
MS.429         	13.292         	0.089
MS.430         	13.265         	0.089
MS.431         	13.24          	0.087
MS.432         	13.212         	0.085
MS.433         	13.188         	0.085
MS.434         	13.16          	0.079
MS.435         	13.135         	0.095
MS.436         	13.108         	0.079
MS.437         	13.082         	0.083
MS.438         	13.055         	0.087
MS.439         	13.03          	0.087
MS.440         	13.002         	0.087
MS.441         	12.977         	0.083
MS.442         	12.952         	0.085
MS.443         	12.925         	0.079
MS.444         	12.9           	0.081
MS.445         	12.875         	0.083
MS.446         	12.847         	0.079
MS.447         	12.822         	0.083
MS.448         	12.797         	0.083
MS.449         	12.77          	0.079
MS.450         	12.745         	0.079
MS.451         	12.72          	0.083
MS.452         	12.695         	0.002
MS.453         	12.67          	0.075
MS.454         	12.645         	0.000
MS.455         	12.62          	-0.002
MS.456         	12.592         	0.004
MS.457         	12.568         	0.081
MS.458         	12.542         	0.000
MS.459         	12.517         	-0.002
MS.460         	12.492         	-0.004
MS.461         	12.467         	-0.002
MS.462         	12.443         	-0.002
MS.463         	12.417         	-0.002
MS.464         	12.395         	-0.002
MS.465         	12.37          	-0.002
MS.466         	12.345         	-0.002
MS.467         	12.32          	-0.002
MS.468         	12.295         	-0.002
MS.469         	12.27          	-0.002
MS.470         	12.245         	-0.002
MS.471         	12.222         	-0.002
MS.472         	12.197         	-0.002
MS.473         	12.172         	0.000
MS.474         	12.148         	0.002
MS.475         	12.125         	0.002
MS.476         	12.1           	-0.002
MS.477         	12.075         	-0.004
MS.478         	12.052         	-0.002
MS.479         	12.028         	-0.004
MS.480         	12.002         	0.002
MS.481         	11.98          	0.000
MS.482         	11.955         	-0.002
MS.483         	11.932         	-0.002
MS.484         	11.907         	-0.002
MS.485         	11.885         	0.000
MS.486         	11.86          	0.002
MS.487         	11.837         	-0.002
MS.488         	11.812         	-0.002
MS.489         	11.79          	0.002
MS.490         	11.765         	-0.002
MS.491         	11.742         	0.000
MS.492         	11.72          	-0.002
MS.493         	11.695         	-0.004
MS.494         	11.672         	0.000
MS.495         	11.648         	-0.002
MS.496         	11.625         	-0.002
MS.497         	11.602         	-0.002
MS.498         	11.58          	-0.002
MS.499         	11.555         	0.000
MS.500         	11.532         	0.000
MS.501         	11.51          	0.000
MS.502         	11.488         	0.000
MS.503         	11.465         	-0.002
MS.504         	11.44          	0.000
MS.505         	11.417         	-0.004
MS.506         	11.395         	-0.002
MS.507         	11.372         	-0.002
MS.508         	11.35          	0.000
MS.509         	11.327         	0.000
MS.510         	11.305         	0.000
MS.511         	11.282         	0.000
MS.512         	11.26          	0.002
MS.513         	11.238         	0.000
MS.514         	11.215         	0.000
MS.515         	11.193         	0.000
MS.516         	11.17          	-0.004
MS.517         	11.148         	0.000
MS.518         	11.125         	-0.002
MS.519         	11.102         	0.000
MS.520         	11.08          	-0.002
MS.521         	11.057         	0.000
MS.522         	11.037         	-0.002
MS.523         	11.015         	-0.002
MS.524         	10.992         	0.000
MS.525         	10.97          	-0.002
MS.526         	10.948         	0.000
MS.527         	10.927         	-0.002
MS.528         	10.905         	0.000
MS.529         	10.882         	-0.002
MS.530         	10.86          	0.000
MS.531         	10.84          	-0.004
MS.532         	10.818         	-0.004
MS.533         	10.795         	0.000
MS.534         	10.775         	0.000
MS.535         	10.752         	0.000
MS.536         	10.733         	-0.002
MS.537         	10.71          	-0.002
MS.538         	10.69          	0.000
MS.539         	10.667         	0.002
MS.540         	10.645         	0.000
MS.541         	10.625         	0.000
MS.542         	10.602         	0.002
DERIVED EXCITABILITY VARIABLES
Program = QTracP 3/4/2020
Threshold method = 6 (optimised for CAP, using data for present condition only)
SR method = 1 (using actual data values)
6.                 	0.000               	Peak response\(mV)
17.                	33                  	Age (years)
18.                	2                   	Sex (M=1, F=2)

EXTRA VARIABLES

MScPeak(mV) = 5.44
MScS5(mA) = 15.86
MScS50(mA) = 21.38
MScS95(mA) = 26.91
MScNSteps = 1
MScSteps(%) = 2.4
MScStepMax(%) = 2.4
MScD50 = 57
MScSlope = 4.21
MSFPeakAmp(mV) = 5.44
MSFNUnits = 183
MSFMeanUnitAmp(uV) = 29.7
MSFHuntTime(m) = 3.27
MSFError(%) = 1.41
MSFNLarge = 61.91
MSFMedianAmp(%) = 0.469
MSFMedianAmp(mV) = 0.0255
MSFHalfAmpAmp(%) = 0.581
MSFHalfAmpAmp(mV) = 0.0316
MSFLargestAmp(%) = 1.92
MSFLargestAmp(mV) = 0.104
MSFMeanRS(%) = 2
MSFOpts = 10106121
MScDuration(min) = 5
MSFTraces = 538
MSFSizeLimit(uV) = 13.6
MSFLimitType = 1
MSFSmallestAmp(uV) = 13.9

EXTRA WAVEFORMS


!MScan Model
!183
	1	12.56	0.33	2
	2	12.74	0.88	2
	3	13.32	0.41	2
	4	13.81	0.35	2
	5	14.61	0.64	2
	6	14.89	0.32	2
	7	15.07	0.37	2
	8	15.17	0.32	2
	9	15.31	0.41	2
	10	15.73	0.65	2
	11	16	0.48	2
	12	16.1	0.38	2
	13	16.24	0.52	2
	14	16.4	0.71	2
	15	16.55	0.55	2
	16	16.63	0.4	2
	17	16.7	0.53	2
	18	16.76	0.35	2
	19	16.82	0.32	2
	20	16.93	0.65	2
	21	17.04	0.53	2
	22	17.2	0.63	2
	23	17.28	0.43	2
	24	17.37	0.6	2
	25	17.49	0.63	2
	26	17.59	0.6	2
	27	17.68	0.47	2
	28	17.77	0.56	2
	29	17.86	0.41	2
	30	17.95	0.44	2
	31	18.04	0.42	2
	32	18.15	0.64	2
	33	18.2	0.33	2
	34	18.24	0.33	2
	35	18.27	0.26	2
	36	18.34	0.42	2
	37	18.37	0.3	2
	38	18.4	0.32	2
	39	18.44	0.33	2
	40	18.47	0.32	2
	41	18.51	0.31	2
	42	18.54	0.31	2
	43	18.57	0.33	2
	44	18.61	0.34	2
	45	18.65	0.47	2
	46	18.74	0.43	2
	47	18.8	0.51	2
	48	18.87	0.54	2
	49	18.94	0.48	2
	50	19	0.42	2
	51	19.06	0.42	2
	52	19.12	0.44	2
	53	19.18	0.48	2
	54	19.24	0.44	2
	55	19.31	0.46	2
	56	19.37	0.54	2
	57	19.47	0.83	2
	58	19.54	0.47	2
	59	19.6	0.37	2
	60	19.65	0.57	2
	61	19.71	0.49	2
	62	19.76	0.42	2
	63	19.8	0.34	2
	64	19.83	0.43	2
	65	19.87	0.43	2
	66	19.91	0.39	2
	67	19.95	0.42	2
	68	19.99	0.43	2
	69	20.01	0.31	2
	70	20.03	0.31	2
	71	20.05	0.31	2
	72	20.08	0.31	2
	73	20.1	0.32	2
	74	20.12	0.32	2
	75	20.14	0.32	2
	76	20.16	0.34	2
	77	20.18	0.37	2
	78	20.21	0.35	2
	79	20.23	0.33	2
	80	20.25	0.33	2
	81	20.28	0.37	2
	82	20.3	0.43	2
	83	20.33	0.58	2
	84	20.37	0.64	2
	85	20.4	0.63	2
	86	20.44	0.61	1.9
	87	20.48	0.7	2
	88	20.51	0.67	2
	89	20.61	1.61	2
	90	20.72	0.93	2
	91	20.9	1.92	2
	92	21.03	0.86	2
	93	21.07	0.34	2
	94	21.11	0.39	2
	95	21.16	0.61	2
	96	21.23	0.97	2
	97	21.3	0.78	2
	98	21.38	0.68	2
	99	21.42	0.4	2
	100	21.45	0.34	2
	101	21.49	0.38	2
	102	21.52	0.4	2
	103	21.55	0.38	2
	104	21.59	0.39	2
	105	21.63	0.41	2
	106	21.66	0.39	2
	107	21.7	0.3	2
	108	21.73	0.31	2
	109	21.77	0.45	2
	110	21.81	0.48	2
	111	21.86	0.75	2
	112	21.95	0.95	2
	113	22.02	0.78	2
	114	22.09	0.68	2
	115	22.17	0.66	2
	116	22.24	0.61	2
	117	22.3	0.52	2
	118	22.35	0.43	2
	119	22.4	0.43	2
	120	22.45	0.45	2
	121	22.56	0.89	2
	122	22.67	0.56	2
	123	22.81	0.87	2
	124	22.95	0.78	2
	125	23.04	0.37	2
	126	23.14	0.48	2
	127	23.21	0.5	2
	128	23.26	0.51	2
	129	23.32	0.55	2
	130	23.38	0.65	2
	131	23.46	0.87	2
	132	23.54	0.41	2
	133	23.62	0.73	2
	134	23.71	1.04	2
	135	23.82	1.27	2
	136	23.89	0.67	2
	137	23.96	0.6	2
	138	24.03	0.58	2
	139	24.1	0.65	2
	140	24.15	0.44	2
	141	24.19	0.38	2
	142	24.23	0.38	2
	143	24.27	0.37	2
	144	24.31	0.38	2
	145	24.36	0.45	2
	146	24.41	0.45	2
	147	24.46	0.32	2
	148	24.5	0.32	2
	149	24.55	0.4	2
	150	24.6	0.41	2
	151	24.67	0.59	2
	152	24.74	0.69	2
	153	24.82	0.64	2
	154	24.94	0.82	2
	155	25.06	0.59	2
	156	25.28	1.5	2
	157	25.47	0.81	2
	158	25.64	1.03	2
	159	25.82	1.35	2
	160	25.91	0.69	2
	161	26	0.87	2
	162	26.08	0.94	2
	163	26.15	0.75	2
	164	26.2	0.47	2
	165	26.25	0.37	2
	166	26.3	0.39	2
	167	26.35	0.57	2
	168	26.42	0.83	2
	169	26.5	0.89	2
	170	26.57	0.88	2
	171	26.64	0.67	2
	172	26.69	0.48	2
	173	26.74	0.77	2
	174	26.84	0.55	2
	175	26.94	0.71	2
	176	27.04	0.57	2
	177	27.14	0.47	2
	178	27.35	0.56	2
	179	27.5	0.42	2
	180	27.71	0.46	2
	181	28.58	0.9	2
	182	28.89	0.37	2
	183	29.5	0.48	2

