File:              	C:\Qtrac\Data\Daniel M Sørensen\MScan multicentre study\Data from centres\Roskilde\Folders with NC-examinations\ROS_N5a\MBC00416C.QZD
Name:              	DK.ROS.NC.5.1
Protocol:          	MSCAN-R2
Date:              	16/4/20
Start time:        	13:51:07
Age:               	33
Sex:               	m
Temperature:       	37.9
S/R sites:         	Peroneal-TA
NC/disease:        	NC
Operator:          	MB
Comments:
M-SCAN DATA (13-1.7m)
Scanpts: 13, 23, 1164, 1174
Stim. (mA)     	Amp. (mV)
MS.1           	42             	10.272
MS.2           	42             	10.351
MS.3           	42             	10.292
MS.4           	42             	10.25
MS.5           	42             	10.306
MS.6           	42             	10.296
MS.7           	42             	10.323
MS.8           	42             	10.268
MS.9           	42             	10.321
MS.10          	42             	10.308
MS.11          	42             	10.349
MS.12          	42             	10.373
MS.13          	42             	10.367
MS.14          	42             	10.343
MS.15          	42             	10.363
MS.16          	42             	10.343
MS.17          	42             	10.387
MS.18          	42             	10.363
MS.19          	42             	10.397
MS.20          	42             	10.308
MS.21          	42             	10.375
MS.22          	42             	10.349
MS.23          	42             	10.355
MS.24          	41.833         	10.331
MS.25          	41.747         	10.377
MS.26          	41.665         	10.357
MS.27          	41.583         	10.365
MS.28          	41.5           	10.391
MS.29          	41.415         	10.333
MS.30          	41.333         	10.349
MS.31          	41.25          	10.415
MS.32          	41.167         	10.345
MS.33          	41.085         	10.315
MS.34          	41.005         	10.278
MS.35          	40.923         	10.238
MS.36          	40.84          	10.272
MS.37          	40.757         	10.222
MS.38          	40.677         	10.248
MS.39          	40.595         	10.083
MS.40          	40.515         	10.081
MS.41          	40.435         	10.119
MS.42          	40.353         	10.306
MS.43          	40.272         	10.165
MS.44          	40.192         	10.286
MS.45          	40.112         	10.145
MS.46          	40.032         	10.186
MS.47          	39.952         	10.182
MS.48          	39.872         	10.063
MS.49          	39.792         	10.103
MS.50          	39.712         	10.063
MS.51          	39.632         	10.075
MS.52          	39.555         	9.99
MS.53          	39.475         	9.938
MS.54          	39.395         	9.94
MS.55          	39.317         	9.894
MS.56          	39.24          	9.958
MS.57          	39.16          	9.924
MS.58          	39.083         	9.994
MS.59          	39.005         	9.871
MS.60          	38.925         	9.783
MS.61          	38.847         	9.938
MS.62          	38.77          	9.994
MS.63          	38.692         	9.736
MS.64          	38.615         	9.805
MS.65          	38.54          	9.894
MS.66          	38.462         	9.773
MS.67          	38.385         	9.966
MS.68          	38.307         	9.885
MS.69          	38.232         	9.994
MS.70          	38.155         	9.602
MS.71          	38.08          	9.799
MS.72          	38.002         	10.039
MS.73          	37.927         	9.966
MS.74          	37.853         	9.896
MS.75          	37.775         	9.904
MS.76          	37.7           	9.825
MS.77          	37.625         	9.775
MS.78          	37.55          	9.624
MS.79          	37.475         	9.521
MS.80          	37.4           	9.716
MS.81          	37.325         	9.7
MS.82          	37.25          	9.541
MS.83          	37.175         	9.507
MS.84          	37.103         	9.495
MS.85          	37.028         	9.503
MS.86          	36.952         	9.471
MS.87          	36.88          	8.76
MS.88          	36.805         	9.559
MS.89          	36.732         	9.624
MS.90          	36.66          	9.41
MS.91          	36.585         	9.483
MS.92          	36.513         	9.646
MS.93          	36.44          	9.599
MS.94          	36.368         	9.533
MS.95          	36.295         	9.485
MS.96          	36.222         	9.428
MS.97          	36.15          	9.326
MS.98          	36.077         	9.501
MS.99          	36.005         	9.507
MS.100         	35.932         	9.37
MS.101         	35.862         	9.344
MS.102         	35.79          	9.322
MS.103         	35.717         	9.392
MS.104         	35.647         	9.34
MS.105         	35.575         	9.456
MS.106         	35.505         	9.45
MS.107         	35.435         	9.378
MS.108         	35.362         	9.336
MS.109         	35.292         	9.318
MS.110         	35.222         	9.273
MS.111         	35.153         	9.251
MS.112         	35.08          	8.909
MS.113         	35.01          	9.213
MS.114         	34.94          	9.187
MS.115         	34.872         	9.221
MS.116         	34.802         	9.189
MS.117         	34.732         	9.223
MS.118         	34.662         	9.307
MS.119         	34.592         	9.255
MS.120         	34.525         	9.199
MS.121         	34.455         	9.247
MS.122         	34.388         	9.207
MS.123         	34.318         	9.257
MS.124         	34.25          	9.243
MS.125         	34.18          	9.207
MS.126         	34.112         	9.066
MS.127         	34.045         	9.082
MS.128         	33.978         	9.12
MS.129         	33.907         	8.983
MS.130         	33.84          	9.221
MS.131         	33.772         	9.227
MS.132         	33.705         	9.215
MS.133         	33.638         	9.158
MS.134         	33.57          	9.058
MS.135         	33.505         	9.078
MS.136         	33.438         	9.094
MS.137         	33.37          	8.929
MS.138         	33.302         	9.011
MS.139         	33.237         	9.034
MS.140         	33.17          	8.999
MS.141         	33.105         	8.969
MS.142         	33.037         	8.947
MS.143         	32.972         	9.023
MS.144         	32.907         	9.229
MS.145         	32.84          	9.174
MS.146         	32.775         	9.13
MS.147         	32.71          	9.104
MS.148         	32.645         	8.977
MS.149         	32.58          	8.953
MS.150         	32.515         	8.959
MS.151         	32.45          	8.947
MS.152         	32.385         	8.963
MS.153         	32.32          	8.973
MS.154         	32.255         	8.899
MS.155         	32.19          	8.86
MS.156         	32.125         	8.816
MS.157         	32.062         	8.832
MS.158         	31.997         	8.888
MS.159         	31.935         	8.834
MS.160         	31.87          	8.933
MS.161         	31.807         	8.697
MS.162         	31.742         	8.804
MS.163         	31.68          	8.903
MS.164         	31.615         	8.796
MS.165         	31.552         	8.872
MS.166         	31.49          	8.649
MS.167         	31.427         	8.651
MS.168         	31.365         	8.731
MS.169         	31.302         	8.675
MS.170         	31.24          	8.671
MS.171         	31.177         	8.776
MS.172         	31.115         	8.713
MS.173         	31.052         	8.687
MS.174         	30.99          	8.645
MS.175         	30.927         	8.679
MS.176         	30.867         	8.669
MS.177         	30.805         	8.609
MS.178         	30.742         	8.592
MS.179         	30.682         	8.625
MS.180         	30.62          	8.5
MS.181         	30.56          	8.286
MS.182         	30.497         	8.47
MS.183         	30.438         	8.564
MS.184         	30.377         	8.615
MS.185         	30.315         	8.534
MS.186         	30.255         	8.56
MS.187         	30.195         	8.506
MS.188         	30.135         	8.516
MS.189         	30.075         	8.447
MS.190         	30.015         	8.417
MS.191         	29.955         	8.373
MS.192         	29.895         	8.476
MS.193         	29.835         	8.54
MS.194         	29.775         	8.421
MS.195         	29.715         	8.482
MS.196         	29.655         	8.464
MS.197         	29.597         	8.423
MS.198         	29.537         	8.411
MS.199         	29.477         	8.407
MS.200         	29.42          	8.433
MS.201         	29.36          	8.385
MS.202         	29.302         	8.395
MS.203         	29.242         	8.423
MS.204         	29.185         	8.407
MS.205         	29.127         	8.419
MS.206         	29.07          	8.359
MS.207         	29.01          	8.387
MS.208         	28.952         	8.282
MS.209         	28.895         	8.375
MS.210         	28.837         	8.399
MS.211         	28.78          	8.318
MS.212         	28.722         	8.397
MS.213         	28.665         	8.381
MS.214         	28.608         	8.347
MS.215         	28.55          	8.272
MS.216         	28.493         	8.252
MS.217         	28.438         	8.268
MS.218         	28.38          	8.27
MS.219         	28.323         	8.325
MS.220         	28.265         	8.294
MS.221         	28.21          	8.306
MS.222         	28.153         	8.325
MS.223         	28.097         	8.316
MS.224         	28.04          	8.218
MS.225         	27.985         	8.337
MS.226         	27.93          	8.206
MS.227         	27.872         	8.228
MS.228         	27.817         	8.234
MS.229         	27.762         	8.304
MS.230         	27.707         	8.266
MS.231         	27.65          	8.248
MS.232         	27.595         	8.192
MS.233         	27.54          	8.232
MS.234         	27.485         	8.22
MS.235         	27.43          	8.208
MS.236         	27.375         	8.26
MS.237         	27.323         	8.222
MS.238         	27.267         	8.246
MS.239         	27.212         	8.177
MS.240         	27.157         	8.186
MS.241         	27.102         	8.171
MS.242         	27.05          	8.173
MS.243         	26.995         	8.143
MS.244         	26.942         	8.194
MS.245         	26.887         	8.163
MS.246         	26.835         	8.194
MS.247         	26.78          	8.202
MS.248         	26.727         	8.202
MS.249         	26.672         	8.121
MS.250         	26.62          	8.121
MS.251         	26.567         	8.171
MS.252         	26.515         	8.117
MS.253         	26.46          	8.165
MS.254         	26.407         	8.184
MS.255         	26.355         	8.177
MS.256         	26.302         	8.129
MS.257         	26.25          	8.159
MS.258         	26.198         	8.121
MS.259         	26.145         	8.147
MS.260         	26.092         	8.143
MS.261         	26.04          	8.119
MS.262         	25.99          	8.091
MS.263         	25.938         	8.145
MS.264         	25.885         	8.115
MS.265         	25.832         	8.151
MS.266         	25.782         	8.137
MS.267         	25.73          	8.105
MS.268         	25.68          	8.135
MS.269         	25.627         	8.109
MS.270         	25.577         	8.149
MS.271         	25.525         	8.117
MS.272         	25.475         	8.151
MS.273         	25.422         	8.101
MS.274         	25.372         	8.153
MS.275         	25.323         	8.081
MS.276         	25.27          	8.081
MS.277         	25.22          	8.071
MS.278         	25.17          	8.069
MS.279         	25.12          	8.091
MS.280         	25.07          	8.067
MS.281         	25.02          	8.055
MS.282         	24.97          	8.075
MS.283         	24.92          	8.069
MS.284         	24.87          	8.047
MS.285         	24.82          	8.071
MS.286         	24.77          	8.065
MS.287         	24.722         	8.063
MS.288         	24.672         	8.105
MS.289         	24.622         	8.059
MS.290         	24.573         	8.077
MS.291         	24.525         	8.045
MS.292         	24.475         	8.081
MS.293         	24.427         	8.077
MS.294         	24.377         	8.095
MS.295         	24.33          	8.028
MS.296         	24.28          	8.043
MS.297         	24.233         	8.077
MS.298         	24.182         	8.057
MS.299         	24.135         	8.077
MS.300         	24.087         	8.004
MS.301         	24.038         	8.087
MS.302         	23.99          	8.069
MS.303         	23.942         	8.107
MS.304         	23.895         	8.057
MS.305         	23.847         	8.049
MS.306         	23.8           	8.087
MS.307         	23.752         	8.091
MS.308         	23.705         	8.065
MS.309         	23.657         	8.002
MS.310         	23.61          	8.053
MS.311         	23.562         	7.986
MS.312         	23.515         	8.063
MS.313         	23.467         	8.02
MS.314         	23.422         	8.049
MS.315         	23.375         	8.059
MS.316         	23.327         	8.022
MS.317         	23.282         	7.988
MS.318         	23.235         	7.926
MS.319         	23.188         	7.962
MS.320         	23.142         	8.004
MS.321         	23.095         	7.938
MS.322         	23.05          	7.948
MS.323         	23.005         	7.954
MS.324         	22.957         	7.948
MS.325         	22.913         	7.956
MS.326         	22.868         	7.944
MS.327         	22.82          	7.938
MS.328         	22.775         	7.932
MS.329         	22.73          	7.944
MS.330         	22.685         	7.946
MS.331         	22.64          	7.932
MS.332         	22.592         	7.93
MS.333         	22.547         	7.934
MS.334         	22.502         	7.908
MS.335         	22.457         	7.916
MS.336         	22.413         	7.928
MS.337         	22.37          	7.869
MS.338         	22.325         	7.918
MS.339         	22.28          	7.891
MS.340         	22.235         	7.896
MS.341         	22.19          	7.926
MS.342         	22.145         	7.96
MS.343         	22.102         	7.912
MS.344         	22.057         	7.906
MS.345         	22.012         	7.906
MS.346         	21.97          	7.896
MS.347         	21.925         	7.912
MS.348         	21.882         	7.891
MS.349         	21.837         	7.9
MS.350         	21.795         	7.883
MS.351         	21.75          	7.887
MS.352         	21.708         	7.926
MS.353         	21.665         	7.875
MS.354         	21.62          	7.863
MS.355         	21.577         	7.92
MS.356         	21.535         	7.916
MS.357         	21.493         	7.916
MS.358         	21.448         	7.916
MS.359         	21.405         	7.877
MS.360         	21.362         	7.887
MS.361         	21.32          	7.851
MS.362         	21.278         	7.93
MS.363         	21.235         	7.879
MS.364         	21.192         	7.906
MS.365         	21.15          	7.887
MS.366         	21.108         	7.912
MS.367         	21.065         	7.902
MS.368         	21.025         	7.908
MS.369         	20.983         	7.934
MS.370         	20.94          	7.912
MS.371         	20.897         	7.871
MS.372         	20.858         	7.908
MS.373         	20.815         	7.891
MS.374         	20.772         	7.92
MS.375         	20.733         	7.924
MS.376         	20.69          	7.91
MS.377         	20.65          	7.912
MS.378         	20.608         	7.893
MS.379         	20.567         	7.902
MS.380         	20.525         	7.94
MS.381         	20.485         	7.922
MS.382         	20.442         	7.898
MS.383         	20.403         	7.916
MS.384         	20.362         	7.936
MS.385         	20.32          	7.91
MS.386         	20.28          	7.904
MS.387         	20.24          	7.914
MS.388         	20.2           	7.944
MS.389         	20.16          	7.936
MS.390         	20.12          	7.881
MS.391         	20.08          	7.908
MS.392         	20.038         	7.908
MS.393         	19.997         	7.908
MS.394         	19.958         	7.914
MS.395         	19.92          	7.9
MS.396         	19.88          	7.918
MS.397         	19.84          	7.906
MS.398         	19.8           	7.93
MS.399         	19.76          	7.91
MS.400         	19.72          	7.91
MS.401         	19.68          	7.91
MS.402         	19.642         	7.928
MS.403         	19.602         	7.928
MS.404         	19.562         	7.926
MS.405         	19.525         	7.908
MS.406         	19.485         	7.936
MS.407         	19.448         	7.936
MS.408         	19.407         	7.932
MS.409         	19.37          	7.936
MS.410         	19.33          	7.902
MS.411         	19.292         	7.928
MS.412         	19.252         	7.91
MS.413         	19.215         	7.922
MS.414         	19.175         	7.938
MS.415         	19.137         	7.926
MS.416         	19.1           	7.934
MS.417         	19.062         	7.926
MS.418         	19.022         	7.922
MS.419         	18.985         	7.928
MS.420         	18.948         	7.891
MS.421         	18.91          	7.924
MS.422         	18.872         	7.887
MS.423         	18.835         	7.9
MS.424         	18.797         	7.936
MS.425         	18.76          	7.934
MS.426         	18.722         	7.944
MS.427         	18.685         	7.885
MS.428         	18.647         	7.898
MS.429         	18.61          	7.887
MS.430         	18.573         	7.91
MS.431         	18.535         	7.906
MS.432         	18.497         	7.891
MS.433         	18.46          	7.893
MS.434         	18.425         	7.946
MS.435         	18.387         	7.908
MS.436         	18.35          	7.916
MS.437         	18.315         	7.879
MS.438         	18.278         	7.891
MS.439         	18.24          	7.912
MS.440         	18.205         	7.9
MS.441         	18.167         	7.94
MS.442         	18.132         	7.898
MS.443         	18.095         	7.873
MS.444         	18.06          	7.896
MS.445         	18.022         	7.887
MS.446         	17.987         	7.904
MS.447         	17.952         	7.9
MS.448         	17.915         	7.898
MS.449         	17.88          	7.887
MS.450         	17.845         	7.904
MS.451         	17.807         	7.857
MS.452         	17.772         	7.857
MS.453         	17.737         	7.875
MS.454         	17.702         	7.841
MS.455         	17.667         	7.849
MS.456         	17.63          	7.811
MS.457         	17.595         	7.853
MS.458         	17.56          	7.785
MS.459         	17.525         	7.833
MS.460         	17.49          	7.857
MS.461         	17.455         	7.839
MS.462         	17.42          	7.845
MS.463         	17.385         	7.829
MS.464         	17.352         	7.815
MS.465         	17.317         	7.811
MS.466         	17.282         	7.791
MS.467         	17.247         	7.827
MS.468         	17.212         	7.795
MS.469         	17.177         	7.797
MS.470         	17.145         	7.817
MS.471         	17.11          	7.785
MS.472         	17.075         	7.801
MS.473         	17.042         	7.791
MS.474         	17.007         	7.807
MS.475         	16.972         	7.801
MS.476         	16.94          	7.791
MS.477         	16.905         	7.797
MS.478         	16.872         	7.805
MS.479         	16.837         	7.805
MS.480         	16.805         	7.809
MS.481         	16.77          	7.783
MS.482         	16.737         	7.777
MS.483         	16.705         	7.789
MS.484         	16.67          	7.797
MS.485         	16.637         	7.757
MS.486         	16.605         	7.759
MS.487         	16.57          	7.785
MS.488         	16.538         	7.761
MS.489         	16.505         	7.759
MS.490         	16.472         	7.785
MS.491         	16.44          	7.781
MS.492         	16.407         	7.763
MS.493         	16.372         	7.771
MS.494         	16.34          	7.771
MS.495         	16.307         	7.807
MS.496         	16.275         	7.761
MS.497         	16.243         	7.773
MS.498         	16.21          	7.761
MS.499         	16.177         	7.767
MS.500         	16.145         	7.779
MS.501         	16.112         	7.777
MS.502         	16.083         	7.785
MS.503         	16.05          	7.779
MS.504         	16.017         	7.763
MS.505         	15.985         	7.777
MS.506         	15.952         	7.763
MS.507         	15.922         	7.761
MS.508         	15.89          	7.759
MS.509         	15.858         	7.728
MS.510         	15.825         	7.718
MS.511         	15.795         	7.732
MS.512         	15.762         	7.73
MS.513         	15.733         	7.732
MS.514         	15.7           	7.724
MS.515         	15.667         	7.732
MS.516         	15.637         	7.75
MS.517         	15.605         	7.722
MS.518         	15.575         	7.714
MS.519         	15.545         	7.744
MS.520         	15.512         	7.716
MS.521         	15.483         	7.684
MS.522         	15.45          	7.7
MS.523         	15.42          	7.686
MS.524         	15.39          	7.698
MS.525         	15.358         	7.65
MS.526         	15.327         	7.686
MS.527         	15.297         	7.666
MS.528         	15.267         	7.682
MS.529         	15.235         	7.714
MS.530         	15.205         	7.656
MS.531         	15.175         	7.666
MS.532         	15.145         	7.698
MS.533         	15.115         	7.708
MS.534         	15.085         	7.69
MS.535         	15.055         	7.664
MS.536         	15.025         	7.656
MS.537         	14.995         	7.658
MS.538         	14.965         	7.684
MS.539         	14.935         	7.662
MS.540         	14.905         	7.64
MS.541         	14.875         	7.642
MS.542         	14.845         	7.595
MS.543         	14.815         	7.634
MS.544         	14.785         	7.638
MS.545         	14.755         	7.634
MS.546         	14.727         	7.614
MS.547         	14.697         	7.609
MS.548         	14.667         	7.618
MS.549         	14.637         	7.634
MS.550         	14.61          	7.607
MS.551         	14.58          	7.603
MS.552         	14.55          	7.654
MS.553         	14.523         	7.579
MS.554         	14.492         	7.585
MS.555         	14.465         	7.634
MS.556         	14.435         	7.567
MS.557         	14.407         	7.547
MS.558         	14.377         	7.517
MS.559         	14.35          	7.539
MS.560         	14.32          	7.533
MS.561         	14.292         	7.545
MS.562         	14.262         	7.569
MS.563         	14.235         	7.499
MS.564         	14.205         	7.497
MS.565         	14.177         	7.489
MS.566         	14.15          	7.507
MS.567         	14.12          	7.567
MS.568         	14.092         	7.509
MS.569         	14.065         	7.487
MS.570         	14.037         	7.501
MS.571         	14.007         	7.414
MS.572         	13.98          	7.458
MS.573         	13.952         	7.466
MS.574         	13.925         	7.493
MS.575         	13.898         	7.368
MS.576         	13.87          	7.35
MS.577         	13.842         	7.404
MS.578         	13.815         	7.38
MS.579         	13.785         	7.495
MS.580         	13.757         	7.416
MS.581         	13.73          	7.315
MS.582         	13.702         	7.462
MS.583         	13.677         	7.37
MS.584         	13.65          	7.275
MS.585         	13.622         	7.366
MS.586         	13.595         	7.336
MS.587         	13.568         	7.293
MS.588         	13.54          	7.319
MS.589         	13.512         	7.239
MS.590         	13.485         	7.245
MS.591         	13.46          	7.309
MS.592         	13.432         	7.33
MS.593         	13.405         	7.172
MS.594         	13.377         	7.233
MS.595         	13.352         	7.323
MS.596         	13.325         	7.289
MS.597         	13.297         	7.162
MS.598         	13.273         	7.319
MS.599         	13.245         	7.227
MS.600         	13.22          	7.185
MS.601         	13.193         	7.247
MS.602         	13.167         	7.269
MS.603         	13.14          	7.134
MS.604         	13.115         	7.172
MS.605         	13.087         	7.267
MS.606         	13.062         	7.142
MS.607         	13.035         	7.195
MS.608         	13.01          	7.062
MS.609         	12.983         	7.17
MS.610         	12.957         	7.152
MS.611         	12.932         	7.118
MS.612         	12.905         	7.174
MS.613         	12.88          	7.126
MS.614         	12.855         	7.172
MS.615         	12.827         	7.12
MS.616         	12.802         	7.134
MS.617         	12.778         	7.1
MS.618         	12.752         	7.154
MS.619         	12.725         	7.096
MS.620         	12.7           	7.136
MS.621         	12.675         	7.104
MS.622         	12.65          	7.013
MS.623         	12.625         	7.104
MS.624         	12.6           	7.136
MS.625         	12.575         	6.963
MS.626         	12.55          	6.951
MS.627         	12.525         	7.005
MS.628         	12.5           	7.052
MS.629         	12.475         	6.923
MS.630         	12.45          	7.037
MS.631         	12.425         	7.07
MS.632         	12.4           	6.947
MS.633         	12.375         	6.963
MS.634         	12.35          	7.025
MS.635         	12.325         	6.911
MS.636         	12.3           	6.89
MS.637         	12.275         	6.677
MS.638         	12.252         	6.925
MS.639         	12.227         	6.842
MS.640         	12.202         	6.886
MS.641         	12.177         	7.17
MS.642         	12.155         	6.903
MS.643         	12.13          	6.89
MS.644         	12.105         	7.021
MS.645         	12.082         	6.896
MS.646         	12.057         	6.687
MS.647         	12.032         	6.727
MS.648         	12.01          	6.824
MS.649         	11.985         	6.788
MS.650         	11.96          	6.81
MS.651         	11.938         	6.818
MS.652         	11.912         	6.61
MS.653         	11.89          	6.733
MS.654         	11.865         	6.864
MS.655         	11.842         	6.824
MS.656         	11.818         	6.753
MS.657         	11.795         	6.711
MS.658         	11.773         	6.647
MS.659         	11.747         	6.615
MS.660         	11.725         	6.691
MS.661         	11.7           	6.731
MS.662         	11.677         	6.784
MS.663         	11.655         	6.534
MS.664         	11.63          	6.574
MS.665         	11.608         	6.556
MS.666         	11.585         	6.538
MS.667         	11.562         	6.661
MS.668         	11.537         	6.542
MS.669         	11.515         	6.584
MS.670         	11.492         	6.703
MS.671         	11.47          	6.528
MS.672         	11.447         	6.514
MS.673         	11.422         	6.534
MS.674         	11.4           	6.365
MS.675         	11.377         	6.536
MS.676         	11.355         	6.516
MS.677         	11.332         	6.52
MS.678         	11.31          	6.534
MS.679         	11.287         	6.496
MS.680         	11.265         	6.52
MS.681         	11.242         	6.552
MS.682         	11.22          	6.478
MS.683         	11.197         	6.314
MS.684         	11.175         	6.566
MS.685         	11.153         	6.474
MS.686         	11.13          	6.286
MS.687         	11.108         	6.451
MS.688         	11.085         	6.292
MS.689         	11.062         	6.331
MS.690         	11.042         	6.29
MS.691         	11.02          	6.502
MS.692         	10.997         	6.498
MS.693         	10.975         	6.324
MS.694         	10.952         	6.298
MS.695         	10.932         	6.27
MS.696         	10.91          	6.427
MS.697         	10.887         	6.272
MS.698         	10.867         	6.238
MS.699         	10.845         	6.268
MS.700         	10.823         	6.23
MS.701         	10.802         	6.204
MS.702         	10.78          	6.232
MS.703         	10.757         	6.236
MS.704         	10.738         	6.256
MS.705         	10.715         	6.192
MS.706         	10.695         	6.258
MS.707         	10.672         	6.177
MS.708         	10.65          	6.214
MS.709         	10.63          	6.125
MS.710         	10.608         	6.169
MS.711         	10.587         	6.159
MS.712         	10.568         	6.196
MS.713         	10.545         	6.316
MS.714         	10.525         	6.143
MS.715         	10.502         	6.155
MS.716         	10.483         	6.312
MS.717         	10.46          	6.292
MS.718         	10.44          	6.053
MS.719         	10.42          	6.069
MS.720         	10.398         	6.355
MS.721         	10.377         	6.276
MS.722         	10.358         	6.27
MS.723         	10.337         	6.328
MS.724         	10.315         	6.23
MS.725         	10.295         	6.014
MS.726         	10.275         	6.079
MS.727         	10.255         	5.988
MS.728         	10.233         	6.099
MS.729         	10.212         	6.073
MS.730         	10.193         	5.996
MS.731         	10.172         	5.954
MS.732         	10.153         	6.002
MS.733         	10.132         	6.055
MS.734         	10.113         	6.034
MS.735         	10.09          	6.079
MS.736         	10.07          	5.92
MS.737         	10.05          	6.01
MS.738         	10.03          	5.881
MS.739         	10.01          	5.873
MS.740         	9.99           	5.712
MS.741         	9.97           	5.944
MS.742         	9.95           	5.946
MS.743         	9.93           	5.942
MS.744         	9.91           	5.75
MS.745         	9.892          	5.742
MS.746         	9.872          	5.69
MS.747         	9.852          	5.732
MS.748         	9.832          	5.732
MS.749         	9.812          	5.547
MS.750         	9.792          	5.686
MS.751         	9.773          	5.74
MS.752         	9.755          	5.678
MS.753         	9.735          	5.696
MS.754         	9.715          	5.561
MS.755         	9.695          	5.362
MS.756         	9.675          	5.539
MS.757         	9.657          	5.603
MS.758         	9.637          	5.422
MS.759         	9.617          	5.406
MS.760         	9.6            	5.434
MS.761         	9.58           	5.325
MS.762         	9.56           	5.293
MS.763         	9.542          	5.249
MS.764         	9.523          	5.295
MS.765         	9.502          	5.535
MS.766         	9.485          	5.247
MS.767         	9.465          	5.259
MS.768         	9.448          	5.152
MS.769         	9.427          	5.136
MS.770         	9.41           	5.122
MS.771         	9.39           	5.263
MS.772         	9.372          	5.12
MS.773         	9.352          	5.13
MS.774         	9.335          	5.269
MS.775         	9.315          	5.096
MS.776         	9.297          	5.031
MS.777         	9.278          	5.049
MS.778         	9.26           	5.132
MS.779         	9.24           	5.166
MS.780         	9.222          	4.993
MS.781         	9.205          	4.969
MS.782         	9.185          	5.142
MS.783         	9.167          	4.995
MS.784         	9.15           	4.925
MS.785         	9.13           	5.126
MS.786         	9.113          	4.913
MS.787         	9.095          	4.933
MS.788         	9.077          	4.902
MS.789         	9.057          	5.17
MS.790         	9.04           	4.967
MS.791         	9.023          	4.997
MS.792         	9.005          	4.963
MS.793         	8.985          	4.77
MS.794         	8.967          	4.911
MS.795         	8.95           	4.913
MS.796         	8.932          	4.975
MS.797         	8.915          	4.858
MS.798         	8.898          	4.816
MS.799         	8.88           	4.87
MS.800         	8.86           	4.778
MS.801         	8.842          	4.586
MS.802         	8.825          	4.761
MS.803         	8.807          	4.691
MS.804         	8.79           	4.657
MS.805         	8.773          	4.715
MS.806         	8.755          	4.713
MS.807         	8.738          	4.518
MS.808         	8.72           	4.659
MS.809         	8.702          	4.691
MS.810         	8.685          	4.61
MS.811         	8.667          	4.58
MS.812         	8.65           	4.459
MS.813         	8.632          	4.606
MS.814         	8.617          	4.477
MS.815         	8.6            	4.308
MS.816         	8.582          	4.498
MS.817         	8.565          	4.411
MS.818         	8.547          	4.399
MS.819         	8.53           	4.405
MS.820         	8.512          	4.345
MS.821         	8.497          	4.361
MS.822         	8.48           	4.326
MS.823         	8.462          	4.266
MS.824         	8.445          	4.288
MS.825         	8.43           	4.282
MS.826         	8.412          	4.212
MS.827         	8.395          	4.185
MS.828         	8.377          	4.236
MS.829         	8.363          	4.175
MS.830         	8.345          	4.208
MS.831         	8.327          	3.956
MS.832         	8.312          	4.065
MS.833         	8.295          	3.974
MS.834         	8.278          	4.067
MS.835         	8.262          	3.903
MS.836         	8.245          	4.163
MS.837         	8.23           	3.982
MS.838         	8.212          	3.966
MS.839         	8.195          	3.928
MS.840         	8.18           	3.603
MS.841         	8.162          	3.724
MS.842         	8.148          	3.497
MS.843         	8.13           	3.752
MS.844         	8.115          	3.611
MS.845         	8.097          	3.65
MS.846         	8.082          	3.75
MS.847         	8.065          	3.559
MS.848         	8.05           	3.464
MS.849         	8.035          	3.474
MS.850         	8.017          	3.615
MS.851         	8.002          	3.468
MS.852         	7.985          	3.581
MS.853         	7.97           	3.484
MS.854         	7.955          	3.354
MS.855         	7.938          	3.35
MS.856         	7.922          	3.362
MS.857         	7.907          	3.362
MS.858         	7.89           	3.356
MS.859         	7.875          	3.283
MS.860         	7.86           	3.398
MS.861         	7.842          	3.36
MS.862         	7.827          	3.259
MS.863         	7.812          	3.227
MS.864         	7.797          	3.229
MS.865         	7.78           	3.17
MS.866         	7.765          	3.19
MS.867         	7.75           	3.134
MS.868         	7.735          	3.064
MS.869         	7.72           	3.035
MS.870         	7.702          	3.128
MS.871         	7.688          	3.114
MS.872         	7.672          	3.005
MS.873         	7.657          	3.023
MS.874         	7.642          	3.041
MS.875         	7.628          	3.005
MS.876         	7.612          	2.923
MS.877         	7.597          	2.917
MS.878         	7.58           	2.917
MS.879         	7.565          	2.925
MS.880         	7.55           	2.854
MS.881         	7.535          	2.802
MS.882         	7.52           	2.753
MS.883         	7.505          	2.872
MS.884         	7.49           	2.725
MS.885         	7.475          	2.796
MS.886         	7.46           	2.832
MS.887         	7.445          	2.721
MS.888         	7.43           	2.669
MS.889         	7.415          	2.767
MS.890         	7.402          	2.693
MS.891         	7.387          	2.624
MS.892         	7.372          	2.673
MS.893         	7.357          	2.628
MS.894         	7.342          	2.56
MS.895         	7.327          	2.532
MS.896         	7.312          	2.578
MS.897         	7.297          	2.578
MS.898         	7.285          	2.518
MS.899         	7.27           	2.566
MS.900         	7.255          	2.485
MS.901         	7.24           	2.496
MS.902         	7.225          	2.401
MS.903         	7.212          	2.399
MS.904         	7.197          	2.383
MS.905         	7.182          	2.552
MS.906         	7.168          	2.391
MS.907         	7.155          	2.334
MS.908         	7.14           	2.373
MS.909         	7.125          	2.492
MS.910         	7.11           	2.387
MS.911         	7.097          	2.306
MS.912         	7.082          	2.252
MS.913         	7.067          	2.23
MS.914         	7.055          	2.197
MS.915         	7.04           	2.163
MS.916         	7.027          	2.23
MS.917         	7.012          	2.226
MS.918         	6.997          	2.117
MS.919         	6.985          	1.988
MS.920         	6.97           	2.153
MS.921         	6.957          	2.121
MS.922         	6.942          	2.093
MS.923         	6.927          	2.016
MS.924         	6.915          	1.928
MS.925         	6.9            	1.962
MS.926         	6.887          	1.889
MS.927         	6.872          	1.928
MS.928         	6.86           	1.928
MS.929         	6.845          	1.839
MS.930         	6.832          	1.817
MS.931         	6.817          	1.859
MS.932         	6.805          	1.799
MS.933         	6.793          	1.811
MS.934         	6.777          	1.728
MS.935         	6.765          	1.66
MS.936         	6.75           	1.72
MS.937         	6.737          	1.66
MS.938         	6.725          	1.579
MS.939         	6.71           	1.416
MS.940         	6.697          	1.541
MS.941         	6.682          	1.503
MS.942         	6.67           	1.676
MS.943         	6.657          	1.438
MS.944         	6.642          	1.458
MS.945         	6.63           	1.621
MS.946         	6.617          	1.48
MS.947         	6.605          	1.553
MS.948         	6.59           	1.38
MS.949         	6.577          	1.349
MS.950         	6.565          	1.337
MS.951         	6.552          	1.261
MS.952         	6.537          	1.321
MS.953         	6.525          	1.281
MS.954         	6.512          	1.327
MS.955         	6.5            	1.259
MS.956         	6.485          	1.271
MS.957         	6.472          	1.202
MS.958         	6.46           	1.188
MS.959         	6.447          	1.168
MS.960         	6.435          	1.063
MS.961         	6.422          	1.086
MS.962         	6.41           	1.156
MS.963         	6.395          	1.243
MS.964         	6.382          	1.001
MS.965         	6.37           	1.017
MS.966         	6.358          	1.047
MS.967         	6.345          	0.908
MS.968         	6.332          	0.896
MS.969         	6.32           	1.074
MS.970         	6.307          	0.987
MS.971         	6.295          	0.878
MS.972         	6.282          	0.971
MS.973         	6.27           	0.892
MS.974         	6.257          	0.995
MS.975         	6.245          	0.838
MS.976         	6.233          	0.89
MS.977         	6.22           	0.864
MS.978         	6.207          	0.812
MS.979         	6.195          	0.775
MS.980         	6.182          	0.759
MS.981         	6.17           	0.844
MS.982         	6.157          	0.777
MS.983         	6.145          	0.735
MS.984         	6.132          	0.773
MS.985         	6.12           	0.719
MS.986         	6.108          	0.709
MS.987         	6.095          	0.775
MS.988         	6.085          	0.743
MS.989         	6.072          	0.705
MS.990         	6.06           	0.695
MS.991         	6.047          	0.691
MS.992         	6.035          	0.687
MS.993         	6.023          	0.653
MS.994         	6.012          	0.685
MS.995         	6              	0.679
MS.996         	5.987          	0.618
MS.997         	5.975          	0.636
MS.998         	5.963          	0.775
MS.999         	5.952          	0.604
MS.1000        	5.94           	0.604
MS.1001        	5.927          	0.608
MS.1002        	5.915          	0.606
MS.1003        	5.905          	0.564
MS.1004        	5.892          	0.556
MS.1005        	5.88           	0.532
MS.1006        	5.87           	0.497
MS.1007        	5.858          	0.522
MS.1008        	5.845          	0.479
MS.1009        	5.835          	0.57
MS.1010        	5.822          	0.481
MS.1011        	5.81           	0.465
MS.1012        	5.8            	0.471
MS.1013        	5.787          	0.461
MS.1014        	5.775          	0.455
MS.1015        	5.765          	0.479
MS.1016        	5.753          	0.433
MS.1017        	5.74           	0.467
MS.1018        	5.73           	0.401
MS.1019        	5.717          	0.423
MS.1020        	5.707          	0.477
MS.1021        	5.695          	0.441
MS.1022        	5.685          	0.385
MS.1023        	5.672          	0.391
MS.1024        	5.662          	0.383
MS.1025        	5.65           	0.354
MS.1026        	5.64           	0.359
MS.1027        	5.628          	0.373
MS.1028        	5.617          	0.399
MS.1029        	5.605          	0.389
MS.1030        	5.595          	0.363
MS.1031        	5.582          	0.367
MS.1032        	5.572          	0.391
MS.1033        	5.56           	0.348
MS.1034        	5.55           	0.367
MS.1035        	5.537          	0.338
MS.1036        	5.527          	0.352
MS.1037        	5.515          	0.409
MS.1038        	5.505          	0.421
MS.1039        	5.495          	0.346
MS.1040        	5.483          	0.322
MS.1041        	5.472          	0.298
MS.1042        	5.46           	0.332
MS.1043        	5.45           	0.306
MS.1044        	5.44           	0.28
MS.1045        	5.427          	0.296
MS.1046        	5.418          	0.322
MS.1047        	5.407          	0.288
MS.1048        	5.395          	0.302
MS.1049        	5.385          	0.306
MS.1050        	5.375          	0.26
MS.1051        	5.365          	0.254
MS.1052        	5.352          	0.232
MS.1053        	5.342          	0.238
MS.1054        	5.332          	0.272
MS.1055        	5.32           	0.254
MS.1056        	5.31           	0.224
MS.1057        	5.3            	0.244
MS.1058        	5.29           	0.228
MS.1059        	5.277          	0.205
MS.1060        	5.267          	0.185
MS.1061        	5.257          	0.22
MS.1062        	5.247          	0.207
MS.1063        	5.237          	0.209
MS.1064        	5.225          	0.133
MS.1065        	5.215          	0.153
MS.1066        	5.205          	0.169
MS.1067        	5.195          	0.151
MS.1068        	5.185          	0.133
MS.1069        	5.175          	0.129
MS.1070        	5.165          	0.107
MS.1071        	5.152          	0.127
MS.1072        	5.142          	0.099
MS.1073        	5.132          	0.097
MS.1074        	5.122          	0.125
MS.1075        	5.112          	0.081
MS.1076        	5.102          	0.103
MS.1077        	5.092          	0.103
MS.1078        	5.082          	0.097
MS.1079        	5.072          	0.103
MS.1080        	5.062          	0.091
MS.1081        	5.052          	0.123
MS.1082        	5.043          	0.097
MS.1083        	5.03           	0.081
MS.1084        	5.02           	0.097
MS.1085        	5.01           	0.089
MS.1086        	5              	0.097
MS.1087        	4.99           	0.097
MS.1088        	4.98           	0.089
MS.1089        	4.97           	0.087
MS.1090        	4.963          	0.103
MS.1091        	4.952          	0.099
MS.1092        	4.943          	0.101
MS.1093        	4.932          	0.103
MS.1094        	4.922          	0.087
MS.1095        	4.912          	0.073
MS.1096        	4.902          	0.089
MS.1097        	4.892          	0.091
MS.1098        	4.882          	0.081
MS.1099        	4.872          	0.081
MS.1100        	4.862          	0.095
MS.1101        	4.852          	0.064
MS.1102        	4.842          	0.077
MS.1103        	4.835          	0.079
MS.1104        	4.825          	0.081
MS.1105        	4.815          	0.083
MS.1106        	4.805          	0.062
MS.1107        	4.795          	0.091
MS.1108        	4.785          	0.083
MS.1109        	4.777          	0.083
MS.1110        	4.767          	0.073
MS.1111        	4.757          	0.036
MS.1112        	4.747          	0.066
MS.1113        	4.737          	0.066
MS.1114        	4.73           	0.062
MS.1115        	4.72           	0.06
MS.1116        	4.71           	0.05
MS.1117        	4.7            	0.038
MS.1118        	4.69           	0.044
MS.1119        	4.682          	0.062
MS.1120        	4.673          	0.06
MS.1121        	4.662          	0.062
MS.1122        	4.652          	0.052
MS.1123        	4.645          	0.048
MS.1124        	4.635          	0.036
MS.1125        	4.625          	0.028
MS.1126        	4.617          	0.056
MS.1127        	4.608          	0.054
MS.1128        	4.597          	0.064
MS.1129        	4.59           	0.042
MS.1130        	4.58           	0.054
MS.1131        	4.57           	0.056
MS.1132        	4.562          	0.04
MS.1133        	4.552          	0.054
MS.1134        	4.543          	0.028
MS.1135        	4.535          	0.052
MS.1136        	4.525          	0.028
MS.1137        	4.515          	0.034
MS.1138        	4.507          	0.034
MS.1139        	4.497          	0.028
MS.1140        	4.49           	0.038
MS.1141        	4.48           	0.062
MS.1142        	4.47           	0.036
MS.1143        	4.463          	0.026
MS.1144        	4.452          	0.046
MS.1145        	4.445          	0.042
MS.1146        	4.435          	0.024
MS.1147        	4.427          	0.05
MS.1148        	4.418          	0.034
MS.1149        	4.41           	0.048
MS.1150        	4.4            	0.04
MS.1151        	4.392          	0.03
MS.1152        	4.382          	0.028
MS.1153        	4.375          	0.028
MS.1154        	4.365          	0.038
MS.1155        	4.358          	0.028
MS.1156        	4.347          	0.038
MS.1157        	4.34           	0.018
MS.1158        	4.33           	0.032
MS.1159        	4.322          	0.032
MS.1160        	4.312          	0.042
MS.1161        	4.305          	0.02
MS.1162        	4.295          	0.016
MS.1163        	4.287          	0.03
MS.1164        	4.28           	0.036
MS.1165        	4.27           	0.034
MS.1166        	4.262          	0.012
MS.1167        	4.253          	0.006
MS.1168        	4.245          	0.022
MS.1169        	4.235          	0.014
MS.1170        	4.227          	0.016
MS.1171        	4.22           	0.016
MS.1172        	4.21           	0.028
MS.1173        	4.202          	0.006
MS.1174        	4.195          	0.000
MS.1175        	4.185          	0.018
MS.1176        	4.177          	0.004
MS.1177        	4.17           	0.016
MS.1178        	4.16           	0.018
MS.1179        	4.152          	0.02
MS.1180        	4.145          	0.012
DERIVED EXCITABILITY VARIABLES
Program = QTracP 3/4/2020
Threshold method = 6 (optimised for CAP, using data for present condition only)
SR method = 1 (using actual data values)
6.                 	0.000               	Peak response\(mV)
9.                 	37.9                	Temperature ( C)
17.                	33                  	Age (years)
18.                	1                   	Sex (M=1, F=2)

EXTRA VARIABLES

MScPeak(mV) = 10.31
MScS5(mA) = 5.85
MScS50(mA) = 9.28
MScS95(mA) = 38.45
MScNSteps = 0
MScSteps(%) = 0.0
MScStepMax(%) = 0.0
MScD50 = 137
MScSlope = 1.12
MSFPeakAmp(mV) = 10.3
MSFNUnits = 158
MSFMeanUnitAmp(uV) = 65.5
MSFHuntTime(m) = 6.43
MSFError(%) = 2.25
MSFNLarge = 46.39
MSFMedianAmp(%) = 0.528
MSFMedianAmp(mV) = 0.0546
MSFHalfAmpAmp(%) = 0.71
MSFHalfAmpAmp(mV) = 0.0734
MSFLargestAmp(%) = 1.91
MSFLargestAmp(mV) = 0.197
MSFMeanRS(%) = 2
MSFOpts = 10106121
MScDuration(min) = 11.3
MSFTraces = 1162
MSFSizeLimit(uV) = 25.9
MSFLimitType = 1
MSFSmallestAmp(uV) = 27.9

EXTRA WAVEFORMS


!MScan Model
!158
	1	4.57	0.6	2
	2	5.18	0.53	2
	3	5.22	0.28	2
	4	5.28	0.45	2
	5	5.33	0.33	2
	6	5.4	0.35	2
	7	5.47	0.36	2
	8	5.62	0.59	2
	9	5.71	0.54	2
	10	5.81	0.47	2
	11	5.86	0.37	2
	12	5.89	0.33	2
	13	5.93	0.42	2
	14	6	0.58	2
	15	6.07	0.52	2
	16	6.14	0.54	2
	17	6.17	0.46	2
	18	6.23	0.53	2
	19	6.3	0.65	2
	20	6.36	0.94	2
	21	6.39	0.45	2
	22	6.43	0.59	2
	23	6.47	0.6	2
	24	6.49	0.34	2
	25	6.52	0.42	2
	26	6.54	0.48	2
	27	6.58	0.7	2
	28	6.66	1.22	2
	29	6.7	0.5	2
	30	6.72	0.31	2
	31	6.74	0.4	2
	32	6.76	0.3	2
	33	6.79	0.49	2
	34	6.8	0.27	2
	35	6.82	0.31	2
	36	6.83	0.4	2
	37	6.85	0.47	2
	38	6.87	0.35	2
	39	6.89	0.29	2
	40	6.91	0.3	2
	41	6.93	0.31	2
	42	6.94	0.3	2
	43	6.96	0.32	2
	44	6.98	0.37	2
	45	7	0.41	2
	46	7.03	0.46	2
	47	7.08	0.71	2
	48	7.11	0.58	2
	49	7.16	0.6	2
	50	7.24	0.92	2
	51	7.29	0.46	2
	52	7.31	0.3	2
	53	7.34	0.35	2
	54	7.36	0.3	2
	55	7.38	0.29	2
	56	7.41	0.32	2
	57	7.44	0.33	2
	58	7.46	0.31	2
	59	7.49	0.33	2
	60	7.51	0.34	2
	61	7.54	0.3	2
	62	7.57	0.35	2
	63	7.6	0.44	2
	64	7.63	0.45	2
	65	7.66	0.43	2
	66	7.69	0.4	2
	67	7.71	0.28	2
	68	7.73	0.33	2
	69	7.76	0.31	2
	70	7.78	0.36	2
	71	7.83	0.5	2
	72	7.86	0.47	2
	73	7.9	0.7	2
	74	7.94	0.44	2
	75	7.97	0.35	2
	76	8.02	0.71	2
	77	8.09	0.9	2
	78	8.13	0.82	2
	79	8.18	1.02	2
	80	8.22	0.69	2
	81	8.29	1.69	2
	82	8.34	0.71	2
	83	8.38	0.46	2
	84	8.4	0.34	2
	85	8.43	0.53	2
	86	8.47	0.44	2
	87	8.5	0.35	2
	88	8.53	0.39	2
	89	8.56	0.45	2
	90	8.61	0.6	2
	91	8.66	0.52	2
	92	8.73	0.9	2
	93	8.78	0.55	2
	94	8.84	0.66	2
	95	8.89	0.5	2
	96	9.1	1.2	2
	97	9.1	0.8	2
	98	9.32	1.08	2
	99	9.47	1.3	2
	100	9.55	0.8	2
	101	9.61	0.65	2
	102	9.65	0.55	2
	103	9.72	1.02	2
	104	9.81	1.07	2
	105	9.89	0.94	2
	106	10.04	1.8	2
	107	10.23	1.4	2
	108	10.73	1.14	2
	109	10.88	1.1	2
	110	11.22	1.42	2
	111	11.58	1.14	2
	112	11.69	0.64	2
	113	11.93	1.49	2
	114	12.43	1.2	2
	115	12.6	0.71	2
	116	12.82	0.89	2
	117	13.17	0.75	2
	118	13.53	0.87	2
	119	13.55	0.53	2
	120	13.7	0.68	2
	121	13.95	0.73	2
	122	14.31	0.45	2
	123	14.5	0.45	2
	124	14.71	0.35	2
	125	15.2	0.53	2
	126	15.61	0.39	2
	127	15.95	0.35	2
	128	17.05	0.43	2
	129	17.5	0.3	2
	130	17.95	0.56	2
	131	22.63	0.4	2
	132	23.05	0.34	2
	133	23.29	0.28	2
	134	23.77	0.58	2
	135	25.4	0.55	2
	136	26.67	0.54	2
	137	27.81	0.88	2
	138	28.67	0.72	2
	139	29.25	0.65	2
	140	29.91	0.75	2
	141	30.73	1.08	2
	142	31.05	0.85	2
	143	31.49	0.9	2
	144	31.97	0.87	2
	145	32.31	0.69	2
	146	33.32	1.49	2
	147	34.39	1.15	2
	148	35.43	1.09	2
	149	36.14	1.4	2
	150	37.32	1.33	2
	151	37.77	1.91	2
	152	39.17	1.48	2
	153	39.4	0.47	2
	154	39.54	0.41	2
	155	39.93	0.83	2
	156	40.6	1.04	2
	157	40.92	0.53	2
	158	41.19	0.45	2

