File:              	C:\Qtrac\Data\Daniel M Sørensen\MScan multicentre study\Data from centres\Roskilde\Folders with NC-examinations\ROS_N8a\MBC00520B.QZD
Name:              	DK.ROS.NC.8.1
Protocol:          	MSCAN-R2
Date:              	20/5/20
Start time:        	12:51:35
Age:               	52
Sex:               	F
Temperature:       	35,3
S/R sites:         	Pero-TA
NC/disease:        	NC
Operator:          	tr
Comments:
M-SCAN DATA (9.4-1.7m)
Scanpts: 8, 12, 799, 821
Stim. (mA)     	Amp. (mV)
MS.1           	16.5           	6.097
MS.2           	16.5           	6.079
MS.3           	16.5           	6.026
MS.4           	16.5           	6.014
MS.5           	16.5           	6.028
MS.6           	16.5           	6.02
MS.7           	16.5           	6.04
MS.8           	16.5           	6.014
MS.9           	16.5           	6.024
MS.10          	16.5           	6.012
MS.11          	16.5           	6.006
MS.12          	16.5           	6.032
MS.13          	16.5           	5.97
MS.14          	16.5           	6.008
MS.15          	16.5           	5.986
MS.16          	16.5           	6.038
MS.17          	16.5           	5.992
MS.18          	16.5           	5.964
MS.19          	16.5           	6.006
MS.20          	16.5           	6.03
MS.21          	16.5           	6.02
MS.22          	16.5           	5.996
MS.23          	16.5           	5.99
MS.24          	16.435         	5.986
MS.25          	16.4           	5.99
MS.26          	16.368         	5.994
MS.27          	16.335         	5.988
MS.28          	16.302         	5.984
MS.29          	16.27          	5.97
MS.30          	16.237         	5.978
MS.31          	16.205         	5.946
MS.32          	16.172         	5.946
MS.33          	16.14          	5.948
MS.34          	16.108         	5.944
MS.35          	16.077         	5.968
MS.36          	16.045         	5.934
MS.37          	16.012         	5.928
MS.38          	15.98          	5.938
MS.39          	15.947         	5.906
MS.40          	15.917         	5.901
MS.41          	15.885         	5.908
MS.42          	15.852         	5.901
MS.43          	15.822         	5.926
MS.44          	15.79          	5.906
MS.45          	15.757         	5.891
MS.46          	15.727         	5.885
MS.47          	15.695         	5.895
MS.48          	15.665         	5.883
MS.49          	15.632         	5.879
MS.50          	15.602         	5.908
MS.51          	15.57          	5.855
MS.52          	15.54          	5.839
MS.53          	15.507         	5.918
MS.54          	15.477         	5.845
MS.55          	15.445         	5.867
MS.56          	15.415         	5.883
MS.57          	15.385         	5.869
MS.58          	15.352         	5.865
MS.59          	15.322         	5.893
MS.60          	15.292         	5.863
MS.61          	15.262         	5.785
MS.62          	15.233         	5.833
MS.63          	15.2           	5.835
MS.64          	15.17          	5.891
MS.65          	15.14          	5.837
MS.66          	15.11          	5.859
MS.67          	15.08          	5.91
MS.68          	15.05          	5.829
MS.69          	15.02          	5.875
MS.70          	14.99          	5.833
MS.71          	14.96          	5.843
MS.72          	14.93          	5.891
MS.73          	14.9           	5.845
MS.74          	14.87          	5.904
MS.75          	14.84          	5.843
MS.76          	14.81          	5.867
MS.77          	14.78          	5.843
MS.78          	14.752         	5.833
MS.79          	14.722         	5.811
MS.80          	14.693         	5.843
MS.81          	14.662         	5.845
MS.82          	14.635         	5.857
MS.83          	14.605         	5.849
MS.84          	14.575         	5.805
MS.85          	14.547         	5.805
MS.86          	14.517         	5.825
MS.87          	14.487         	5.769
MS.88          	14.46          	5.847
MS.89          	14.43          	5.801
MS.90          	14.403         	5.843
MS.91          	14.372         	5.793
MS.92          	14.345         	5.861
MS.93          	14.315         	5.797
MS.94          	14.287         	5.815
MS.95          	14.257         	5.831
MS.96          	14.23          	5.833
MS.97          	14.202         	5.809
MS.98          	14.172         	5.813
MS.99          	14.145         	5.765
MS.100         	14.117         	5.789
MS.101         	14.087         	5.807
MS.102         	14.06          	5.807
MS.103         	14.032         	5.811
MS.104         	14.005         	5.775
MS.105         	13.975         	5.791
MS.106         	13.947         	5.809
MS.107         	13.92          	5.728
MS.108         	13.892         	5.756
MS.109         	13.865         	5.746
MS.110         	13.837         	5.75
MS.111         	13.81          	5.752
MS.112         	13.782         	5.752
MS.113         	13.755         	5.722
MS.114         	13.727         	5.744
MS.115         	13.7           	5.722
MS.116         	13.672         	5.795
MS.117         	13.645         	5.702
MS.118         	13.617         	5.777
MS.119         	13.59          	5.763
MS.120         	13.562         	5.726
MS.121         	13.535         	5.736
MS.122         	13.51          	5.752
MS.123         	13.483         	5.678
MS.124         	13.455         	5.722
MS.125         	13.427         	5.728
MS.126         	13.403         	5.71
MS.127         	13.375         	5.72
MS.128         	13.347         	5.724
MS.129         	13.32          	5.732
MS.130         	13.295         	5.7
MS.131         	13.267         	5.702
MS.132         	13.242         	5.716
MS.133         	13.215         	5.704
MS.134         	13.188         	5.692
MS.135         	13.162         	5.688
MS.136         	13.135         	5.676
MS.137         	13.11          	5.678
MS.138         	13.082         	5.67
MS.139         	13.057         	5.696
MS.140         	13.032         	5.728
MS.141         	13.005         	5.686
MS.142         	12.98          	5.684
MS.143         	12.952         	5.69
MS.144         	12.927         	5.65
MS.145         	12.903         	5.67
MS.146         	12.875         	5.68
MS.147         	12.85          	5.674
MS.148         	12.825         	5.676
MS.149         	12.8           	5.652
MS.150         	12.773         	5.67
MS.151         	12.747         	5.668
MS.152         	12.722         	5.662
MS.153         	12.697         	5.676
MS.154         	12.672         	5.644
MS.155         	12.645         	5.692
MS.156         	12.62          	5.644
MS.157         	12.595         	5.664
MS.158         	12.57          	5.654
MS.159         	12.545         	5.672
MS.160         	12.52          	5.666
MS.161         	12.495         	5.65
MS.162         	12.47          	5.67
MS.163         	12.445         	5.684
MS.164         	12.42          	5.648
MS.165         	12.395         	5.662
MS.166         	12.37          	5.668
MS.167         	12.347         	5.67
MS.168         	12.322         	5.642
MS.169         	12.297         	5.644
MS.170         	12.273         	5.638
MS.171         	12.247         	5.662
MS.172         	12.222         	5.652
MS.173         	12.2           	5.644
MS.174         	12.175         	5.632
MS.175         	12.15          	5.648
MS.176         	12.125         	5.642
MS.177         	12.102         	5.648
MS.178         	12.077         	5.638
MS.179         	12.052         	5.658
MS.180         	12.03          	5.648
MS.181         	12.005         	5.64
MS.182         	11.983         	5.642
MS.183         	11.957         	5.64
MS.184         	11.932         	5.62
MS.185         	11.91          	5.632
MS.186         	11.885         	5.628
MS.187         	11.863         	5.628
MS.188         	11.837         	5.638
MS.189         	11.815         	5.64
MS.190         	11.79          	5.64
MS.191         	11.767         	5.656
MS.192         	11.745         	5.624
MS.193         	11.72          	5.64
MS.194         	11.697         	5.69
MS.195         	11.675         	5.648
MS.196         	11.65          	5.63
MS.197         	11.627         	5.632
MS.198         	11.605         	5.656
MS.199         	11.58          	5.624
MS.200         	11.557         	5.64
MS.201         	11.535         	5.644
MS.202         	11.512         	5.62
MS.203         	11.488         	5.65
MS.204         	11.465         	5.605
MS.205         	11.443         	5.601
MS.206         	11.42          	5.62
MS.207         	11.398         	5.656
MS.208         	11.375         	5.599
MS.209         	11.352         	5.589
MS.210         	11.33          	5.579
MS.211         	11.307         	5.591
MS.212         	11.282         	5.589
MS.213         	11.26          	5.595
MS.214         	11.238         	5.611
MS.215         	11.215         	5.617
MS.216         	11.195         	5.585
MS.217         	11.172         	5.589
MS.218         	11.15          	5.583
MS.219         	11.127         	5.561
MS.220         	11.105         	5.583
MS.221         	11.082         	5.638
MS.222         	11.06          	5.565
MS.223         	11.037         	5.573
MS.224         	11.015         	5.583
MS.225         	10.995         	5.571
MS.226         	10.972         	5.565
MS.227         	10.95          	5.577
MS.228         	10.927         	5.626
MS.229         	10.907         	5.571
MS.230         	10.885         	5.591
MS.231         	10.863         	5.587
MS.232         	10.84          	5.605
MS.233         	10.82          	5.571
MS.234         	10.797         	5.555
MS.235         	10.778         	5.569
MS.236         	10.755         	5.571
MS.237         	10.733         	5.549
MS.238         	10.712         	5.571
MS.239         	10.69          	5.573
MS.240         	10.67          	5.569
MS.241         	10.648         	5.557
MS.242         	10.627         	5.581
MS.243         	10.605         	5.589
MS.244         	10.585         	5.565
MS.245         	10.562         	5.593
MS.246         	10.542         	5.563
MS.247         	10.52          	5.597
MS.248         	10.5           	5.577
MS.249         	10.48          	5.622
MS.250         	10.457         	5.575
MS.251         	10.438         	5.595
MS.252         	10.415         	5.553
MS.253         	10.395         	5.559
MS.254         	10.375         	5.577
MS.255         	10.355         	5.575
MS.256         	10.332         	5.567
MS.257         	10.312         	5.553
MS.258         	10.292         	5.611
MS.259         	10.273         	5.547
MS.260         	10.25          	5.595
MS.261         	10.23          	5.551
MS.262         	10.21          	5.543
MS.263         	10.19          	5.567
MS.264         	10.17          	5.571
MS.265         	10.15          	5.571
MS.266         	10.127         	5.595
MS.267         	10.108         	5.555
MS.268         	10.087         	5.567
MS.269         	10.068         	5.617
MS.270         	10.047         	5.549
MS.271         	10.028         	5.535
MS.272         	10.007         	5.515
MS.273         	9.988          	5.545
MS.274         	9.967          	5.549
MS.275         	9.948          	5.609
MS.276         	9.927          	5.573
MS.277         	9.907          	5.533
MS.278         	9.887          	5.543
MS.279         	9.867          	5.549
MS.280         	9.85           	5.549
MS.281         	9.83           	5.567
MS.282         	9.81           	5.583
MS.283         	9.79           	5.585
MS.284         	9.77           	5.547
MS.285         	9.75           	5.555
MS.286         	9.733          	5.493
MS.287         	9.712          	5.565
MS.288         	9.693          	5.537
MS.289         	9.672          	5.491
MS.290         	9.655          	5.497
MS.291         	9.635          	5.523
MS.292         	9.615          	5.523
MS.293         	9.595          	5.485
MS.294         	9.577          	5.462
MS.295         	9.557          	5.499
MS.296         	9.537          	5.501
MS.297         	9.52           	5.481
MS.298         	9.5            	5.489
MS.299         	9.483          	5.539
MS.300         	9.462          	5.479
MS.301         	9.445          	5.495
MS.302         	9.425          	5.561
MS.303         	9.405          	5.489
MS.304         	9.387          	5.537
MS.305         	9.367          	5.481
MS.306         	9.35           	5.539
MS.307         	9.33           	5.47
MS.308         	9.312          	5.462
MS.309         	9.295          	5.418
MS.310         	9.275          	5.444
MS.311         	9.257          	5.519
MS.312         	9.238          	5.454
MS.313         	9.22           	5.454
MS.314         	9.202          	5.497
MS.315         	9.182          	5.501
MS.316         	9.165          	5.452
MS.317         	9.148          	5.46
MS.318         	9.127          	5.452
MS.319         	9.11           	5.454
MS.320         	9.092          	5.462
MS.321         	9.073          	5.448
MS.322         	9.055          	5.45
MS.323         	9.037          	5.45
MS.324         	9.02           	5.426
MS.325         	9              	5.432
MS.326         	8.983          	5.436
MS.327         	8.965          	5.46
MS.328         	8.948          	5.438
MS.329         	8.93           	5.422
MS.330         	8.912          	5.446
MS.331         	8.895          	5.487
MS.332         	8.875          	5.432
MS.333         	8.858          	5.452
MS.334         	8.84           	5.406
MS.335         	8.823          	5.422
MS.336         	8.805          	5.428
MS.337         	8.787          	5.418
MS.338         	8.77           	5.424
MS.339         	8.752          	5.382
MS.340         	8.735          	5.44
MS.341         	8.717          	5.41
MS.342         	8.7            	5.422
MS.343         	8.682          	5.412
MS.344         	8.665          	5.406
MS.345         	8.648          	5.386
MS.346         	8.63           	5.388
MS.347         	8.613          	5.392
MS.348         	8.597          	5.336
MS.349         	8.58           	5.315
MS.350         	8.562          	5.372
MS.351         	8.545          	5.386
MS.352         	8.528          	5.368
MS.353         	8.51           	5.38
MS.354         	8.495          	5.327
MS.355         	8.477          	5.319
MS.356         	8.46           	5.313
MS.357         	8.443          	5.372
MS.358         	8.427          	5.321
MS.359         	8.41           	5.348
MS.360         	8.392          	5.293
MS.361         	8.375          	5.346
MS.362         	8.36           	5.386
MS.363         	8.342          	5.376
MS.364         	8.325          	5.303
MS.365         	8.31           	5.307
MS.366         	8.292          	5.245
MS.367         	8.275          	5.333
MS.368         	8.26           	5.313
MS.369         	8.242          	5.253
MS.370         	8.227          	5.237
MS.371         	8.21           	5.243
MS.372         	8.193          	5.303
MS.373         	8.177          	5.086
MS.374         	8.16           	5.235
MS.375         	8.145          	5.281
MS.376         	8.127          	5.233
MS.377         	8.113          	5.1
MS.378         	8.095          	5.193
MS.379         	8.08           	5.267
MS.380         	8.062          	5.215
MS.381         	8.047          	5.116
MS.382         	8.033          	5.072
MS.383         	8.015          	5.259
MS.384         	8              	5.265
MS.385         	7.982          	5.116
MS.386         	7.967          	5.045
MS.387         	7.952          	5.021
MS.388         	7.935          	5.14
MS.389         	7.92           	5.041
MS.390         	7.905          	5.102
MS.391         	7.887          	5.07
MS.392         	7.872          	5.106
MS.393         	7.857          	5.092
MS.394         	7.84           	5.098
MS.395         	7.825          	5.023
MS.396         	7.81           	5.088
MS.397         	7.795          	5.033
MS.398         	7.777          	5.066
MS.399         	7.762          	5.041
MS.400         	7.747          	4.886
MS.401         	7.732          	5.011
MS.402         	7.717          	4.917
MS.403         	7.7            	5.007
MS.404         	7.685          	4.977
MS.405         	7.67           	5.06
MS.406         	7.655          	5.041
MS.407         	7.64           	4.939
MS.408         	7.625          	4.983
MS.409         	7.61           	4.967
MS.410         	7.595          	4.872
MS.411         	7.58           	4.866
MS.412         	7.562          	4.989
MS.413         	7.547          	4.983
MS.414         	7.532          	4.955
MS.415         	7.517          	4.804
MS.416         	7.503          	4.868
MS.417         	7.487          	4.826
MS.418         	7.472          	4.778
MS.419         	7.457          	4.681
MS.420         	7.442          	4.651
MS.421         	7.427          	4.697
MS.422         	7.415          	4.804
MS.423         	7.4            	4.592
MS.424         	7.385          	4.711
MS.425         	7.37           	4.77
MS.426         	7.355          	4.663
MS.427         	7.34           	4.846
MS.428         	7.325          	4.552
MS.429         	7.31           	4.641
MS.430         	7.295          	4.635
MS.431         	7.282          	4.62
MS.432         	7.267          	4.618
MS.433         	7.253          	4.685
MS.434         	7.237          	4.606
MS.435         	7.222          	4.592
MS.436         	7.21           	4.576
MS.437         	7.195          	4.457
MS.438         	7.18           	4.479
MS.439         	7.165          	4.463
MS.440         	7.152          	4.469
MS.441         	7.137          	4.562
MS.442         	7.122          	4.465
MS.443         	7.11           	4.431
MS.444         	7.095          	4.572
MS.445         	7.08           	4.441
MS.446         	7.067          	4.399
MS.447         	7.052          	4.417
MS.448         	7.037          	4.417
MS.449         	7.025          	4.435
MS.450         	7.01           	4.417
MS.451         	6.995          	4.385
MS.452         	6.983          	4.375
MS.453         	6.967          	4.306
MS.454         	6.955          	4.322
MS.455         	6.94           	4.387
MS.456         	6.927          	4.33
MS.457         	6.912          	4.375
MS.458         	6.9            	4.373
MS.459         	6.885          	4.236
MS.460         	6.872          	4.347
MS.461         	6.858          	4.167
MS.462         	6.845          	4.274
MS.463         	6.83           	4.298
MS.464         	6.817          	4.334
MS.465         	6.802          	4.31
MS.466         	6.79           	4.153
MS.467         	6.775          	4.169
MS.468         	6.762          	4.083
MS.469         	6.747          	4.242
MS.470         	6.735          	4.212
MS.471         	6.722          	4.129
MS.472         	6.707          	4.125
MS.473         	6.695          	3.855
MS.474         	6.682          	4.125
MS.475         	6.668          	3.895
MS.476         	6.655          	3.887
MS.477         	6.642          	3.966
MS.478         	6.628          	3.851
MS.479         	6.615          	3.922
MS.480         	6.602          	3.823
MS.481         	6.587          	3.813
MS.482         	6.575          	3.926
MS.483         	6.562          	3.835
MS.484         	6.55           	3.68
MS.485         	6.535          	3.992
MS.486         	6.523          	3.646
MS.487         	6.51           	3.768
MS.488         	6.497          	3.694
MS.489         	6.485          	3.648
MS.490         	6.47           	3.666
MS.491         	6.457          	3.644
MS.492         	6.445          	3.589
MS.493         	6.432          	3.589
MS.494         	6.42           	3.648
MS.495         	6.407          	3.638
MS.496         	6.395          	3.658
MS.497         	6.38           	3.541
MS.498         	6.367          	3.454
MS.499         	6.355          	3.434
MS.500         	6.342          	3.462
MS.501         	6.33           	3.402
MS.502         	6.317          	3.374
MS.503         	6.305          	3.374
MS.504         	6.293          	3.394
MS.505         	6.28           	3.285
MS.506         	6.267          	3.487
MS.507         	6.255          	3.319
MS.508         	6.242          	3.384
MS.509         	6.23           	3.291
MS.510         	6.217          	3.341
MS.511         	6.205          	3.309
MS.512         	6.192          	3.305
MS.513         	6.18           	3.249
MS.514         	6.168          	3.323
MS.515         	6.155          	3.088
MS.516         	6.142          	3.241
MS.517         	6.13           	3.066
MS.518         	6.117          	3.162
MS.519         	6.108          	3.283
MS.520         	6.095          	3.144
MS.521         	6.082          	3.106
MS.522         	6.07           	3.19
MS.523         	6.057          	3.051
MS.524         	6.045          	3.039
MS.525         	6.032          	3.11
MS.526         	6.023          	3.096
MS.527         	6.01           	3.15
MS.528         	5.997          	3.051
MS.529         	5.985          	3.082
MS.530         	5.972          	3.078
MS.531         	5.963          	2.923
MS.532         	5.95           	3.001
MS.533         	5.938          	3.035
MS.534         	5.925          	2.953
MS.535         	5.915          	3.033
MS.536         	5.902          	2.908
MS.537         	5.89           	2.898
MS.538         	5.88           	2.765
MS.539         	5.867          	2.987
MS.540         	5.855          	2.824
MS.541         	5.842          	2.888
MS.542         	5.832          	2.87
MS.543         	5.82           	2.792
MS.544         	5.807          	2.753
MS.545         	5.797          	2.87
MS.546         	5.785          	2.616
MS.547         	5.775          	2.717
MS.548         	5.762          	2.699
MS.549         	5.75           	2.647
MS.550         	5.74           	2.635
MS.551         	5.727          	2.61
MS.552         	5.717          	2.711
MS.553         	5.705          	2.707
MS.554         	5.692          	2.481
MS.555         	5.682          	2.423
MS.556         	5.67           	2.5
MS.557         	5.66           	2.423
MS.558         	5.648          	2.465
MS.559         	5.637          	2.336
MS.560         	5.625          	2.451
MS.561         	5.615          	2.294
MS.562         	5.602          	2.32
MS.563         	5.592          	2.24
MS.564         	5.58           	2.232
MS.565         	5.57           	2.169
MS.566         	5.557          	2.344
MS.567         	5.547          	2.218
MS.568         	5.537          	2.155
MS.569         	5.525          	2.115
MS.570         	5.515          	2.008
MS.571         	5.503          	2.135
MS.572         	5.492          	2.006
MS.573         	5.483          	2.004
MS.574         	5.47           	2.01
MS.575         	5.46           	1.926
MS.576         	5.447          	2.067
MS.577         	5.438          	1.93
MS.578         	5.427          	1.807
MS.579         	5.415          	1.865
MS.580         	5.405          	1.754
MS.581         	5.395          	1.696
MS.582         	5.382          	1.783
MS.583         	5.372          	1.64
MS.584         	5.362          	1.617
MS.585         	5.352          	1.565
MS.586         	5.34           	1.629
MS.587         	5.33           	1.567
MS.588         	5.32           	1.495
MS.589         	5.307          	1.543
MS.590         	5.297          	1.468
MS.591         	5.287          	1.557
MS.592         	5.277          	1.337
MS.593         	5.267          	1.458
MS.594         	5.255          	1.49
MS.595         	5.245          	1.398
MS.596         	5.235          	1.43
MS.597         	5.225          	1.374
MS.598         	5.215          	1.376
MS.599         	5.202          	1.319
MS.600         	5.193          	1.309
MS.601         	5.182          	1.37
MS.602         	5.172          	1.345
MS.603         	5.162          	1.281
MS.604         	5.152          	1.267
MS.605         	5.142          	1.313
MS.606         	5.132          	1.253
MS.607         	5.12           	1.2
MS.608         	5.11           	1.223
MS.609         	5.1            	1.211
MS.610         	5.09           	1.186
MS.611         	5.08           	1.16
MS.612         	5.07           	1.168
MS.613         	5.06           	1.078
MS.614         	5.05           	1.118
MS.615         	5.04           	1.057
MS.616         	5.03           	1.015
MS.617         	5.02           	0.973
MS.618         	5.01           	1.025
MS.619         	5              	0.892
MS.620         	4.99           	0.989
MS.621         	4.98           	0.876
MS.622         	4.97           	0.792
MS.623         	4.96           	0.896
MS.624         	4.95           	0.759
MS.625         	4.94           	0.832
MS.626         	4.93           	0.759
MS.627         	4.92           	0.846
MS.628         	4.91           	0.709
MS.629         	4.9            	0.784
MS.630         	4.89           	0.687
MS.631         	4.88           	0.715
MS.632         	4.872          	0.731
MS.633         	4.862          	0.679
MS.634         	4.852          	0.677
MS.635         	4.842          	0.556
MS.636         	4.832          	0.56
MS.637         	4.822          	0.534
MS.638         	4.812          	0.598
MS.639         	4.802          	0.58
MS.640         	4.795          	0.542
MS.641         	4.785          	0.552
MS.642         	4.775          	0.522
MS.643         	4.765          	0.518
MS.644         	4.755          	0.528
MS.645         	4.747          	0.437
MS.646         	4.737          	0.481
MS.647         	4.727          	0.419
MS.648         	4.717          	0.421
MS.649         	4.707          	0.405
MS.650         	4.7            	0.445
MS.651         	4.69           	0.435
MS.652         	4.68           	0.417
MS.653         	4.67           	0.379
MS.654         	4.662          	0.379
MS.655         	4.652          	0.397
MS.656         	4.642          	0.352
MS.657         	4.632          	0.381
MS.658         	4.625          	0.336
MS.659         	4.615          	0.354
MS.660         	4.605          	0.338
MS.661         	4.597          	0.393
MS.662         	4.588          	0.298
MS.663         	4.577          	0.352
MS.664         	4.57           	0.294
MS.665         	4.56           	0.254
MS.666         	4.55           	0.272
MS.667         	4.543          	0.322
MS.668         	4.532          	0.294
MS.669         	4.525          	0.276
MS.670         	4.515          	0.23
MS.671         	4.505          	0.244
MS.672         	4.497          	0.24
MS.673         	4.487          	0.26
MS.674         	4.48           	0.24
MS.675         	4.47           	0.24
MS.676         	4.46           	0.248
MS.677         	4.452          	0.214
MS.678         	4.443          	0.242
MS.679         	4.435          	0.173
MS.680         	4.425          	0.205
MS.681         	4.418          	0.159
MS.682         	4.407          	0.169
MS.683         	4.4            	0.177
MS.684         	4.39           	0.179
MS.685         	4.382          	0.167
MS.686         	4.372          	0.157
MS.687         	4.365          	0.097
MS.688         	4.355          	0.141
MS.689         	4.347          	0.105
MS.690         	4.338          	0.075
MS.691         	4.33           	0.093
MS.692         	4.32           	0.075
MS.693         	4.312          	0.103
MS.694         	4.302          	0.129
MS.695         	4.295          	0.157
MS.696         	4.285          	0.068
MS.697         	4.277          	0.107
MS.698         	4.27           	0.054
MS.699         	4.26           	0.097
MS.700         	4.253          	0.05
MS.701         	4.242          	0.038
MS.702         	4.235          	0.036
MS.703         	4.227          	0.091
MS.704         	4.217          	0.083
MS.705         	4.21           	0.004
MS.706         	4.2            	0.01
MS.707         	4.193          	0.068
MS.708         	4.185          	0.026
MS.709         	4.175          	0.014
MS.710         	4.168          	0.014
MS.711         	4.16           	0.014
MS.712         	4.15           	0.008
MS.713         	4.142          	0.014
MS.714         	4.135          	0.03
MS.715         	4.125          	0.006
MS.716         	4.117          	0.004
MS.717         	4.11           	0.016
MS.718         	4.102          	-0.002
MS.719         	4.092          	-0.002
MS.720         	4.085          	0.002
MS.721         	4.077          	-0.006
MS.722         	4.07           	-0.008
MS.723         	4.06           	-0.006
MS.724         	4.052          	-0.002
MS.725         	4.045          	-0.006
MS.726         	4.037          	-0.012
MS.727         	4.027          	-0.006
MS.728         	4.02           	-0.01
MS.729         	4.012          	-0.014
MS.730         	4.005          	-0.014
MS.731         	3.995          	-0.01
MS.732         	3.987          	-0.012
MS.733         	3.98           	-0.016
MS.734         	3.972          	-0.014
MS.735         	3.965          	-0.016
MS.736         	3.957          	-0.012
MS.737         	3.947          	-0.016
MS.738         	3.94           	-0.01
MS.739         	3.932          	-0.016
MS.740         	3.925          	-0.018
MS.741         	3.918          	-0.014
MS.742         	3.91           	-0.014
MS.743         	3.902          	-0.018
MS.744         	3.892          	-0.016
MS.745         	3.885          	-0.018
MS.746         	3.877          	-0.014
MS.747         	3.87           	-0.014
MS.748         	3.862          	-0.016
MS.749         	3.855          	-0.016
MS.750         	3.847          	-0.014
MS.751         	3.84           	-0.014
MS.752         	3.832          	-0.018
MS.753         	3.825          	-0.016
MS.754         	3.817          	-0.018
MS.755         	3.81           	-0.016
MS.756         	3.803          	-0.016
MS.757         	3.795          	-0.018
MS.758         	3.785          	-0.018
MS.759         	3.777          	-0.014
MS.760         	3.77           	-0.016
MS.761         	3.762          	-0.012
MS.762         	3.755          	-0.014
MS.763         	3.747          	-0.014
MS.764         	3.74           	-0.014
MS.765         	3.732          	-0.012
MS.766         	3.725          	-0.018
MS.767         	3.717          	-0.014
MS.768         	3.71           	-0.012
MS.769         	3.705          	-0.012
MS.770         	3.697          	-0.016
MS.771         	3.69           	-0.018
MS.772         	3.682          	-0.012
MS.773         	3.675          	-0.014
MS.774         	3.668          	-0.018
MS.775         	3.66           	-0.016
MS.776         	3.652          	-0.016
MS.777         	3.645          	-0.014
MS.778         	3.637          	-0.014
MS.779         	3.63           	-0.016
MS.780         	3.622          	-0.016
MS.781         	3.615          	-0.016
MS.782         	3.607          	-0.018
MS.783         	3.602          	-0.016
MS.784         	3.595          	-0.018
MS.785         	3.587          	-0.012
MS.786         	3.58           	-0.014
MS.787         	3.572          	-0.016
MS.788         	3.565          	-0.014
MS.789         	3.557          	-0.012
MS.790         	3.553          	-0.016
MS.791         	3.545          	-0.018
MS.792         	3.537          	-0.018
MS.793         	3.53           	-0.014
MS.794         	3.523          	-0.014
MS.795         	3.515          	-0.016
MS.796         	3.51           	-0.018
MS.797         	3.502          	-0.018
MS.798         	3.495          	-0.012
MS.799         	3.487          	-0.012
MS.800         	3.48           	-0.016
MS.801         	3.475          	-0.014
MS.802         	3.467          	-0.012
MS.803         	3.46           	-0.016
MS.804         	3.452          	-0.016
MS.805         	3.447          	-0.014
MS.806         	3.44           	-0.016
MS.807         	3.432          	-0.012
MS.808         	3.425          	-0.018
MS.809         	3.42           	-0.016
MS.810         	3.412          	-0.012
MS.811         	3.405          	-0.014
MS.812         	3.398          	-0.014
MS.813         	3.392          	-0.016
MS.814         	3.385          	-0.014
MS.815         	3.377          	-0.018
MS.816         	3.372          	-0.014
MS.817         	3.365          	-0.012
MS.818         	3.357          	-0.014
MS.819         	3.352          	-0.018
MS.820         	3.345          	-0.014
MS.821         	3.337          	-0.014
DERIVED EXCITABILITY VARIABLES
Program = QTracP 3/4/2020
Threshold method = 6 (optimised for CAP, using data for present condition only)
SR method = 1 (using actual data values)
6.                 	0.000               	Peak response\(mV)
9.                 	35                  	Temperature ( C)
17.                	52                  	Age (years)
18.                	2                   	Sex (M=1, F=2)

EXTRA VARIABLES

MScPeak(mV) = 6.03
MScS5(mA) = 4.57
MScS50(mA) = 5.94
MScS95(mA) = 13.64
MScNSteps = 0
MScSteps(%) = 0.0
MScStepMax(%) = 0.0
MScD50 = 73
MScSlope = 3.24
MSFPeakAmp(mV) = 6.03
MSFNUnits = 158
MSFMeanUnitAmp(uV) = 38.2
MSFHuntTime(m) = 5.08
MSFError(%) = 1.78
MSFNLarge = 44.11
MSFMedianAmp(%) = 0.491
MSFMedianAmp(mV) = 0.0296
MSFHalfAmpAmp(%) = 0.735
MSFHalfAmpAmp(mV) = 0.0443
MSFLargestAmp(%) = 2.11
MSFLargestAmp(mV) = 0.127
MSFMeanRS(%) = 2
MSFOpts = 10106121
MScDuration(min) = 7.7
MSFTraces = 814
MSFSizeLimit(uV) = 15.1
MSFLimitType = 1
MSFSmallestAmp(uV) = 15.2

EXTRA WAVEFORMS


!MScan Model
!158
	1	4.12	0.36	2
	2	4.19	0.41	2
	3	4.25	0.49	2
	4	4.32	0.64	2
	5	4.36	0.53	2
	6	4.38	0.28	2
	7	4.4	0.25	2
	8	4.41	0.29	2
	9	4.44	0.45	2
	10	4.48	0.45	2
	11	4.51	0.4	2
	12	4.54	0.52	2
	13	4.58	0.43	2
	14	4.62	0.49	2
	15	4.64	0.4	2
	16	4.66	0.36	2
	17	4.69	0.41	2
	18	4.71	0.4	2
	19	4.73	0.27	2
	20	4.74	0.27	2
	21	4.76	0.29	2
	22	4.78	0.49	2
	23	4.79	0.34	2
	24	4.8	0.33	2
	25	4.81	0.31	2
	26	4.83	0.31	2
	27	4.84	0.3	2
	28	4.85	0.36	2
	29	4.86	0.5	2
	30	4.88	0.47	2
	31	4.9	0.48	2
	32	4.92	0.48	2
	33	4.93	0.47	2
	34	4.94	0.54	2
	35	4.95	0.36	2
	36	4.97	0.43	2
	37	4.98	0.52	2
	38	4.99	0.38	2
	39	5	0.28	2
	40	5	0.28	2
	41	5.01	0.28	2
	42	5.02	0.43	2
	43	5.03	0.42	2
	44	5.04	0.46	2
	45	5.05	0.44	2
	46	5.06	0.28	2
	47	5.07	0.28	2
	48	5.07	0.27	2
	49	5.08	0.25	2
	50	5.09	0.43	2
	51	5.1	0.3	2
	52	5.11	0.3	2
	53	5.12	0.33	2
	54	5.14	0.46	2
	55	5.15	0.41	2
	56	5.18	0.63	2
	57	5.2	0.55	2
	58	5.23	0.69	2
	59	5.25	0.65	2
	60	5.27	0.39	2
	61	5.29	0.53	2
	62	5.3	0.43	2
	63	5.31	0.28	2
	64	5.32	0.28	2
	65	5.33	0.49	2
	66	5.34	0.35	2
	67	5.35	0.4	2
	68	5.36	0.4	2
	69	5.37	0.35	2
	70	5.37	0.32	2
	71	5.38	0.32	2
	72	5.39	0.35	2
	73	5.39	0.35	2
	74	5.4	0.35	2
	75	5.41	0.41	2
	76	5.42	0.52	2
	77	5.43	0.63	2
	78	5.44	0.55	2
	79	5.45	0.48	2
	80	5.46	0.45	2
	81	5.47	0.45	2
	82	5.49	0.84	2
	83	5.51	0.95	2
	84	5.52	0.59	2
	85	5.53	0.49	2
	86	5.55	0.48	2
	87	5.56	0.53	2
	88	5.58	0.54	2
	89	5.59	0.63	2
	90	5.61	0.82	2
	91	5.62	0.78	2
	92	5.64	0.55	2
	93	5.65	0.53	2
	94	5.66	0.42	2
	95	5.68	0.45	2
	96	5.69	0.52	2
	97	5.71	0.73	2
	98	5.73	0.67	2
	99	5.75	0.93	2
	100	5.79	1.29	2
	101	5.82	0.92	2
	102	5.85	0.92	2
	103	5.89	1.08	2
	104	5.93	0.92	2
	105	5.97	0.73	2.4
	106	6.06	1.5	2
	107	6.13	1.37	2
	108	6.18	1.14	2
	109	6.24	0.95	2
	110	6.29	1.17	2
	111	6.32	0.47	2
	112	6.34	0.75	2
	113	6.36	0.45	2
	114	6.37	0.39	2
	115	6.39	0.33	2
	116	6.4	0.4	2
	117	6.42	0.45	2
	118	6.45	0.9	2
	119	6.47	1.74	2
	120	6.52	0.81	2
	121	6.57	1.31	2
	122	6.62	1.36	2
	123	6.65	0.58	2
	124	6.66	1.1	2
	125	6.69	1.04	2
	126	6.78	1.69	2
	127	6.87	2.11	2
	128	6.98	0.75	2
	129	7.08	1.17	2
	130	7.14	0.83	2
	131	7.19	0.79	2
	132	7.26	1.07	2
	133	7.39	1.53	2
	134	7.39	0.38	2
	135	7.41	1.88	2
	136	7.47	1.53	2
	137	7.52	0.47	2
	138	7.84	2	2
	139	8.08	1.71	2
	140	8.19	0.93	2
	141	8.29	1.02	2
	142	8.54	0.98	2
	143	8.64	0.43	2
	144	8.76	0.52	2
	145	9.25	0.96	2
	146	9.63	0.58	2
	147	10.3	0.95	2
	148	11.24	0.59	2
	149	12.01	0.58	2
	150	12.33	0.28	2
	151	13.14	0.68	2
	152	13.46	0.53	2
	153	14.06	1.01	2
	154	14.68	0.76	2
	155	15.62	0.8	2
	156	15.9	0.64	2
	157	16.14	0.48	2
	158	16.7	0.86	2

