File:              	C:\Qtrac\Data\Daniel M Sørensen\MScan multicentre study\Data from centres\Toronto\Processed data\MSCC01116C.QZD
Name:              	CA.TOR.NC.6.1
Protocol:          	MSCAN-R2
Date:              	16/11/20
Start time:        	15:01:59
Age:               	42
Sex:               	F
Temperature:       	29.9
S/R sites:         	TA
NC/disease:        	NC
Operator:          	LP
Comments:
M-SCAN DATA (6.3-1.4m)
Scanpts: 5, 9, 507, 529
Stim. (mA)     	Amp. (mV)
MS.1           	19.5           	5.569
MS.2           	19.5           	5.653
MS.3           	19.5           	5.591
MS.4           	19.5           	5.565
MS.5           	19.5           	5.594
MS.6           	19.5           	5.53
MS.7           	19.5           	5.551
MS.8           	19.5           	5.587
MS.9           	19.5           	5.535
MS.10          	19.5           	5.559
MS.11          	19.5           	5.57
MS.12          	19.5           	5.552
MS.13          	19.5           	5.569
MS.14          	19.5           	5.566
MS.15          	19.5           	5.574
MS.16          	19.5           	5.551
MS.17          	19.5           	5.546
MS.18          	19.5           	5.551
MS.19          	19.5           	5.519
MS.20          	19.5           	5.522
MS.21          	19.5           	5.559
MS.22          	19.5           	5.563
MS.23          	19.5           	5.511
MS.24          	19.422         	5.532
MS.25          	19.382         	5.555
MS.26          	19.345         	5.514
MS.27          	19.305         	5.538
MS.28          	19.267         	5.543
MS.29          	19.23          	5.532
MS.30          	19.19          	5.558
MS.31          	19.153         	5.597
MS.32          	19.115         	5.527
MS.33          	19.075         	5.565
MS.34          	19.038         	5.481
MS.35          	19             	5.542
MS.36          	18.962         	5.474
MS.37          	18.922         	5.54
MS.38          	18.885         	5.527
MS.39          	18.847         	5.455
MS.40          	18.81          	5.553
MS.41          	18.772         	5.475
MS.42          	18.735         	5.5
MS.43          	18.698         	5.519
MS.44          	18.66          	5.498
MS.45          	18.622         	5.435
MS.46          	18.585         	5.475
MS.47          	18.55          	5.449
MS.48          	18.512         	5.413
MS.49          	18.475         	5.507
MS.50          	18.438         	5.427
MS.51          	18.4           	5.447
MS.52          	18.365         	5.479
MS.53          	18.327         	5.42
MS.54          	18.29          	5.431
MS.55          	18.255         	5.355
MS.56          	18.217         	5.36
MS.57          	18.182         	5.387
MS.58          	18.145         	5.339
MS.59          	18.11          	5.347
MS.60          	18.073         	5.347
MS.61          	18.038         	5.315
MS.62          	18             	5.282
MS.63          	17.965         	5.289
MS.64          	17.93          	5.305
MS.65          	17.892         	5.256
MS.66          	17.858         	5.248
MS.67          	17.823         	5.254
MS.68          	17.785         	5.248
MS.69          	17.75          	5.168
MS.70          	17.715         	5.282
MS.71          	17.68          	5.226
MS.72          	17.645         	5.175
MS.73          	17.61          	5.189
MS.74          	17.575         	5.082
MS.75          	17.538         	5.157
MS.76          	17.503         	5.076
MS.77          	17.467         	5.072
MS.78          	17.435         	5.12
MS.79          	17.4           	5.077
MS.80          	17.365         	5.066
MS.81          	17.33          	5.088
MS.82          	17.295         	5.002
MS.83          	17.26          	5.022
MS.84          	17.225         	4.972
MS.85          	17.192         	5.004
MS.86          	17.157         	5.02
MS.87          	17.122         	5.028
MS.88          	17.087         	4.95
MS.89          	17.055         	4.923
MS.90          	17.02          	4.91
MS.91          	16.987         	4.872
MS.92          	16.952         	4.871
MS.93          	16.917         	4.907
MS.94          	16.885         	4.89
MS.95          	16.85          	4.886
MS.96          	16.817         	4.854
MS.97          	16.782         	4.819
MS.98          	16.75          	4.863
MS.99          	16.717         	4.832
MS.100         	16.682         	4.838
MS.101         	16.65          	4.779
MS.102         	16.618         	4.78
MS.103         	16.583         	4.806
MS.104         	16.55          	4.862
MS.105         	16.517         	4.761
MS.106         	16.485         	4.718
MS.107         	16.452         	4.573
MS.108         	16.417         	4.695
MS.109         	16.385         	4.645
MS.110         	16.352         	4.578
MS.111         	16.32          	4.624
MS.112         	16.288         	4.642
MS.113         	16.255         	4.506
MS.114         	16.222         	4.548
MS.115         	16.19          	4.568
MS.116         	16.157         	4.453
MS.117         	16.125         	4.518
MS.118         	16.092         	4.592
MS.119         	16.062         	4.475
MS.120         	16.03          	4.425
MS.121         	15.997         	4.504
MS.122         	15.965         	4.37
MS.123         	15.932         	4.384
MS.124         	15.902         	4.294
MS.125         	15.87          	4.304
MS.126         	15.837         	4.301
MS.127         	15.807         	4.261
MS.128         	15.775         	4.135
MS.129         	15.742         	4.299
MS.130         	15.712         	4.176
MS.131         	15.68          	4.117
MS.132         	15.65          	4.032
MS.133         	15.617         	4.048
MS.134         	15.587         	3.987
MS.135         	15.555         	3.983
MS.136         	15.525         	3.942
MS.137         	15.492         	4.011
MS.138         	15.462         	3.962
MS.139         	15.432         	4.009
MS.140         	15.4           	3.89
MS.141         	15.37          	3.89
MS.142         	15.34          	3.936
MS.143         	15.307         	3.837
MS.144         	15.277         	3.829
MS.145         	15.247         	3.782
MS.146         	15.217         	3.702
MS.147         	15.188         	3.743
MS.148         	15.155         	3.728
MS.149         	15.125         	3.621
MS.150         	15.095         	3.69
MS.151         	15.065         	3.61
MS.152         	15.035         	3.601
MS.153         	15.005         	3.549
MS.154         	14.975         	3.588
MS.155         	14.945         	3.524
MS.156         	14.915         	3.51
MS.157         	14.885         	3.51
MS.158         	14.855         	3.427
MS.159         	14.827         	3.468
MS.160         	14.797         	3.562
MS.161         	14.767         	3.408
MS.162         	14.737         	3.265
MS.163         	14.707         	3.317
MS.164         	14.68          	3.314
MS.165         	14.65          	3.21
MS.166         	14.62          	3.378
MS.167         	14.59          	3.236
MS.168         	14.562         	3.197
MS.169         	14.532         	3.164
MS.170         	14.505         	3.082
MS.171         	14.475         	3.083
MS.172         	14.445         	3.201
MS.173         	14.417         	3.143
MS.174         	14.387         	3.208
MS.175         	14.36          	3.052
MS.176         	14.33          	3.076
MS.177         	14.302         	2.991
MS.178         	14.273         	3.083
MS.179         	14.245         	2.961
MS.180         	14.217         	2.93
MS.181         	14.188         	2.891
MS.182         	14.16          	2.925
MS.183         	14.132         	2.855
MS.184         	14.102         	2.921
MS.185         	14.075         	2.926
MS.186         	14.047         	2.83
MS.187         	14.02          	2.726
MS.188         	13.99          	2.808
MS.189         	13.962         	2.839
MS.190         	13.935         	2.711
MS.191         	13.907         	2.761
MS.192         	13.88          	2.756
MS.193         	13.852         	2.664
MS.194         	13.825         	2.708
MS.195         	13.797         	2.632
MS.196         	13.77          	2.688
MS.197         	13.742         	2.617
MS.198         	13.715         	2.654
MS.199         	13.688         	2.573
MS.200         	13.66          	2.62
MS.201         	13.632         	2.539
MS.202         	13.605         	2.67
MS.203         	13.577         	2.538
MS.204         	13.55          	2.549
MS.205         	13.523         	2.461
MS.206         	13.495         	2.476
MS.207         	13.47          	2.452
MS.208         	13.443         	2.483
MS.209         	13.415         	2.439
MS.210         	13.387         	2.433
MS.211         	13.362         	2.393
MS.212         	13.335         	2.417
MS.213         	13.307         	2.371
MS.214         	13.282         	2.358
MS.215         	13.255         	2.249
MS.216         	13.23          	2.169
MS.217         	13.202         	2.129
MS.218         	13.175         	2.109
MS.219         	13.15          	2.164
MS.220         	13.122         	2.151
MS.221         	13.097         	2.12
MS.222         	13.07          	2.123
MS.223         	13.045         	2.117
MS.224         	13.02          	2.062
MS.225         	12.992         	2.052
MS.226         	12.967         	2.052
MS.227         	12.94          	2.048
MS.228         	12.915         	1.998
MS.229         	12.89          	2.097
MS.230         	12.862         	2.001
MS.231         	12.837         	1.976
MS.232         	12.812         	1.918
MS.233         	12.787         	1.913
MS.234         	12.76          	1.91
MS.235         	12.735         	1.92
MS.236         	12.71          	1.797
MS.237         	12.685         	1.926
MS.238         	12.66          	1.775
MS.239         	12.635         	1.831
MS.240         	12.61          	1.735
MS.241         	12.585         	1.687
MS.242         	12.557         	1.678
MS.243         	12.532         	1.709
MS.244         	12.507         	1.652
MS.245         	12.483         	1.569
MS.246         	12.457         	1.686
MS.247         	12.432         	1.646
MS.248         	12.41          	1.512
MS.249         	12.385         	1.508
MS.250         	12.36          	1.621
MS.251         	12.335         	1.543
MS.252         	12.31          	1.527
MS.253         	12.285         	1.443
MS.254         	12.26          	1.388
MS.255         	12.238         	1.417
MS.256         	12.212         	1.333
MS.257         	12.188         	1.344
MS.258         	12.162         	1.343
MS.259         	12.14          	1.252
MS.260         	12.115         	1.219
MS.261         	12.09          	1.324
MS.262         	12.065         	1.166
MS.263         	12.042         	1.262
MS.264         	12.017         	1.216
MS.265         	11.995         	1.163
MS.266         	11.97          	1.144
MS.267         	11.945         	1.095
MS.268         	11.922         	1.184
MS.269         	11.898         	1.14
MS.270         	11.875         	0.977
MS.271         	11.85          	1.019
MS.272         	11.827         	1.044
MS.273         	11.802         	1.053
MS.274         	11.78          	1.104
MS.275         	11.757         	0.978
MS.276         	11.733         	0.936
MS.277         	11.71          	1.011
MS.278         	11.685         	0.961
MS.279         	11.662         	0.927
MS.280         	11.64          	0.914
MS.281         	11.617         	0.873
MS.282         	11.592         	0.89
MS.283         	11.57          	0.813
MS.284         	11.547         	0.906
MS.285         	11.525         	0.791
MS.286         	11.5           	0.856
MS.287         	11.477         	0.796
MS.288         	11.455         	0.857
MS.289         	11.432         	0.829
MS.290         	11.41          	0.774
MS.291         	11.387         	0.754
MS.292         	11.363         	0.74
MS.293         	11.34          	0.754
MS.294         	11.318         	0.697
MS.295         	11.295         	0.693
MS.296         	11.273         	0.685
MS.297         	11.25          	0.693
MS.298         	11.227         	0.637
MS.299         	11.205         	0.627
MS.300         	11.182         	0.663
MS.301         	11.16          	0.663
MS.302         	11.137         	0.616
MS.303         	11.117         	0.641
MS.304         	11.095         	0.674
MS.305         	11.073         	0.643
MS.306         	11.05          	0.612
MS.307         	11.028         	0.535
MS.308         	11.005         	0.59
MS.309         	10.983         	0.579
MS.310         	10.962         	0.601
MS.311         	10.94          	0.471
MS.312         	10.917         	0.548
MS.313         	10.895         	0.527
MS.314         	10.875         	0.524
MS.315         	10.852         	0.518
MS.316         	10.83          	0.49
MS.317         	10.81          	0.475
MS.318         	10.787         	0.5
MS.319         	10.765         	0.466
MS.320         	10.745         	0.444
MS.321         	10.722         	0.452
MS.322         	10.702         	0.474
MS.323         	10.68          	0.385
MS.324         	10.66          	0.375
MS.325         	10.637         	0.387
MS.326         	10.617         	0.358
MS.327         	10.595         	0.425
MS.328         	10.575         	0.382
MS.329         	10.552         	0.403
MS.330         	10.532         	0.364
MS.331         	10.51          	0.374
MS.332         	10.49          	0.36
MS.333         	10.47          	0.402
MS.334         	10.448         	0.394
MS.335         	10.427         	0.378
MS.336         	10.407         	0.295
MS.337         	10.385         	0.334
MS.338         	10.365         	0.348
MS.339         	10.345         	0.312
MS.340         	10.323         	0.265
MS.341         	10.302         	0.325
MS.342         	10.282         	0.305
MS.343         	10.262         	0.331
MS.344         	10.24          	0.306
MS.345         	10.22          	0.266
MS.346         	10.2           	0.299
MS.347         	10.18          	0.267
MS.348         	10.16          	0.249
MS.349         	10.14          	0.265
MS.350         	10.12          	0.238
MS.351         	10.097         	0.306
MS.352         	10.077         	0.278
MS.353         	10.057         	0.238
MS.354         	10.037         	0.237
MS.355         	10.017         	0.192
MS.356         	9.997          	0.2
MS.357         	9.977          	0.206
MS.358         	9.957          	0.198
MS.359         	9.938          	0.183
MS.360         	9.917          	0.192
MS.361         	9.9            	0.142
MS.362         	9.88           	0.167
MS.363         	9.86           	0.203
MS.364         	9.84           	0.132
MS.365         	9.82           	0.149
MS.366         	9.8            	0.201
MS.367         	9.78           	0.145
MS.368         	9.76           	0.149
MS.369         	9.742          	0.16
MS.370         	9.722          	0.144
MS.371         	9.702          	0.149
MS.372         	9.682          	0.104
MS.373         	9.665          	0.134
MS.374         	9.645          	0.175
MS.375         	9.625          	0.159
MS.376         	9.605          	0.138
MS.377         	9.587          	0.123
MS.378         	9.568          	0.112
MS.379         	9.55           	0.148
MS.380         	9.53           	0.101
MS.381         	9.51           	0.128
MS.382         	9.492          	0.132
MS.383         	9.472          	0.143
MS.384         	9.452          	0.105
MS.385         	9.435          	0.153
MS.386         	9.415          	0.104
MS.387         	9.398          	0.093
MS.388         	9.377          	0.11
MS.389         	9.36           	0.1
MS.390         	9.34           	0.107
MS.391         	9.323          	0.11
MS.392         	9.302          	0.105
MS.393         	9.285          	0.082
MS.394         	9.267          	0.101
MS.395         	9.247          	0.117
MS.396         	9.23           	0.151
MS.397         	9.21           	0.104
MS.398         	9.193          	0.088
MS.399         	9.175          	0.094
MS.400         	9.155          	0.087
MS.401         	9.137          	0.107
MS.402         	9.12           	0.109
MS.403         	9.1            	0.096
MS.404         	9.082          	0.101
MS.405         	9.065          	0.092
MS.406         	9.047          	0.116
MS.407         	9.028          	0.094
MS.408         	9.01           	0.109
MS.409         	8.992          	0.089
MS.410         	8.975          	0.081
MS.411         	8.957          	0.106
MS.412         	8.94           	0.073
MS.413         	8.92           	0.089
MS.414         	8.903          	0.105
MS.415         	8.885          	0.093
MS.416         	8.867          	0.081
MS.417         	8.85           	0.078
MS.418         	8.832          	0.06
MS.419         	8.815          	0.071
MS.420         	8.797          	0.077
MS.421         	8.78           	0.057
MS.422         	8.762          	0.081
MS.423         	8.745          	0.083
MS.424         	8.727          	0.079
MS.425         	8.71           	0.06
MS.426         	8.693          	0.044
MS.427         	8.675          	0.057
MS.428         	8.658          	0.062
MS.429         	8.64           	0.081
MS.430         	8.622          	0.052
MS.431         	8.605          	0.035
MS.432         	8.587          	0.048
MS.433         	8.57           	0.049
MS.434         	8.555          	0.045
MS.435         	8.537          	0.039
MS.436         	8.52           	0.056
MS.437         	8.502          	0.045
MS.438         	8.485          	0.039
MS.439         	8.47           	0.035
MS.440         	8.452          	0.033
MS.441         	8.435          	0.034
MS.442         	8.417          	0.044
MS.443         	8.403          	0.048
MS.444         	8.385          	0.033
MS.445         	8.367          	0.06
MS.446         	8.35           	0.04
MS.447         	8.335          	0.044
MS.448         	8.318          	0.04
MS.449         	8.302          	0.038
MS.450         	8.285          	0.035
MS.451         	8.267          	0.018
MS.452         	8.252          	0.023
MS.453         	8.235          	0.028
MS.454         	8.217          	0.035
MS.455         	8.202          	0.035
MS.456         	8.185          	0.013
MS.457         	8.17           	0.029
MS.458         	8.153          	0.021
MS.459         	8.137          	0.032
MS.460         	8.12           	0.027
MS.461         	8.105          	0.031
MS.462         	8.087          	0.021
MS.463         	8.073          	0.022
MS.464         	8.055          	0.026
MS.465         	8.04           	0.011
MS.466         	8.025          	0.013
MS.467         	8.007          	0.018
MS.468         	7.992          	0.02
MS.469         	7.975          	0.032
MS.470         	7.96           	0.02
MS.471         	7.945          	0.016
MS.472         	7.927          	0.018
MS.473         	7.912          	0.02
MS.474         	7.898          	0.02
MS.475         	7.88           	0.024
MS.476         	7.865          	0.029
MS.477         	7.85           	0.016
MS.478         	7.832          	0.009
MS.479         	7.817          	-0.006
MS.480         	7.802          	0.023
MS.481         	7.787          	0.021
MS.482         	7.77           	0.016
MS.483         	7.755          	0.02
MS.484         	7.74           	0.022
MS.485         	7.725          	0.013
MS.486         	7.71           	0.001
MS.487         	7.695          	-0.001
MS.488         	7.677          	0.009
MS.489         	7.662          	0.023
MS.490         	7.648          	0.000
MS.491         	7.632          	0.004
MS.492         	7.617          	0.016
MS.493         	7.602          	0.005
MS.494         	7.587          	0.021
MS.495         	7.572          	0.02
MS.496         	7.557          	0.006
MS.497         	7.543          	0.005
MS.498         	7.527          	-0.001
MS.499         	7.512          	-0.005
MS.500         	7.497          	-0.001
MS.501         	7.482          	-0.005
MS.502         	7.467          	0.004
MS.503         	7.452          	0.002
MS.504         	7.438          	0.005
MS.505         	7.422          	0.005
MS.506         	7.407          	-0.012
MS.507         	7.392          	0.007
MS.508         	7.378          	-0.006
MS.509         	7.362          	0.006
MS.510         	7.347          	0.004
MS.511         	7.332          	0.000
MS.512         	7.317          	-0.001
MS.513         	7.305          	0.005
MS.514         	7.29           	-0.002
MS.515         	7.275          	0.004
MS.516         	7.26           	0.013
MS.517         	7.245          	-0.004
MS.518         	7.23           	0.005
MS.519         	7.217          	0.005
MS.520         	7.202          	0.000
MS.521         	7.188          	0.01
MS.522         	7.172          	0.005
MS.523         	7.16           	0.002
MS.524         	7.145          	0.007
MS.525         	7.13           	0.004
MS.526         	7.117          	0.001
MS.527         	7.102          	0.004
MS.528         	7.087          	0.012
MS.529         	7.075          	0.002
DERIVED EXCITABILITY VARIABLES
Program = QTracP 3/4/2020
Threshold method = 6 (optimised for CAP, using data for present condition only)
SR method = 1 (using actual data values)
6.                 	0.000               	Peak response\(mV)
9.                 	29.9                	Temperature ( C)
17.                	42                  	Age (years)
18.                	2                   	Sex (M=1, F=2)

EXTRA VARIABLES

MScPeak(mV) = 5.56
MScS5(mA) = 10.21
MScS50(mA) = 13.99
MScS95(mA) = 17.78
MScNSteps = 0
MScSteps(%) = 0.0
MScStepMax(%) = 0.0
MScD50 = 64
MScSlope = 3.99
MSFPeakAmp(mV) = 5.56
MSFNUnits = 185
MSFMeanUnitAmp(uV) = 30
MSFHuntTime(m) = 3.45
MSFError(%) = 1.77
MSFNLarge = 69.65
MSFMedianAmp(%) = 0.496
MSFMedianAmp(mV) = 0.0276
MSFHalfAmpAmp(%) = 0.541
MSFHalfAmpAmp(mV) = 0.0301
MSFLargestAmp(%) = 1.42
MSFLargestAmp(mV) = 0.0791
MSFMeanRS(%) = 2
MSFOpts = 10106121
MScDuration(min) = 4.9
MSFTraces = 525
MSFSizeLimit(uV) = 13.9
MSFLimitType = 1
MSFSmallestAmp(uV) = 14.7

EXTRA WAVEFORMS


!MScan Model
!185
	1	7.88	0.34	2
	2	8.33	0.26	2
	3	8.62	0.34	2
	4	8.83	0.44	2
	5	9.28	0.45	2
	6	9.71	0.8	2
	7	9.87	0.48	2
	8	9.94	0.57	2
	9	10.05	0.47	2
	10	10.1	0.32	2
	11	10.22	0.72	2
	12	10.3	0.43	2
	13	10.42	0.69	2
	14	10.57	0.73	2
	15	10.66	0.62	2
	16	10.73	0.43	2
	17	10.79	0.43	2
	18	10.84	0.48	2
	19	10.89	0.45	2
	20	10.94	0.52	2
	21	11	0.54	2
	22	11.07	0.51	2
	23	11.13	0.45	2
	24	11.18	0.45	2
	25	11.21	0.27	2
	26	11.25	0.36	2
	27	11.28	0.36	2
	28	11.32	0.36	2
	29	11.39	0.56	2
	30	11.43	0.42	2
	31	11.47	0.48	2
	32	11.51	0.47	2
	33	11.55	0.5	2
	34	11.6	0.68	2
	35	11.65	0.61	2
	36	11.71	0.59	2
	37	11.76	0.67	2
	38	11.81	0.66	2
	39	11.86	0.73	2
	40	11.9	0.57	2
	41	11.94	0.45	2
	42	11.98	0.47	2
	43	12.02	0.59	2
	44	12.04	0.39	2
	45	12.07	0.42	2
	46	12.09	0.54	2
	47	12.12	0.49	2
	48	12.14	0.48	2
	49	12.18	0.56	2
	50	12.21	0.43	2
	51	12.24	0.52	2
	52	12.27	0.57	2
	53	12.3	0.54	2
	54	12.33	0.51	2
	55	12.35	0.47	2
	56	12.38	0.47	2
	57	12.42	0.65	2
	58	12.46	0.87	2
	59	12.5	0.67	2
	60	12.53	0.46	2
	61	12.55	0.4	2
	62	12.58	0.35	2
	63	12.6	0.41	2
	64	12.63	0.44	2
	65	12.65	0.44	2
	66	12.68	0.43	2
	67	12.7	0.4	2
	68	12.73	0.39	2
	69	12.75	0.4	2
	70	12.79	0.5	2
	71	12.82	0.53	2
	72	12.85	0.46	2
	73	12.88	0.42	2
	74	12.95	0.83	2
	75	13.02	0.69	2
	76	13.05	0.31	2
	77	13.08	0.47	2
	78	13.11	0.58	2
	79	13.15	0.51	2
	80	13.18	0.6	2
	81	13.26	0.49	2
	82	13.3	0.55	2
	83	13.33	0.6	2
	84	13.37	0.48	2
	85	13.4	0.49	2
	86	13.45	0.86	2
	87	13.51	0.93	2
	88	13.56	0.59	2
	89	13.61	0.54	2
	90	13.66	0.53	2
	91	13.71	0.58	2
	92	13.75	0.68	2
	93	13.77	0.82	2
	94	13.83	0.66	2
	95	13.88	0.48	2
	96	13.92	0.48	2
	97	13.97	0.5	2
	98	14	0.44	2
	99	14.04	0.5	2
	100	14.08	0.52	2
	101	14.13	0.64	2
	102	14.19	0.81	2
	103	14.25	0.84	2
	104	14.32	0.86	2
	105	14.38	0.87	2
	106	14.47	1.42	2
	107	14.55	1.11	2
	108	14.6	0.65	2
	109	14.66	0.74	2
	110	14.7	0.73	2
	111	14.75	0.65	2
	112	14.79	0.63	2
	113	14.83	0.62	2
	114	14.86	0.54	2
	115	14.9	0.52	2
	116	14.94	0.5	2
	117	14.97	0.61	2
	118	15.01	0.46	2
	119	15.04	0.36	2
	120	15.06	0.48	2
	121	15.1	0.49	2
	122	15.12	0.39	2
	123	15.15	0.33	2
	124	15.17	0.33	2
	125	15.19	0.33	2
	126	15.21	0.28	2
	127	15.23	0.3	2
	128	15.25	0.32	2
	129	15.27	0.33	2
	130	15.31	0.5	2
	131	15.34	0.54	2
	132	15.38	0.5	2
	133	15.41	0.45	2
	134	15.45	0.48	2
	135	15.47	0.39	2.4
	136	15.49	0.56	2
	137	15.53	0.78	2
	138	15.57	0.62	2
	139	15.6	0.48	2
	140	15.66	0.36	2
	141	15.68	0.34	2
	142	15.71	0.46	2
	143	15.74	0.48	2
	144	15.77	0.6	2
	145	15.81	0.6	2
	146	15.84	0.55	2
	147	15.88	0.57	2
	148	15.92	0.65	2
	149	15.97	0.76	2
	150	16.01	0.51	2
	151	16.06	0.6	2
	152	16.16	1.39	2
	153	16.25	0.93	2
	154	16.34	1.07	2
	155	16.42	0.83	2
	156	16.49	0.54	2
	157	16.56	0.74	2
	158	16.7	1.12	2
	159	16.76	0.44	2
	160	16.81	0.44	2
	161	16.86	0.37	2
	162	16.91	0.31	2
	163	17	0.53	2
	164	17.04	0.29	2
	165	17.09	0.31	2
	166	17.18	0.63	2
	167	17.22	0.27	2
	168	17.29	0.49	2
	169	17.35	0.59	2
	170	17.42	0.47	2
	171	17.47	0.38	2
	172	17.53	0.32	2
	173	17.59	0.42	2
	174	17.65	0.34	2
	175	17.71	0.47	2
	176	17.77	0.43	2
	177	17.84	0.52	2
	178	17.9	0.46	2
	179	17.98	0.44	2
	180	18.05	0.46	2
	181	18.14	0.52	2
	182	18.22	0.4	2
	183	18.3	0.42	2
	184	18.44	0.73	2
	185	18.77	0.99	2

