File:              	C:\Qtrac\Data\Daniel M Sørensen\MScan multicentre study\Data from centres\Toronto\Processed data\MSCC01112C.QZD
Name:              	CA.TOR.NC.1.1
Protocol:          	MSCAN-R2
Date:              	12/11/20
Start time:        	17:18:06
Age:               	36
Sex:               	M
Temperature:       	31.7
S/R sites:         	TA
NC/disease:        	NC
Operator:          	LP
Comments:
M-SCAN DATA (9.7-0.8m)
Scanpts: 87, 107, 908, 930
Stim. (mA)     	Amp. (mV)
MS.1           	26             	8.057
MS.2           	26             	8.061
MS.3           	26             	8.049
MS.4           	26             	8.026
MS.5           	26             	7.954
MS.6           	26             	7.972
MS.7           	26             	7.962
MS.8           	26             	7.952
MS.9           	26             	7.92
MS.10          	26             	7.926
MS.11          	26             	7.952
MS.12          	26             	7.9
MS.13          	26             	7.912
MS.14          	26             	7.833
MS.15          	26             	7.859
MS.16          	26             	7.918
MS.17          	26             	7.863
MS.18          	26             	7.853
MS.19          	26             	7.883
MS.20          	26             	7.827
MS.21          	26             	7.859
MS.22          	26             	7.875
MS.23          	26             	7.879
MS.24          	25.895         	7.843
MS.25          	25.845         	7.875
MS.26          	25.792         	7.879
MS.27          	25.74          	7.847
MS.28          	25.69          	7.885
MS.29          	25.637         	7.817
MS.30          	25.587         	7.819
MS.31          	25.535         	7.795
MS.32          	25.485         	7.793
MS.33          	25.435         	7.801
MS.34          	25.382         	7.823
MS.35          	25.332         	7.843
MS.36          	25.282         	7.841
MS.37          	25.233         	7.801
MS.38          	25.18          	7.841
MS.39          	25.13          	7.851
MS.40          	25.08          	7.823
MS.41          	25.03          	7.863
MS.42          	24.98          	7.841
MS.43          	24.93          	7.863
MS.44          	24.88          	7.841
MS.45          	24.83          	7.853
MS.46          	24.782         	7.849
MS.47          	24.733         	7.833
MS.48          	24.682         	7.825
MS.49          	24.632         	7.865
MS.50          	24.585         	7.93
MS.51          	24.535         	7.869
MS.52          	24.485         	7.873
MS.53          	24.438         	7.853
MS.54          	24.387         	7.877
MS.55          	24.34          	7.9
MS.56          	24.29          	7.904
MS.57          	24.243         	7.875
MS.58          	24.192         	7.857
MS.59          	24.145         	7.843
MS.60          	24.097         	7.855
MS.61          	24.05          	7.865
MS.62          	24             	7.799
MS.63          	23.952         	7.863
MS.64          	23.905         	7.849
MS.65          	23.858         	7.857
MS.66          	23.81          	7.865
MS.67          	23.762         	7.849
MS.68          	23.715         	7.863
MS.69          	23.667         	7.887
MS.70          	23.62          	7.845
MS.71          	23.573         	7.847
MS.72          	23.525         	7.847
MS.73          	23.477         	7.841
MS.74          	23.432         	7.841
MS.75          	23.385         	7.827
MS.76          	23.337         	7.853
MS.77          	23.292         	7.831
MS.78          	23.245         	7.837
MS.79          	23.198         	7.861
MS.80          	23.153         	7.803
MS.81          	23.105         	7.807
MS.82          	23.06          	7.732
MS.83          	23.015         	7.769
MS.84          	22.967         	7.829
MS.85          	22.922         	7.811
MS.86          	22.875         	7.811
MS.87          	22.83          	7.817
MS.88          	22.785         	7.791
MS.89          	22.74          	7.787
MS.90          	22.695         	7.809
MS.91          	22.647         	7.797
MS.92          	22.602         	7.797
MS.93          	22.557         	7.813
MS.94          	22.512         	7.795
MS.95          	22.467         	7.837
MS.96          	22.422         	7.803
MS.97          	22.377         	7.809
MS.98          	22.332         	7.809
MS.99          	22.29          	7.793
MS.100         	22.245         	7.799
MS.101         	22.2           	7.817
MS.102         	22.155         	7.843
MS.103         	22.112         	7.803
MS.104         	22.067         	7.809
MS.105         	22.022         	7.783
MS.106         	21.98          	7.783
MS.107         	21.935         	7.813
MS.108         	21.892         	7.771
MS.109         	21.847         	7.807
MS.110         	21.805         	7.807
MS.111         	21.76          	7.781
MS.112         	21.717         	7.787
MS.113         	21.672         	7.829
MS.114         	21.63          	7.791
MS.115         	21.587         	7.797
MS.116         	21.545         	7.781
MS.117         	21.5           	7.787
MS.118         	21.458         	7.789
MS.119         	21.415         	7.779
MS.120         	21.372         	7.795
MS.121         	21.33          	7.825
MS.122         	21.288         	7.831
MS.123         	21.245         	7.787
MS.124         	21.202         	7.789
MS.125         	21.16          	7.829
MS.126         	21.118         	7.779
MS.127         	21.075         	7.728
MS.128         	21.032         	7.773
MS.129         	20.99          	7.74
MS.130         	20.95          	7.763
MS.131         	20.907         	7.765
MS.132         	20.865         	7.75
MS.133         	20.823         	7.753
MS.134         	20.782         	7.771
MS.135         	20.74          	7.748
MS.136         	20.7           	7.744
MS.137         	20.657         	7.75
MS.138         	20.618         	7.75
MS.139         	20.575         	7.757
MS.140         	20.535         	7.738
MS.141         	20.493         	7.746
MS.142         	20.452         	7.712
MS.143         	20.413         	7.706
MS.144         	20.37          	7.724
MS.145         	20.33          	7.708
MS.146         	20.29          	7.636
MS.147         	20.247         	7.708
MS.148         	20.208         	7.724
MS.149         	20.167         	7.71
MS.150         	20.127         	7.702
MS.151         	20.087         	7.728
MS.152         	20.047         	7.696
MS.153         	20.007         	7.72
MS.154         	19.967         	7.71
MS.155         	19.927         	7.684
MS.156         	19.887         	7.71
MS.157         	19.847         	7.688
MS.158         	19.807         	7.698
MS.159         	19.767         	7.73
MS.160         	19.73          	7.692
MS.161         	19.69          	7.706
MS.162         	19.65          	7.708
MS.163         	19.61          	7.704
MS.164         	19.573         	7.71
MS.165         	19.532         	7.69
MS.166         	19.493         	7.672
MS.167         	19.455         	7.708
MS.168         	19.415         	7.714
MS.169         	19.377         	7.724
MS.170         	19.337         	7.696
MS.171         	19.3           	7.696
MS.172         	19.26          	7.724
MS.173         	19.222         	7.714
MS.174         	19.185         	7.783
MS.175         	19.145         	7.714
MS.176         	19.108         	7.674
MS.177         	19.07          	7.7
MS.178         	19.032         	7.696
MS.179         	18.993         	7.658
MS.180         	18.955         	7.704
MS.181         	18.917         	7.692
MS.182         	18.88          	7.674
MS.183         	18.842         	7.676
MS.184         	18.805         	7.66
MS.185         	18.767         	7.698
MS.186         	18.73          	7.666
MS.187         	18.692         	7.684
MS.188         	18.655         	7.668
MS.189         	18.618         	7.668
MS.190         	18.58          	7.68
MS.191         	18.542         	7.688
MS.192         	18.505         	7.724
MS.193         	18.47          	7.664
MS.194         	18.432         	7.696
MS.195         	18.395         	7.678
MS.196         	18.358         	7.712
MS.197         	18.323         	7.712
MS.198         	18.285         	7.726
MS.199         	18.247         	7.718
MS.200         	18.212         	7.676
MS.201         	18.175         	7.71
MS.202         	18.14          	7.716
MS.203         	18.102         	7.696
MS.204         	18.067         	7.726
MS.205         	18.03          	7.746
MS.206         	17.995         	7.72
MS.207         	17.96          	7.696
MS.208         	17.922         	7.718
MS.209         	17.887         	7.74
MS.210         	17.852         	7.688
MS.211         	17.815         	7.686
MS.212         	17.78          	7.682
MS.213         	17.745         	7.7
MS.214         	17.71          	7.678
MS.215         	17.675         	7.69
MS.216         	17.637         	7.662
MS.217         	17.602         	7.676
MS.218         	17.567         	7.644
MS.219         	17.532         	7.686
MS.220         	17.497         	7.668
MS.221         	17.462         	7.714
MS.222         	17.427         	7.646
MS.223         	17.392         	7.654
MS.224         	17.358         	7.706
MS.225         	17.325         	7.628
MS.226         	17.29          	7.618
MS.227         	17.255         	7.656
MS.228         	17.22          	7.672
MS.229         	17.185         	7.638
MS.230         	17.153         	7.68
MS.231         	17.118         	7.65
MS.232         	17.083         	7.69
MS.233         	17.05          	7.636
MS.234         	17.015         	7.666
MS.235         	16.98          	7.68
MS.236         	16.948         	7.632
MS.237         	16.913         	7.664
MS.238         	16.88          	7.642
MS.239         	16.845         	7.638
MS.240         	16.812         	7.609
MS.241         	16.778         	7.599
MS.242         	16.745         	7.585
MS.243         	16.712         	7.628
MS.244         	16.677         	7.646
MS.245         	16.645         	7.674
MS.246         	16.612         	7.644
MS.247         	16.577         	7.642
MS.248         	16.545         	7.63
MS.249         	16.512         	7.573
MS.250         	16.48          	7.622
MS.251         	16.445         	7.573
MS.252         	16.413         	7.591
MS.253         	16.38          	7.614
MS.254         	16.347         	7.599
MS.255         	16.315         	7.603
MS.256         	16.282         	7.612
MS.257         	16.25          	7.638
MS.258         	16.217         	7.577
MS.259         	16.185         	7.577
MS.260         	16.153         	7.622
MS.261         	16.12          	7.561
MS.262         	16.087         	7.575
MS.263         	16.055         	7.589
MS.264         	16.025         	7.597
MS.265         	15.992         	7.583
MS.266         	15.96          	7.672
MS.267         	15.927         	7.662
MS.268         	15.898         	7.63
MS.269         	15.865         	7.587
MS.270         	15.832         	7.605
MS.271         	15.802         	7.63
MS.272         	15.77          	7.605
MS.273         	15.737         	7.595
MS.274         	15.707         	7.591
MS.275         	15.675         	7.618
MS.276         	15.645         	7.664
MS.277         	15.612         	7.636
MS.278         	15.582         	7.587
MS.279         	15.55          	7.607
MS.280         	15.52          	7.553
MS.281         	15.487         	7.563
MS.282         	15.457         	7.577
MS.283         	15.427         	7.648
MS.284         	15.395         	7.585
MS.285         	15.365         	7.593
MS.286         	15.335         	7.603
MS.287         	15.302         	7.605
MS.288         	15.273         	7.64
MS.289         	15.242         	7.612
MS.290         	15.212         	7.618
MS.291         	15.182         	7.593
MS.292         	15.152         	7.64
MS.293         	15.12          	7.601
MS.294         	15.09          	7.545
MS.295         	15.06          	7.581
MS.296         	15.03          	7.597
MS.297         	15             	7.603
MS.298         	14.97          	7.591
MS.299         	14.94          	7.573
MS.300         	14.91          	7.614
MS.301         	14.88          	7.589
MS.302         	14.852         	7.575
MS.303         	14.822         	7.579
MS.304         	14.792         	7.553
MS.305         	14.762         	7.525
MS.306         	14.733         	7.527
MS.307         	14.702         	7.595
MS.308         	14.675         	7.547
MS.309         	14.645         	7.527
MS.310         	14.615         	7.589
MS.311         	14.587         	7.553
MS.312         	14.557         	7.551
MS.313         	14.527         	7.515
MS.314         	14.5           	7.549
MS.315         	14.47          	7.481
MS.316         	14.443         	7.517
MS.317         	14.412         	7.521
MS.318         	14.382         	7.559
MS.319         	14.355         	7.525
MS.320         	14.325         	7.591
MS.321         	14.297         	7.503
MS.322         	14.27          	7.543
MS.323         	14.24          	7.549
MS.324         	14.212         	7.543
MS.325         	14.182         	7.539
MS.326         	14.155         	7.525
MS.327         	14.127         	7.547
MS.328         	14.1           	7.529
MS.329         	14.07          	7.555
MS.330         	14.042         	7.577
MS.331         	14.015         	7.533
MS.332         	13.987         	7.525
MS.333         	13.957         	7.499
MS.334         	13.93          	7.565
MS.335         	13.903         	7.531
MS.336         	13.875         	7.535
MS.337         	13.847         	7.517
MS.338         	13.82          	7.481
MS.339         	13.792         	7.537
MS.340         	13.765         	7.505
MS.341         	13.737         	7.523
MS.342         	13.71          	7.499
MS.343         	13.682         	7.541
MS.344         	13.655         	7.444
MS.345         	13.627         	7.543
MS.346         	13.6           	7.589
MS.347         	13.572         	7.491
MS.348         	13.545         	7.493
MS.349         	13.52          	7.563
MS.350         	13.492         	7.481
MS.351         	13.465         	7.513
MS.352         	13.438         	7.525
MS.353         	13.41          	7.477
MS.354         	13.385         	7.541
MS.355         	13.358         	7.525
MS.356         	13.33          	7.471
MS.357         	13.305         	7.517
MS.358         	13.278         	7.475
MS.359         	13.252         	7.513
MS.360         	13.225         	7.483
MS.361         	13.197         	7.473
MS.362         	13.172         	7.491
MS.363         	13.145         	7.509
MS.364         	13.12          	7.42
MS.365         	13.092         	7.466
MS.366         	13.068         	7.533
MS.367         	13.04          	7.428
MS.368         	13.015         	7.432
MS.369         	12.99          	7.523
MS.370         	12.962         	7.462
MS.371         	12.938         	7.464
MS.372         	12.91          	7.495
MS.373         	12.885         	7.299
MS.374         	12.86          	7.464
MS.375         	12.835         	7.323
MS.376         	12.807         	7.551
MS.377         	12.782         	7.372
MS.378         	12.757         	7.428
MS.379         	12.733         	7.406
MS.380         	12.705         	7.444
MS.381         	12.68          	7.37
MS.382         	12.655         	7.362
MS.383         	12.63          	7.388
MS.384         	12.605         	7.442
MS.385         	12.58          	7.394
MS.386         	12.555         	7.354
MS.387         	12.53          	7.384
MS.388         	12.505         	7.346
MS.389         	12.48          	7.348
MS.390         	12.455         	7.319
MS.391         	12.43          	7.313
MS.392         	12.405         	7.452
MS.393         	12.38          	7.428
MS.394         	12.355         	7.384
MS.395         	12.33          	7.428
MS.396         	12.305         	7.402
MS.397         	12.282         	7.424
MS.398         	12.257         	7.36
MS.399         	12.233         	7.452
MS.400         	12.207         	7.207
MS.401         	12.182         	7.438
MS.402         	12.16          	7.352
MS.403         	12.135         	7.39
MS.404         	12.11          	7.307
MS.405         	12.087         	7.305
MS.406         	12.062         	7.249
MS.407         	12.037         	7.303
MS.408         	12.015         	7.273
MS.409         	11.99          	7.082
MS.410         	11.967         	7.116
MS.411         	11.943         	7.189
MS.412         	11.917         	7.253
MS.413         	11.895         	7.18
MS.414         	11.87          	7.211
MS.415         	11.847         	7.213
MS.416         	11.822         	7.193
MS.417         	11.8           	7.176
MS.418         	11.778         	7.267
MS.419         	11.752         	7.233
MS.420         	11.73          	7.136
MS.421         	11.705         	7.156
MS.422         	11.682         	7.076
MS.423         	11.66          	7.261
MS.424         	11.635         	7.187
MS.425         	11.613         	7.195
MS.426         	11.59          	7.158
MS.427         	11.568         	7.096
MS.428         	11.542         	7.164
MS.429         	11.52          	7.003
MS.430         	11.497         	7.08
MS.431         	11.475         	7.094
MS.432         	11.45          	7.092
MS.433         	11.427         	7.205
MS.434         	11.405         	7.058
MS.435         	11.382         	7.108
MS.436         	11.36          	7.058
MS.437         	11.337         	7.05
MS.438         	11.315         	7.15
MS.439         	11.292         	7.122
MS.440         	11.27          	7.046
MS.441         	11.247         	7.048
MS.442         	11.225         	7.017
MS.443         	11.202         	7.114
MS.444         	11.18          	7.029
MS.445         	11.157         	6.999
MS.446         	11.135         	7.021
MS.447         	11.113         	7.023
MS.448         	11.09          	7.058
MS.449         	11.068         	6.973
MS.450         	11.047         	6.971
MS.451         	11.025         	7.035
MS.452         	11.002         	6.945
MS.453         	10.98          	6.969
MS.454         	10.957         	6.864
MS.455         	10.938         	6.989
MS.456         	10.915         	6.913
MS.457         	10.892         	6.826
MS.458         	10.87          	6.878
MS.459         	10.85          	6.961
MS.460         	10.827         	6.76
MS.461         	10.805         	6.774
MS.462         	10.785         	6.774
MS.463         	10.762         	6.649
MS.464         	10.742         	6.882
MS.465         	10.72          	6.683
MS.466         	10.698         	6.689
MS.467         	10.677         	6.806
MS.468         	10.655         	6.77
MS.469         	10.635         	6.842
MS.470         	10.613         	6.751
MS.471         	10.592         	6.8
MS.472         	10.57          	6.653
MS.473         	10.55          	6.683
MS.474         	10.528         	6.633
MS.475         	10.507         	6.617
MS.476         	10.488         	6.631
MS.477         	10.465         	6.776
MS.478         	10.445         	6.713
MS.479         	10.425         	6.532
MS.480         	10.403         	6.486
MS.481         	10.382         	6.574
MS.482         	10.363         	6.647
MS.483         	10.34          	6.524
MS.484         	10.32          	6.514
MS.485         	10.3           	6.518
MS.486         	10.28          	6.476
MS.487         	10.257         	6.441
MS.488         	10.238         	6.302
MS.489         	10.217         	6.518
MS.490         	10.198         	6.337
MS.491         	10.177         	6.383
MS.492         	10.157         	6.333
MS.493         	10.135         	6.429
MS.494         	10.115         	6.389
MS.495         	10.095         	6.198
MS.496         	10.075         	6.232
MS.497         	10.055         	6.3
MS.498         	10.035         	6.242
MS.499         	10.015         	6.183
MS.500         	9.995          	6.21
MS.501         	9.975          	6.065
MS.502         	9.955          	6.105
MS.503         	9.935          	6.131
MS.504         	9.915          	6.032
MS.505         	9.895          	5.97
MS.506         	9.875          	6.125
MS.507         	9.855          	6.107
MS.508         	9.837          	5.95
MS.509         	9.818          	6.061
MS.510         	9.797          	6.087
MS.511         	9.778          	6.01
MS.512         	9.757          	5.859
MS.513         	9.738          	5.861
MS.514         	9.72           	5.962
MS.515         	9.7            	5.781
MS.516         	9.68           	5.857
MS.517         	9.66           	5.889
MS.518         	9.642          	5.95
MS.519         	9.622          	5.956
MS.520         	9.602          	5.712
MS.521         	9.585          	5.744
MS.522         	9.565          	6.034
MS.523         	9.545          	5.847
MS.524         	9.528          	5.702
MS.525         	9.507          	5.779
MS.526         	9.488          	5.819
MS.527         	9.47           	5.644
MS.528         	9.45           	5.684
MS.529         	9.432          	5.795
MS.530         	9.412          	5.704
MS.531         	9.395          	5.807
MS.532         	9.375          	5.899
MS.533         	9.358          	5.758
MS.534         	9.337          	5.837
MS.535         	9.32           	5.607
MS.536         	9.3            	5.537
MS.537         	9.283          	5.775
MS.538         	9.262          	5.569
MS.539         	9.245          	5.734
MS.540         	9.227          	5.555
MS.541         	9.207          	5.565
MS.542         	9.19           	5.609
MS.543         	9.172          	5.672
MS.544         	9.153          	5.396
MS.545         	9.135          	5.565
MS.546         	9.117          	5.481
MS.547         	9.097          	5.416
MS.548         	9.08           	5.468
MS.549         	9.062          	5.432
MS.550         	9.045          	5.42
MS.551         	9.025          	5.327
MS.552         	9.007          	5.269
MS.553         	8.99           	5.269
MS.554         	8.972          	5.271
MS.555         	8.955          	5.346
MS.556         	8.935          	5.033
MS.557         	8.917          	5.243
MS.558         	8.9            	5.219
MS.559         	8.882          	5.12
MS.560         	8.865          	5.084
MS.561         	8.847          	5.255
MS.562         	8.83           	4.975
MS.563         	8.812          	4.842
MS.564         	8.795          	4.882
MS.565         	8.778          	4.862
MS.566         	8.76           	4.818
MS.567         	8.742          	4.616
MS.568         	8.725          	4.828
MS.569         	8.707          	4.776
MS.570         	8.69           	4.729
MS.571         	8.672          	4.713
MS.572         	8.655          	4.759
MS.573         	8.637          	4.671
MS.574         	8.62           	4.743
MS.575         	8.602          	4.413
MS.576         	8.585          	4.594
MS.577         	8.568          	4.246
MS.578         	8.552          	4.419
MS.579         	8.535          	4.324
MS.580         	8.517          	4.574
MS.581         	8.5            	4.375
MS.582         	8.483          	4.546
MS.583         	8.467          	4.389
MS.584         	8.45           	4.401
MS.585         	8.432          	4.238
MS.586         	8.415          	4.383
MS.587         	8.4            	4.165
MS.588         	8.382          	4.33
MS.589         	8.365          	4.141
MS.590         	8.347          	4.175
MS.591         	8.332          	4.195
MS.592         	8.315          	4.061
MS.593         	8.297          	3.909
MS.594         	8.283          	4
MS.595         	8.265          	3.948
MS.596         	8.25           	3.932
MS.597         	8.233          	3.861
MS.598         	8.215          	3.934
MS.599         	8.2            	3.966
MS.600         	8.182          	3.863
MS.601         	8.167          	3.911
MS.602         	8.15           	3.95
MS.603         	8.135          	4.077
MS.604         	8.117          	3.877
MS.605         	8.102          	4.006
MS.606         	8.085          	3.907
MS.607         	8.07           	3.938
MS.608         	8.052          	3.922
MS.609         	8.037          	3.94
MS.610         	8.02           	3.809
MS.611         	8.005          	3.781
MS.612         	7.99           	3.611
MS.613         	7.972          	3.746
MS.614         	7.957          	3.833
MS.615         	7.942          	3.768
MS.616         	7.925          	3.758
MS.617         	7.91           	3.775
MS.618         	7.895          	3.617
MS.619         	7.878          	3.474
MS.620         	7.862          	3.497
MS.621         	7.847          	3.507
MS.622         	7.83           	3.519
MS.623         	7.815          	3.348
MS.624         	7.8            	3.434
MS.625         	7.785          	3.545
MS.626         	7.767          	3.261
MS.627         	7.753          	3.36
MS.628         	7.737          	3.313
MS.629         	7.722          	3.321
MS.630         	7.707          	3.041
MS.631         	7.692          	3.231
MS.632         	7.675          	3.074
MS.633         	7.66           	3.112
MS.634         	7.645          	3.043
MS.635         	7.63           	3.005
MS.636         	7.615          	3.092
MS.637         	7.6            	2.888
MS.638         	7.585          	3.084
MS.639         	7.57           	2.949
MS.640         	7.555          	3.007
MS.641         	7.54           	3.003
MS.642         	7.525          	2.856
MS.643         	7.51           	2.782
MS.644         	7.495          	2.769
MS.645         	7.48           	2.667
MS.646         	7.465          	2.86
MS.647         	7.45           	2.637
MS.648         	7.435          	2.723
MS.649         	7.42           	2.663
MS.650         	7.405          	2.566
MS.651         	7.39           	2.56
MS.652         	7.375          	2.628
MS.653         	7.36           	2.61
MS.654         	7.345          	2.58
MS.655         	7.33           	2.635
MS.656         	7.315          	2.53
MS.657         	7.302          	2.459
MS.658         	7.287          	2.5
MS.659         	7.273          	2.395
MS.660         	7.257          	2.391
MS.661         	7.242          	2.419
MS.662         	7.23           	2.28
MS.663         	7.215          	2.079
MS.664         	7.2            	2.109
MS.665         	7.185          	2.167
MS.666         	7.172          	2.143
MS.667         	7.157          	2.058
MS.668         	7.142          	1.972
MS.669         	7.128          	2.113
MS.670         	7.115          	2.008
MS.671         	7.1            	2.01
MS.672         	7.085          	1.853
MS.673         	7.072          	1.903
MS.674         	7.057          	1.948
MS.675         	7.043          	1.932
MS.676         	7.03           	1.944
MS.677         	7.015          	1.837
MS.678         	7.003          	1.748
MS.679         	6.987          	1.76
MS.680         	6.972          	1.666
MS.681         	6.96           	1.694
MS.682         	6.945          	1.672
MS.683         	6.932          	1.658
MS.684         	6.918          	1.676
MS.685         	6.905          	1.662
MS.686         	6.89           	1.515
MS.687         	6.878          	1.503
MS.688         	6.862          	1.434
MS.689         	6.85           	1.549
MS.690         	6.835          	1.434
MS.691         	6.822          	1.327
MS.692         	6.807          	1.358
MS.693         	6.795          	1.251
MS.694         	6.78           	1.204
MS.695         	6.767          	1.154
MS.696         	6.753          	1.283
MS.697         	6.74           	1.118
MS.698         	6.727          	1.126
MS.699         	6.712          	1.211
MS.700         	6.7            	1.211
MS.701         	6.688          	1.11
MS.702         	6.672          	1.031
MS.703         	6.66           	1.057
MS.704         	6.648          	1.09
MS.705         	6.632          	1.009
MS.706         	6.62           	0.993
MS.707         	6.608          	0.906
MS.708         	6.592          	0.963
MS.709         	6.58           	0.949
MS.710         	6.567          	0.828
MS.711         	6.555          	0.896
MS.712         	6.54           	0.81
MS.713         	6.527          	0.779
MS.714         	6.515          	0.794
MS.715         	6.503          	0.727
MS.716         	6.49           	0.773
MS.717         	6.475          	0.725
MS.718         	6.462          	0.711
MS.719         	6.45           	0.671
MS.720         	6.438          	0.689
MS.721         	6.425          	0.645
MS.722         	6.412          	0.641
MS.723         	6.398          	0.707
MS.724         	6.385          	0.632
MS.725         	6.372          	0.62
MS.726         	6.36           	0.562
MS.727         	6.347          	0.504
MS.728         	6.335          	0.53
MS.729         	6.322          	0.479
MS.730         	6.31           	0.532
MS.731         	6.297          	0.554
MS.732         	6.285          	0.443
MS.733         	6.273          	0.5
MS.734         	6.26           	0.485
MS.735         	6.247          	0.457
MS.736         	6.235          	0.502
MS.737         	6.222          	0.385
MS.738         	6.21           	0.399
MS.739         	6.197          	0.421
MS.740         	6.185          	0.397
MS.741         	6.172          	0.423
MS.742         	6.16           	0.397
MS.743         	6.148          	0.395
MS.744         	6.135          	0.357
MS.745         	6.122          	0.338
MS.746         	6.11           	0.298
MS.747         	6.1            	0.344
MS.748         	6.088          	0.354
MS.749         	6.075          	0.316
MS.750         	6.062          	0.318
MS.751         	6.05           	0.363
MS.752         	6.037          	0.29
MS.753         	6.025          	0.262
MS.754         	6.015          	0.294
MS.755         	6.003          	0.296
MS.756         	5.99           	0.254
MS.757         	5.977          	0.276
MS.758         	5.965          	0.28
MS.759         	5.955          	0.276
MS.760         	5.942          	0.29
MS.761         	5.93           	0.31
MS.762         	5.918          	0.218
MS.763         	5.907          	0.224
MS.764         	5.895          	0.234
MS.765         	5.882          	0.209
MS.766         	5.872          	0.23
MS.767         	5.86           	0.252
MS.768         	5.847          	0.24
MS.769         	5.838          	0.248
MS.770         	5.825          	0.256
MS.771         	5.812          	0.24
MS.772         	5.802          	0.179
MS.773         	5.79           	0.222
MS.774         	5.777          	0.179
MS.775         	5.767          	0.179
MS.776         	5.755          	0.171
MS.777         	5.742          	0.218
MS.778         	5.733          	0.159
MS.779         	5.72           	0.117
MS.780         	5.71           	0.167
MS.781         	5.697          	0.157
MS.782         	5.688          	0.137
MS.783         	5.675          	0.151
MS.784         	5.665          	0.161
MS.785         	5.652          	0.149
MS.786         	5.64           	0.157
MS.787         	5.63           	0.141
MS.788         	5.617          	0.103
MS.789         	5.608          	0.119
MS.790         	5.595          	0.177
MS.791         	5.585          	0.107
MS.792         	5.575          	0.113
MS.793         	5.562          	0.117
MS.794         	5.552          	0.145
MS.795         	5.54           	0.149
MS.796         	5.53           	0.113
MS.797         	5.517          	0.107
MS.798         	5.507          	0.125
MS.799         	5.497          	0.127
MS.800         	5.485          	0.091
MS.801         	5.475          	0.103
MS.802         	5.463          	0.064
MS.803         	5.452          	0.101
MS.804         	5.443          	0.089
MS.805         	5.43           	0.083
MS.806         	5.42           	0.089
MS.807         	5.41           	0.06
MS.808         	5.398          	0.091
MS.809         	5.387          	0.07
MS.810         	5.378          	0.137
MS.811         	5.365          	0.052
MS.812         	5.355          	0.081
MS.813         	5.345          	0.087
MS.814         	5.335          	0.058
MS.815         	5.322          	0.054
MS.816         	5.312          	0.101
MS.817         	5.302          	0.048
MS.818         	5.293          	0.028
MS.819         	5.28           	0.077
MS.820         	5.27           	0.081
MS.821         	5.26           	0.05
MS.822         	5.25           	0.06
MS.823         	5.24           	0.028
MS.824         	5.227          	0.024
MS.825         	5.217          	0.016
MS.826         	5.207          	0.018
MS.827         	5.197          	0.048
MS.828         	5.188          	0.042
MS.829         	5.177          	0.036
MS.830         	5.165          	0.022
MS.831         	5.155          	0.034
MS.832         	5.145          	0.012
MS.833         	5.135          	0.02
MS.834         	5.125          	0.01
MS.835         	5.115          	0.022
MS.836         	5.105          	0.034
MS.837         	5.095          	0.052
MS.838         	5.085          	0.03
MS.839         	5.075          	0.024
MS.840         	5.062          	0.042
MS.841         	5.052          	0.01
MS.842         	5.043          	0.038
MS.843         	5.032          	0.032
MS.844         	5.023          	0.026
MS.845         	5.012          	0.008
MS.846         	5.003          	0.000
MS.847         	4.992          	0.042
MS.848         	4.983          	0.03
MS.849         	4.972          	0.006
MS.850         	4.963          	0.012
MS.851         	4.952          	0.014
MS.852         	4.943          	0.026
MS.853         	4.932          	0.028
MS.854         	4.925          	0.028
MS.855         	4.915          	-0.004
MS.856         	4.905          	0.01
MS.857         	4.895          	0.01
MS.858         	4.885          	0.02
MS.859         	4.875          	0.008
MS.860         	4.865          	0.012
MS.861         	4.855          	0.008
MS.862         	4.845          	0.036
MS.863         	4.835          	0.016
MS.864         	4.827          	0.026
MS.865         	4.818          	0.006
MS.866         	4.807          	0.016
MS.867         	4.797          	0.016
MS.868         	4.787          	0.038
MS.869         	4.777          	0.014
MS.870         	4.77           	0.004
MS.871         	4.76           	0.024
MS.872         	4.75           	-0.004
MS.873         	4.74           	0.03
MS.874         	4.73           	0.01
MS.875         	4.722          	0.006
MS.876         	4.713          	0.014
MS.877         	4.702          	0.012
MS.878         	4.693          	0.03
MS.879         	4.682          	0.014
MS.880         	4.675          	0.014
MS.881         	4.665          	0.006
MS.882         	4.655          	0.024
MS.883         	4.648          	0.002
MS.884         	4.637          	0.008
MS.885         	4.628          	0.012
MS.886         	4.617          	0.018
MS.887         	4.61           	0.018
MS.888         	4.6            	0.008
MS.889         	4.59           	0.008
MS.890         	4.582          	0.004
MS.891         	4.572          	0.014
MS.892         	4.562          	0.008
MS.893         	4.555          	0.002
MS.894         	4.545          	0.014
MS.895         	4.535          	0.018
MS.896         	4.527          	0.008
MS.897         	4.517          	0.06
MS.898         	4.51           	0.012
MS.899         	4.5            	0.004
MS.900         	4.49           	0.01
MS.901         	4.483          	0.014
MS.902         	4.472          	0.014
MS.903         	4.465          	0.012
MS.904         	4.455          	0.01
MS.905         	4.447          	0.016
MS.906         	4.438          	0.014
MS.907         	4.427          	0.014
MS.908         	4.42           	0.014
MS.909         	4.41           	0.012
MS.910         	4.402          	0.01
MS.911         	4.392          	0.01
MS.912         	4.385          	0.01
MS.913         	4.375          	0.012
MS.914         	4.367          	0.01
MS.915         	4.358          	0.01
MS.916         	4.35           	0.014
MS.917         	4.34           	0.006
MS.918         	4.332          	0.01
MS.919         	4.322          	0.012
MS.920         	4.315          	0.012
MS.921         	4.307          	0.014
MS.922         	4.298          	0.012
MS.923         	4.29           	0.006
MS.924         	4.28           	0.01
MS.925         	4.273          	0.014
MS.926         	4.262          	0.01
MS.927         	4.255          	0.014
MS.928         	4.247          	0.008
MS.929         	4.237          	0.018
MS.930         	4.23           	0.01
DERIVED EXCITABILITY VARIABLES
Program = QTracP 3/4/2020
Threshold method = 6 (optimised for CAP, using data for present condition only)
SR method = 1 (using actual data values)
6.                 	0.000               	Peak response\(mV)
9.                 	31.7                	Temperature ( C)
17.                	36                  	Age (years)
18.                	1                   	Sex (M=1, F=2)

EXTRA VARIABLES

MScPeak(mV) = 7.92
MScS5(mA) = 6.2
MScS50(mA) = 8.19
MScS95(mA) = 13.67
MScNSteps = 0
MScSteps(%) = 0.0
MScStepMax(%) = 0.0
MScD50 = 75
MScSlope = 3.24
MSFPeakAmp(mV) = 7.79
MSFNUnits = 171
MSFMeanUnitAmp(uV) = 45.6
MSFHuntTime(m) = 4.46
MSFError(%) = 2.07
MSFNLarge = 50.06
MSFMedianAmp(%) = 0.479
MSFMedianAmp(mV) = 0.0373
MSFHalfAmpAmp(%) = 0.629
MSFHalfAmpAmp(mV) = 0.0491
MSFLargestAmp(%) = 2.25
MSFLargestAmp(mV) = 0.175
MSFMeanRS(%) = 2
MSFOpts = 10106121
MScDuration(min) = 8.9
MSFTraces = 844
MSFSizeLimit(uV) = 19.5
MSFLimitType = 1
MSFSmallestAmp(uV) = 19.8

EXTRA WAVEFORMS


!MScan Model
!171
	1	5.15	0.27	2
	2	5.3	0.35	2
	3	5.44	0.47	2
	4	5.58	0.42	2
	5	5.68	0.4	2
	6	5.75	0.34	2
	7	5.8	0.26	2
	8	5.86	0.34	2
	9	5.92	0.35	2
	10	5.98	0.34	2
	11	6.06	0.61	2
	12	6.11	0.39	2
	13	6.14	0.26	2
	14	6.17	0.28	2
	15	6.21	0.43	2
	16	6.23	0.27	2
	17	6.26	0.38	2
	18	6.29	0.42	2
	19	6.32	0.38	2
	20	6.35	0.42	2
	21	6.38	0.38	2
	22	6.4	0.4	2
	23	6.42	0.44	2
	24	6.44	0.29	2
	25	6.46	0.32	2
	26	6.48	0.35	2
	27	6.5	0.39	2
	28	6.52	0.44	2
	29	6.54	0.46	2
	30	6.56	0.48	2
	31	6.57	0.25	2
	32	6.59	0.27	2
	33	6.6	0.28	2
	34	6.61	0.28	2
	35	6.63	0.29	2
	36	6.64	0.29	2
	37	6.65	0.3	2
	38	6.66	0.32	2
	39	6.68	0.33	2
	40	6.69	0.33	2
	41	6.7	0.29	2
	42	6.71	0.3	2
	43	6.72	0.31	2
	44	6.73	0.32	2
	45	6.74	0.33	2
	46	6.76	0.32	2
	47	6.77	0.26	2
	48	6.78	0.27	2
	49	6.79	0.27	2
	50	6.8	0.27	2
	51	6.81	0.27	2
	52	6.82	0.28	2
	53	6.83	0.3	2
	54	6.84	0.32	2
	55	6.85	0.32	2
	56	6.86	0.32	2
	57	6.87	0.33	2
	58	6.89	0.34	2
	59	6.9	0.33	2
	60	6.91	0.32	2
	61	6.92	0.31	2
	62	6.93	0.31	2
	63	6.94	0.31	2
	64	6.95	0.3	2
	65	6.97	0.43	2
	66	6.99	0.52	2
	67	7	0.48	2
	68	7.02	0.45	2
	69	7.03	0.42	2
	70	7.05	0.44	2
	71	7.06	0.78	2
	72	7.07	0.46	2
	73	7.08	0.48	2
	74	7.1	0.5	2
	75	7.11	0.39	2
	76	7.12	0.38	2
	77	7.14	0.4	2
	78	7.15	0.42	2
	79	7.17	0.44	2
	80	7.18	0.44	2
	81	7.2	0.44	2
	82	7.21	0.43	2
	83	7.23	0.41	2
	84	7.25	0.44	2
	85	7.27	0.54	2
	86	7.29	0.51	2
	87	7.31	0.49	2
	88	7.33	0.47	2
	89	7.37	0.65	2
	90	7.4	0.65	2
	91	7.42	0.7	2
	92	7.45	0.64	2
	93	7.49	1.13	2
	94	7.52	0.59	2
	95	7.55	0.57	2
	96	7.57	0.45	2
	97	7.59	0.49	2
	98	7.61	0.52	2
	99	7.63	0.51	2
	100	7.65	0.5	2
	101	7.67	0.51	2
	102	7.69	0.52	2
	103	7.71	0.59	2
	104	7.73	0.61	2
	105	7.75	0.61	2
	106	7.77	0.58	2
	107	7.8	0.53	2
	108	7.82	0.53	2
	109	7.84	0.54	2
	110	7.87	0.74	2
	111	7.9	0.8	2
	112	7.94	0.86	2
	113	8.01	2.09	2
	114	8.17	1.16	2
	115	8.26	1.5	1.6
	116	8.34	1.07	2.2
	117	8.39	0.81	2
	118	8.44	1.09	2
	119	8.49	1.09	2
	120	8.54	1.19	2
	121	8.59	1.08	2
	122	8.63	0.88	2
	123	8.67	1.04	2
	124	8.7	0.74	2
	125	8.74	0.75	2
	126	8.77	0.74	2
	127	8.8	0.54	2
	128	8.82	0.78	2
	129	8.85	0.63	2
	130	8.87	0.57	2
	131	8.9	0.56	2
	132	8.92	0.55	2
	133	8.95	0.68	2
	134	8.98	0.75	2
	135	9.02	0.67	2
	136	9.06	0.85	2
	137	9.1	0.82	2
	138	9.17	1.08	2
	139	9.27	1.32	2
	140	9.52	2.25	2
	141	9.68	1.3	2
	142	9.78	1.05	2
	143	9.83	0.57	2
	144	9.89	0.65	2
	145	9.93	0.53	2
	146	9.98	0.57	2
	147	10.02	0.57	2
	148	10.06	0.57	2
	149	10.1	0.5	2
	150	10.13	0.46	2
	151	10.17	0.49	2
	152	10.23	0.75	2
	153	10.28	0.6	2
	154	10.34	0.75	2
	155	10.42	0.87	2
	156	10.56	1.21	2
	157	10.71	1.2	2
	158	10.81	0.81	2
	159	10.92	0.8	2
	160	11.01	0.55	2
	161	11.12	0.83	2
	162	11.44	1.32	2
	163	11.86	1.43	2
	164	12.14	1.66	2
	165	13.08	1.49	2
	166	14.75	1	2
	167	16.53	0.69	2
	168	17.52	0.77	2
	169	20.13	0.47	2
	170	20.63	0.33	2
	171	21	0.4	2

