File:              	C:\Qtrac\Data\Daniel M Sørensen\MScan multicentre study\Data from centres\Toronto\Processed data\MSCC01117C.QZD
Name:              	CA.TOR.NC.2.2
Protocol:          	MSCAN-R2
Date:              	17/11/20
Start time:        	16:07:38
Age:               	25
Sex:               	F
Temperature:       	29.2
S/R sites:         	TA
NC/disease:        	NC
Operator:          	LP
Comments:          	Stim art MC1
M-SCAN DATA (9.1-2.8m)
Scanpts: 141, 147, 657, 679
Stim. (mA)     	Amp. (mV)
MS.1           	29.5           	3.722
MS.2           	29.5           	3.711
MS.3           	29.5           	3.765
MS.4           	29.5           	3.728
MS.5           	29.5           	3.724
MS.6           	29.5           	3.744
MS.7           	29.5           	3.754
MS.8           	29.5           	3.749
MS.9           	29.5           	3.744
MS.10          	29.5           	3.708
MS.11          	29.5           	3.75
MS.12          	29.5           	3.741
MS.13          	29.5           	3.759
MS.14          	29.5           	3.766
MS.15          	29.5           	3.776
MS.16          	29.5           	3.766
MS.17          	29.5           	3.771
MS.18          	29.5           	3.732
MS.19          	29.5           	3.761
MS.20          	29.5           	3.741
MS.21          	29.5           	3.79
MS.22          	29.5           	3.746
MS.23          	29.5           	3.746
MS.24          	29.382         	3.768
MS.25          	29.323         	3.76
MS.26          	29.265         	3.762
MS.27          	29.207         	3.765
MS.28          	29.147         	3.777
MS.29          	29.09          	3.776
MS.30          	29.032         	3.796
MS.31          	28.972         	3.759
MS.32          	28.915         	3.782
MS.33          	28.858         	3.762
MS.34          	28.8           	3.774
MS.35          	28.743         	3.779
MS.36          	28.685         	3.767
MS.37          	28.627         	3.778
MS.38          	28.57          	3.779
MS.39          	28.512         	3.831
MS.40          	28.457         	3.801
MS.41          	28.4           	3.809
MS.42          	28.342         	3.763
MS.43          	28.287         	3.821
MS.44          	28.23          	3.855
MS.45          	28.172         	3.785
MS.46          	28.118         	3.876
MS.47          	28.06          	3.822
MS.48          	28.005         	3.824
MS.49          	27.95          	3.806
MS.50          	27.892         	3.827
MS.51          	27.837         	3.811
MS.52          	27.782         	3.851
MS.53          	27.727         	3.837
MS.54          	27.67          	3.849
MS.55          	27.615         	3.905
MS.56          	27.56          	3.877
MS.57          	27.505         	3.929
MS.58          	27.45          	3.889
MS.59          	27.395         	3.866
MS.60          	27.34          	3.861
MS.61          	27.287         	3.866
MS.62          	27.233         	3.86
MS.63          	27.177         	3.845
MS.64          	27.122         	3.794
MS.65          	27.07          	3.878
MS.66          	27.015         	3.934
MS.67          	26.96          	3.824
MS.68          	26.907         	3.91
MS.69          	26.852         	3.926
MS.70          	26.8           	3.92
MS.71          	26.745         	3.899
MS.72          	26.692         	3.871
MS.73          	26.64          	3.815
MS.74          	26.585         	3.845
MS.75          	26.532         	3.868
MS.76          	26.48          	3.839
MS.77          	26.427         	3.761
MS.78          	26.375         	3.805
MS.79          	26.323         	3.788
MS.80          	26.27          	3.799
MS.81          	26.217         	3.804
MS.82          	26.165         	3.837
MS.83          	26.112         	3.885
MS.84          	26.06          	3.81
MS.85          	26.007         	3.851
MS.86          	25.955         	3.822
MS.87          	25.903         	3.833
MS.88          	25.852         	3.894
MS.89          	25.8           	3.967
MS.90          	25.75          	3.892
MS.91          	25.698         	3.928
MS.92          	25.645         	3.907
MS.93          	25.595         	3.912
MS.94          	25.542         	3.929
MS.95          	25.493         	3.793
MS.96          	25.442         	3.918
MS.97          	25.39          	3.929
MS.98          	25.34          	3.978
MS.99          	25.29          	3.976
MS.100         	25.24          	3.932
MS.101         	25.188         	3.939
MS.102         	25.137         	3.959
MS.103         	25.087         	3.931
MS.104         	25.038         	4.021
MS.105         	24.987         	3.947
MS.106         	24.938         	3.904
MS.107         	24.887         	3.773
MS.108         	24.837         	3.964
MS.109         	24.788         	3.898
MS.110         	24.74          	3.95
MS.111         	24.69          	3.931
MS.112         	24.64          	3.921
MS.113         	24.59          	3.727
MS.114         	24.542         	3.905
MS.115         	24.493         	3.938
MS.116         	24.445         	3.969
MS.117         	24.395         	3.943
MS.118         	24.347         	3.916
MS.119         	24.297         	3.948
MS.120         	24.25          	3.998
MS.121         	24.2           	3.948
MS.122         	24.153         	3.947
MS.123         	24.105         	3.905
MS.124         	24.055         	3.992
MS.125         	24.007         	3.943
MS.126         	23.96          	3.944
MS.127         	23.913         	3.934
MS.128         	23.865         	3.938
MS.129         	23.817         	3.887
MS.130         	23.77          	3.92
MS.131         	23.722         	3.859
MS.132         	23.675         	3.871
MS.133         	23.627         	3.811
MS.134         	23.58          	3.953
MS.135         	23.532         	3.871
MS.136         	23.485         	3.89
MS.137         	23.438         	3.918
MS.138         	23.392         	3.857
MS.139         	23.345         	3.875
MS.140         	23.297         	3.877
MS.141         	23.252         	3.872
MS.142         	23.205         	3.844
MS.143         	23.16          	3.857
MS.144         	23.112         	3.889
MS.145         	23.067         	3.879
MS.146         	23.02          	3.839
MS.147         	22.975         	3.853
MS.148         	22.927         	3.882
MS.149         	22.882         	3.883
MS.150         	22.837         	3.899
MS.151         	22.792         	3.876
MS.152         	22.745         	3.96
MS.153         	22.7           	3.87
MS.154         	22.655         	3.955
MS.155         	22.61          	3.959
MS.156         	22.565         	3.859
MS.157         	22.52          	4.017
MS.158         	22.475         	3.893
MS.159         	22.43          	3.871
MS.160         	22.385         	3.94
MS.161         	22.34          	3.938
MS.162         	22.295         	3.933
MS.163         	22.25          	3.926
MS.164         	22.207         	3.929
MS.165         	22.163         	3.893
MS.166         	22.118         	3.848
MS.167         	22.073         	3.866
MS.168         	22.03          	3.888
MS.169         	21.985         	3.89
MS.170         	21.942         	3.9
MS.171         	21.897         	3.906
MS.172         	21.855         	3.942
MS.173         	21.81          	3.933
MS.174         	21.767         	3.848
MS.175         	21.722         	3.899
MS.176         	21.68          	3.838
MS.177         	21.637         	3.885
MS.178         	21.592         	3.845
MS.179         	21.55          	3.704
MS.180         	21.507         	3.826
MS.181         	21.465         	3.732
MS.182         	21.422         	3.833
MS.183         	21.377         	3.782
MS.184         	21.335         	3.887
MS.185         	21.292         	3.771
MS.186         	21.25          	3.857
MS.187         	21.208         	3.859
MS.188         	21.165         	3.752
MS.189         	21.122         	3.872
MS.190         	21.083         	3.861
MS.191         	21.04          	3.805
MS.192         	20.997         	3.831
MS.193         	20.955         	3.772
MS.194         	20.913         	3.931
MS.195         	20.872         	3.882
MS.196         	20.83          	3.771
MS.197         	20.788         	3.855
MS.198         	20.747         	3.763
MS.199         	20.705         	3.702
MS.200         	20.665         	3.746
MS.201         	20.622         	3.695
MS.202         	20.583         	3.641
MS.203         	20.54          	3.691
MS.204         	20.5           	3.66
MS.205         	20.458         	3.667
MS.206         	20.417         	3.617
MS.207         	20.377         	3.66
MS.208         	20.335         	3.715
MS.209         	20.295         	3.75
MS.210         	20.255         	3.583
MS.211         	20.215         	3.593
MS.212         	20.175         	3.644
MS.213         	20.132         	3.629
MS.214         	20.092         	3.566
MS.215         	20.052         	3.573
MS.216         	20.012         	3.566
MS.217         	19.972         	3.5
MS.218         	19.932         	3.601
MS.219         	19.892         	3.572
MS.220         	19.852         	3.577
MS.221         	19.815         	3.584
MS.222         	19.775         	3.698
MS.223         	19.735         	3.634
MS.224         	19.695         	3.601
MS.225         	19.655         	3.536
MS.226         	19.618         	3.502
MS.227         	19.577         	3.54
MS.228         	19.538         	3.468
MS.229         	19.5           	3.507
MS.230         	19.46          	3.542
MS.231         	19.422         	3.521
MS.232         	19.382         	3.563
MS.233         	19.345         	3.567
MS.234         	19.305         	3.49
MS.235         	19.267         	3.413
MS.236         	19.227         	3.518
MS.237         	19.19          	3.456
MS.238         	19.153         	3.444
MS.239         	19.112         	3.336
MS.240         	19.075         	3.467
MS.241         	19.038         	3.356
MS.242         	19             	3.495
MS.243         	18.96          	3.47
MS.244         	18.922         	3.271
MS.245         	18.885         	3.323
MS.246         	18.847         	3.251
MS.247         	18.81          	3.308
MS.248         	18.772         	3.236
MS.249         	18.735         	3.26
MS.250         	18.698         	3.195
MS.251         	18.66          	3.14
MS.252         	18.622         	3.213
MS.253         	18.585         	3.137
MS.254         	18.547         	3.097
MS.255         	18.512         	3.011
MS.256         	18.475         	3.069
MS.257         	18.438         	3.062
MS.258         	18.4           	3.008
MS.259         	18.365         	3.018
MS.260         	18.327         	2.991
MS.261         	18.29          	2.998
MS.262         	18.255         	2.894
MS.263         	18.217         	2.86
MS.264         	18.18          	2.906
MS.265         	18.145         	2.922
MS.266         	18.108         	2.802
MS.267         	18.073         	2.799
MS.268         	18.038         	2.787
MS.269         	18             	2.782
MS.270         	17.965         	2.646
MS.271         	17.927         	2.693
MS.272         	17.892         	2.577
MS.273         	17.858         	2.715
MS.274         	17.82          	2.656
MS.275         	17.785         	2.563
MS.276         	17.75          	2.537
MS.277         	17.715         	2.448
MS.278         	17.68          	2.551
MS.279         	17.645         	2.455
MS.280         	17.608         	2.504
MS.281         	17.573         	2.528
MS.282         	17.538         	2.433
MS.283         	17.503         	2.402
MS.284         	17.467         	2.324
MS.285         	17.432         	2.397
MS.286         	17.397         	2.369
MS.287         	17.365         	2.3
MS.288         	17.33          	2.322
MS.289         	17.295         	2.33
MS.290         	17.26          	2.241
MS.291         	17.225         	2.228
MS.292         	17.19          	2.288
MS.293         	17.157         	2.205
MS.294         	17.122         	2.214
MS.295         	17.087         	2.249
MS.296         	17.055         	2.277
MS.297         	17.02          	2.129
MS.298         	16.985         	2.167
MS.299         	16.952         	2.217
MS.300         	16.917         	2.151
MS.301         	16.885         	2.098
MS.302         	16.85          	2.112
MS.303         	16.817         	2.153
MS.304         	16.782         	2.104
MS.305         	16.75          	2.064
MS.306         	16.717         	2.031
MS.307         	16.682         	2.053
MS.308         	16.65          	2.163
MS.309         	16.618         	1.962
MS.310         	16.583         	1.96
MS.311         	16.55          	1.915
MS.312         	16.517         	1.929
MS.313         	16.485         	1.954
MS.314         	16.45          	1.91
MS.315         	16.417         	1.803
MS.316         	16.385         	1.77
MS.317         	16.352         	1.89
MS.318         	16.32          	1.873
MS.319         	16.288         	1.86
MS.320         	16.255         	1.812
MS.321         	16.222         	1.766
MS.322         	16.19          	1.748
MS.323         	16.157         	1.643
MS.324         	16.125         	1.741
MS.325         	16.092         	1.676
MS.326         	16.06          	1.678
MS.327         	16.03          	1.614
MS.328         	15.997         	1.602
MS.329         	15.965         	1.683
MS.330         	15.932         	1.591
MS.331         	15.9           	1.598
MS.332         	15.87          	1.52
MS.333         	15.837         	1.504
MS.334         	15.805         	1.484
MS.335         	15.775         	1.555
MS.336         	15.742         	1.455
MS.337         	15.712         	1.51
MS.338         	15.68          	1.388
MS.339         	15.648         	1.366
MS.340         	15.617         	1.307
MS.341         	15.585         	1.353
MS.342         	15.555         	1.331
MS.343         	15.525         	1.256
MS.344         	15.492         	1.2
MS.345         	15.462         	1.167
MS.346         	15.43          	1.135
MS.347         	15.4           	1.154
MS.348         	15.37          	1.152
MS.349         	15.34          	1.211
MS.350         	15.307         	1.163
MS.351         	15.277         	1.091
MS.352         	15.247         	1.128
MS.353         	15.217         	1.051
MS.354         	15.185         	0.977
MS.355         	15.155         	1.01
MS.356         	15.125         	0.99
MS.357         	15.095         	0.958
MS.358         	15.065         	0.934
MS.359         	15.035         	0.92
MS.360         	15.005         	0.822
MS.361         	14.975         	0.807
MS.362         	14.945         	0.85
MS.363         	14.915         	0.859
MS.364         	14.885         	0.73
MS.365         	14.855         	0.748
MS.366         	14.825         	0.723
MS.367         	14.797         	0.654
MS.368         	14.767         	0.66
MS.369         	14.737         	0.684
MS.370         	14.707         	0.641
MS.371         	14.677         	0.637
MS.372         	14.65          	0.646
MS.373         	14.62          	0.64
MS.374         	14.59          	0.56
MS.375         	14.562         	0.597
MS.376         	14.532         	0.575
MS.377         	14.502         	0.552
MS.378         	14.475         	0.524
MS.379         	14.445         	0.564
MS.380         	14.417         	0.5
MS.381         	14.387         	0.513
MS.382         	14.36          	0.43
MS.383         	14.33          	0.504
MS.384         	14.302         	0.458
MS.385         	14.273         	0.469
MS.386         	14.245         	0.42
MS.387         	14.217         	0.465
MS.388         	14.188         	0.459
MS.389         	14.16          	0.435
MS.390         	14.13          	0.443
MS.391         	14.102         	0.427
MS.392         	14.075         	0.449
MS.393         	14.047         	0.427
MS.394         	14.017         	0.408
MS.395         	13.99          	0.438
MS.396         	13.962         	0.349
MS.397         	13.935         	0.328
MS.398         	13.907         	0.385
MS.399         	13.88          	0.321
MS.400         	13.852         	0.353
MS.401         	13.822         	0.31
MS.402         	13.795         	0.372
MS.403         	13.767         	0.342
MS.404         	13.74          	0.33
MS.405         	13.712         	0.339
MS.406         	13.685         	0.343
MS.407         	13.66          	0.283
MS.408         	13.632         	0.27
MS.409         	13.605         	0.286
MS.410         	13.577         	0.302
MS.411         	13.55          	0.321
MS.412         	13.523         	0.259
MS.413         	13.495         	0.232
MS.414         	13.47          	0.264
MS.415         	13.443         	0.24
MS.416         	13.415         	0.216
MS.417         	13.387         	0.204
MS.418         	13.362         	0.216
MS.419         	13.335         	0.223
MS.420         	13.307         	0.22
MS.421         	13.282         	0.217
MS.422         	13.255         	0.206
MS.423         	13.227         	0.19
MS.424         	13.202         	0.198
MS.425         	13.175         	0.229
MS.426         	13.15          	0.209
MS.427         	13.122         	0.197
MS.428         	13.097         	0.195
MS.429         	13.07          	0.195
MS.430         	13.045         	0.179
MS.431         	13.017         	0.148
MS.432         	12.992         	0.16
MS.433         	12.967         	0.145
MS.434         	12.94          	0.157
MS.435         	12.915         	0.167
MS.436         	12.89          	0.15
MS.437         	12.862         	0.138
MS.438         	12.837         	0.184
MS.439         	12.812         	0.15
MS.440         	12.787         	0.143
MS.441         	12.76          	0.139
MS.442         	12.735         	0.139
MS.443         	12.71          	0.126
MS.444         	12.685         	0.137
MS.445         	12.66          	0.153
MS.446         	12.635         	0.137
MS.447         	12.608         	0.157
MS.448         	12.582         	0.131
MS.449         	12.557         	0.145
MS.450         	12.532         	0.134
MS.451         	12.507         	0.118
MS.452         	12.483         	0.131
MS.453         	12.457         	0.127
MS.454         	12.432         	0.137
MS.455         	12.407         	0.132
MS.456         	12.385         	0.122
MS.457         	12.36          	0.134
MS.458         	12.335         	0.115
MS.459         	12.31          	0.123
MS.460         	12.285         	0.134
MS.461         	12.26          	0.122
MS.462         	12.235         	0.112
MS.463         	12.212         	0.123
MS.464         	12.188         	0.111
MS.465         	12.162         	0.115
MS.466         	12.137         	0.104
MS.467         	12.115         	0.094
MS.468         	12.09          	0.117
MS.469         	12.065         	0.12
MS.470         	12.042         	0.101
MS.471         	12.017         	0.11
MS.472         	11.995         	0.109
MS.473         	11.97          	0.11
MS.474         	11.945         	0.117
MS.475         	11.922         	0.109
MS.476         	11.898         	0.116
MS.477         	11.875         	0.106
MS.478         	11.85          	0.122
MS.479         	11.827         	0.118
MS.480         	11.802         	0.112
MS.481         	11.78          	0.115
MS.482         	11.757         	0.104
MS.483         	11.733         	0.103
MS.484         	11.71          	0.098
MS.485         	11.685         	0.1
MS.486         	11.662         	0.099
MS.487         	11.64          	0.103
MS.488         	11.615         	0.116
MS.489         	11.592         	0.112
MS.490         	11.57          	0.122
MS.491         	11.547         	0.101
MS.492         	11.523         	0.1
MS.493         	11.5           	0.1
MS.494         	11.477         	0.095
MS.495         	11.455         	0.114
MS.496         	11.432         	0.1
MS.497         	11.41          	0.088
MS.498         	11.385         	0.095
MS.499         	11.363         	0.099
MS.500         	11.34          	0.092
MS.501         	11.318         	0.099
MS.502         	11.295         	0.105
MS.503         	11.273         	0.098
MS.504         	11.25          	0.101
MS.505         	11.227         	0.094
MS.506         	11.205         	0.09
MS.507         	11.182         	0.096
MS.508         	11.16          	0.101
MS.509         	11.137         	0.094
MS.510         	11.115         	0.077
MS.511         	11.095         	0.103
MS.512         	11.073         	0.107
MS.513         	11.05          	0.105
MS.514         	11.028         	0.094
MS.515         	11.005         	0.093
MS.516         	10.983         	0.098
MS.517         	10.962         	0.117
MS.518         	10.94          	0.092
MS.519         	10.917         	0.092
MS.520         	10.895         	0.098
MS.521         	10.875         	0.089
MS.522         	10.852         	0.099
MS.523         	10.83          	0.09
MS.524         	10.81          	0.115
MS.525         	10.787         	0.094
MS.526         	10.765         	0.095
MS.527         	10.745         	0.098
MS.528         	10.722         	0.099
MS.529         	10.702         	0.103
MS.530         	10.68          	0.098
MS.531         	10.66          	0.084
MS.532         	10.637         	0.094
MS.533         	10.617         	0.078
MS.534         	10.595         	0.088
MS.535         	10.575         	0.089
MS.536         	10.552         	0.096
MS.537         	10.532         	0.095
MS.538         	10.51          	0.089
MS.539         	10.49          	0.104
MS.540         	10.467         	0.085
MS.541         	10.448         	0.098
MS.542         	10.427         	0.109
MS.543         	10.405         	0.096
MS.544         	10.385         	0.073
MS.545         	10.365         	0.101
MS.546         	10.345         	0.104
MS.547         	10.323         	0.094
MS.548         	10.302         	0.088
MS.549         	10.282         	0.101
MS.550         	10.262         	0.104
MS.551         	10.24          	0.096
MS.552         	10.22          	0.107
MS.553         	10.2           	0.122
MS.554         	10.18          	0.088
MS.555         	10.16          	0.096
MS.556         	10.14          	0.093
MS.557         	10.117         	0.094
MS.558         	10.097         	0.088
MS.559         	10.077         	0.1
MS.560         	10.057         	0.116
MS.561         	10.037         	0.101
MS.562         	10.017         	0.089
MS.563         	9.997          	0.084
MS.564         	9.977          	0.077
MS.565         	9.957          	0.096
MS.566         	9.938          	0.093
MS.567         	9.917          	0.093
MS.568         	9.898          	0.095
MS.569         	9.88           	0.09
MS.570         	9.86           	0.088
MS.571         	9.84           	0.088
MS.572         	9.82           	0.103
MS.573         	9.8            	0.096
MS.574         	9.78           	0.076
MS.575         	9.76           	0.076
MS.576         	9.742          	0.106
MS.577         	9.722          	0.095
MS.578         	9.702          	0.089
MS.579         	9.682          	0.107
MS.580         	9.665          	0.096
MS.581         	9.645          	0.09
MS.582         	9.625          	0.071
MS.583         	9.605          	0.085
MS.584         	9.587          	0.082
MS.585         	9.568          	0.085
MS.586         	9.547          	0.099
MS.587         	9.53           	0.098
MS.588         	9.51           	0.107
MS.589         	9.492          	0.09
MS.590         	9.472          	0.096
MS.591         	9.452          	0.082
MS.592         	9.435          	0.093
MS.593         	9.415          	0.094
MS.594         	9.398          	0.082
MS.595         	9.377          	0.088
MS.596         	9.36           	0.084
MS.597         	9.34           	0.1
MS.598         	9.323          	0.083
MS.599         	9.302          	0.105
MS.600         	9.285          	0.087
MS.601         	9.267          	0.089
MS.602         	9.247          	0.089
MS.603         	9.23           	0.092
MS.604         	9.21           	0.09
MS.605         	9.193          	0.098
MS.606         	9.175          	0.088
MS.607         	9.155          	0.089
MS.608         	9.137          	0.088
MS.609         	9.12           	0.072
MS.610         	9.1            	0.089
MS.611         	9.082          	0.085
MS.612         	9.065          	0.089
MS.613         	9.047          	0.081
MS.614         	9.028          	0.112
MS.615         	9.01           	0.098
MS.616         	8.992          	0.079
MS.617         	8.975          	0.103
MS.618         	8.957          	0.089
MS.619         	8.938          	0.089
MS.620         	8.92           	0.088
MS.621         	8.903          	0.081
MS.622         	8.885          	0.089
MS.623         	8.867          	0.094
MS.624         	8.85           	0.089
MS.625         	8.832          	0.093
MS.626         	8.815          	0.089
MS.627         	8.797          	0.087
MS.628         	8.78           	0.085
MS.629         	8.762          	0.088
MS.630         	8.745          	0.098
MS.631         	8.727          	0.087
MS.632         	8.71           	0.085
MS.633         	8.693          	0.083
MS.634         	8.675          	0.082
MS.635         	8.658          	0.084
MS.636         	8.64           	0.087
MS.637         	8.622          	0.077
MS.638         	8.605          	0.085
MS.639         	8.587          	0.098
MS.640         	8.57           	0.095
MS.641         	8.555          	0.085
MS.642         	8.537          	0.083
MS.643         	8.52           	0.087
MS.644         	8.502          	0.089
MS.645         	8.485          	0.085
MS.646         	8.47           	0.084
MS.647         	8.452          	0.084
MS.648         	8.435          	0.084
MS.649         	8.417          	0.084
MS.650         	8.403          	0.087
MS.651         	8.385          	0.09
MS.652         	8.367          	0.085
MS.653         	8.35           	0.082
MS.654         	8.335          	0.081
MS.655         	8.318          	0.085
MS.656         	8.3            	0.089
MS.657         	8.285          	0.093
MS.658         	8.267          	0.09
MS.659         	8.252          	0.083
MS.660         	8.235          	0.081
MS.661         	8.217          	0.09
MS.662         	8.202          	0.077
MS.663         	8.185          	0.081
MS.664         	8.17           	0.085
MS.665         	8.153          	0.066
MS.666         	8.137          	0.092
MS.667         	8.12           	0.081
MS.668         	8.105          	0.09
MS.669         	8.087          	0.083
MS.670         	8.073          	0.084
MS.671         	8.055          	0.078
MS.672         	8.04           	0.084
MS.673         	8.023          	0.082
MS.674         	8.007          	0.085
MS.675         	7.992          	0.083
MS.676         	7.975          	0.079
MS.677         	7.96           	0.083
MS.678         	7.945          	0.084
MS.679         	7.927          	0.081
DERIVED EXCITABILITY VARIABLES
Program = QTracP 3/4/2020
Threshold method = 6 (optimised for CAP, using data for present condition only)
SR method = 1 (using actual data values)
6.                 	0.000               	Peak response\(mV)
9.                 	29.2                	Temperature ( C)
17.                	25                  	Age (years)
18.                	2                   	Sex (M=1, F=2)

EXTRA VARIABLES

MScPeak(mV) = 3.66
MScS5(mA) = 12.91
MScS50(mA) = 16.35
MScS95(mA) = 19.26
MScNSteps = 0
MScSteps(%) = 0.0
MScStepMax(%) = 0.0
MScD50 = 49
MScSlope = 5.53
MSFPeakAmp(mV) = 3.78
MSFNUnits = 185
MSFMeanUnitAmp(uV) = 20.4
MSFHuntTime(m) = 3.14
MSFError(%) = 2.78
MSFNLarge = 60.68
MSFMedianAmp(%) = 0.458
MSFMedianAmp(mV) = 0.0173
MSFHalfAmpAmp(%) = 0.535
MSFHalfAmpAmp(mV) = 0.0202
MSFLargestAmp(%) = 2.36
MSFLargestAmp(mV) = 0.0893
MSFMeanRS(%) = 2.02
MSFOpts = 10106121
MScDuration(min) = 6.3
MSFTraces = 539
MSFSizeLimit(uV) = 9.4
MSFLimitType = 1
MSFSmallestAmp(uV) = 10.1

EXTRA WAVEFORMS


!MScan Model
!185
	1	10	0.46	2
	2	11.97	0.4	2
	3	12.42	0.38	2
	4	12.79	0.59	2
	5	12.95	0.45	2
	6	13.04	0.27	2
	7	13.14	0.31	2
	8	13.23	0.35	2
	9	13.31	0.58	2
	10	13.4	0.36	2
	11	13.45	0.31	2
	12	13.5	0.31	2
	13	13.55	0.33	2
	14	13.62	0.59	2
	15	13.72	0.55	2
	16	13.8	0.7	2
	17	13.87	0.54	2
	18	13.95	0.55	2
	19	14.04	0.62	2
	20	14.14	0.6	2
	21	14.22	0.91	2
	22	14.29	0.51	2
	23	14.35	0.47	2
	24	14.38	0.31	2
	25	14.41	0.31	2
	26	14.44	0.33	2
	27	14.5	0.52	2
	28	14.53	0.35	2
	29	14.55	0.29	2
	30	14.57	0.27	2
	31	14.59	0.28	2
	32	14.62	0.34	2
	33	14.64	0.4	2
	34	14.66	0.37	2
	35	14.68	0.32	2
	36	14.7	0.33	2
	37	14.73	0.38	2
	38	14.76	0.55	2
	39	14.79	0.58	2
	40	14.81	0.28	2
	41	14.82	0.27	2
	42	14.85	0.47	2
	43	14.87	0.48	2
	44	14.9	0.43	2
	45	14.92	0.38	2
	46	14.94	0.46	2
	47	14.96	0.27	2
	48	14.97	0.28	2
	49	14.98	0.28	2
	50	14.99	0.27	2
	51	15	0.27	2
	52	15.02	0.39	2
	53	15.04	0.4	2
	54	15.06	0.39	2
	55	15.07	0.38	2
	56	15.09	0.36	2
	57	15.11	0.38	2
	58	15.13	0.38	2
	59	15.15	0.43	2
	60	15.17	0.43	2
	61	15.19	0.43	2
	62	15.21	0.42	2
	63	15.23	0.4	2
	64	15.25	0.38	2
	65	15.27	0.41	2
	66	15.29	0.4	2
	67	15.31	0.4	2
	68	15.33	0.45	2
	69	15.35	0.48	2
	70	15.38	0.51	2
	71	15.4	0.52	2
	72	15.42	0.46	2
	73	15.44	0.45	2
	74	15.47	0.45	2
	75	15.49	0.46	2
	76	15.51	0.44	2
	77	15.53	0.45	2
	78	15.55	0.46	2
	79	15.58	0.47	2
	80	15.6	0.47	2
	81	15.62	0.47	2
	82	15.64	0.42	2
	83	15.66	0.38	2
	84	15.68	0.34	2
	85	15.7	0.34	2
	86	15.72	0.35	2
	87	15.73	0.42	2
	88	15.76	0.53	2
	89	15.79	0.59	2
	90	15.82	0.59	2
	91	15.84	0.57	2
	92	15.87	0.46	2
	93	15.9	0.5	2
	94	15.93	0.49	2
	95	15.96	0.61	2
	96	16	0.82	2
	97	16.04	0.73	2
	98	16.08	0.65	2
	99	16.12	0.71	2
	100	16.17	0.67	2
	101	16.21	0.65	2
	102	16.26	0.67	2
	103	16.31	0.78	2
	104	16.36	0.9	2
	105	16.41	0.85	2
	106	16.47	0.94	2
	107	16.52	0.93	2
	108	16.58	0.84	2
	109	16.63	0.72	2
	110	16.68	0.61	2
	111	16.74	0.87	2
	112	16.82	1.3	2
	113	16.91	0.97	2
	114	16.97	0.63	2
	115	17.02	0.63	2
	116	17.07	0.54	2
	117	17.12	0.5	2
	118	17.17	0.66	2
	119	17.22	0.63	2
	120	17.27	0.57	2
	121	17.31	0.46	2
	122	17.35	0.4	2
	123	17.39	0.5	2
	124	17.42	0.5	2
	125	17.46	0.46	2
	126	17.49	0.53	2
	127	17.53	0.6	2
	128	17.56	0.58	2
	129	17.6	0.56	2
	130	17.63	0.42	2
	131	17.66	0.6	2
	132	17.69	0.51	2
	133	17.72	0.55	2
	134	17.75	0.53	2
	135	17.77	0.43	2
	136	17.8	0.43	2
	137	17.82	0.43	2
	138	17.85	0.41	2
	139	17.87	0.44	2
	140	17.89	0.47	2
	141	17.92	0.48	2
	142	17.94	0.48	2
	143	17.97	0.48	2
	144	17.99	0.39	2
	145	18.01	0.39	2
	146	18.02	0.39	2
	147	18.04	0.39	2
	148	18.06	0.37	2
	149	18.08	0.37	2
	150	18.1	0.37	2
	151	18.12	0.39	2
	152	18.14	0.39	2
	153	18.16	0.39	2
	154	18.18	0.39	2
	155	18.2	0.35	2
	156	18.22	0.34	2
	157	18.24	0.31	2
	158	18.26	0.33	2
	159	18.28	0.37	2
	160	18.3	0.36	2
	161	18.32	0.35	2
	162	18.35	0.37	2
	163	18.37	0.38	2
	164	18.39	0.47	2
	165	18.41	0.44	2
	166	18.43	0.42	2
	167	18.46	0.35	2
	168	18.48	0.37	2
	169	18.51	0.53	2
	170	18.55	0.53	2
	171	18.58	0.56	2
	172	18.61	0.6	2
	173	18.65	0.58	2
	174	18.68	0.57	2
	175	18.72	0.72	2
	176	18.77	0.67	2
	177	18.8	1.97	2.4
	178	18.82	0.58	2
	179	18.88	1.05	2
	180	18.97	1.29	2
	181	19.22	2.05	2.4
	182	20.26	2.36	2
	183	20.46	1.42	2
	184	20.68	2.25	2
	185	20.73	2.09	2

