File:              	C:\Qtrac\Data\Daniel M Sørensen\MScan multicentre study\Data from centres\Odense\Processed data\PHC00909B.QZD
Name:              	DK.ODE.NC.4.1
Protocol:          	MSCAN-R2
Date:              	9/9/20
Start time:        	10:37:59
Age:               	51
Sex:               	F
Temperature:       	31.8
S/R sites:         	TA
NC/disease:        	NC
Operator:          	TK
Comments:
M-SCAN DATA (6.9-1.5m)
Scanpts: 39, 46, 494, 507
Stim. (mA)     	Amp. (mV)
MS.1           	12             	6.651
MS.2           	12             	6.629
MS.3           	12             	6.627
MS.4           	12             	6.633
MS.5           	12             	6.627
MS.6           	12             	6.621
MS.7           	12             	6.631
MS.8           	12             	6.621
MS.9           	12             	6.649
MS.10          	12             	6.647
MS.11          	12             	6.669
MS.12          	12             	6.631
MS.13          	12             	6.608
MS.14          	12             	6.598
MS.15          	12             	6.683
MS.16          	12             	6.629
MS.17          	12             	6.637
MS.18          	12             	6.661
MS.19          	12             	6.602
MS.20          	12             	6.651
MS.21          	12             	6.647
MS.22          	12             	6.641
MS.23          	12             	6.631
MS.24          	11.952         	6.588
MS.25          	11.927         	6.651
MS.26          	11.905         	6.604
MS.27          	11.88          	6.629
MS.28          	11.858         	6.651
MS.29          	11.832         	6.617
MS.30          	11.81          	6.667
MS.31          	11.785         	6.641
MS.32          	11.762         	6.681
MS.33          	11.74          	6.665
MS.34          	11.715         	6.637
MS.35          	11.693         	6.649
MS.36          	11.667         	6.699
MS.37          	11.645         	6.657
MS.38          	11.622         	6.705
MS.39          	11.6           	6.677
MS.40          	11.575         	6.659
MS.41          	11.552         	6.657
MS.42          	11.53          	6.657
MS.43          	11.507         	6.699
MS.44          	11.483         	6.699
MS.45          	11.46          	6.673
MS.46          	11.438         	6.645
MS.47          	11.415         	6.657
MS.48          	11.392         	6.685
MS.49          	11.37          	6.641
MS.50          	11.347         	6.677
MS.51          	11.325         	6.641
MS.52          	11.3           	6.641
MS.53          	11.278         	6.705
MS.54          	11.255         	6.667
MS.55          	11.233         	6.655
MS.56          	11.21          	6.681
MS.57          	11.188         	6.617
MS.58          	11.167         	6.594
MS.59          	11.145         	6.655
MS.60          	11.122         	6.588
MS.61          	11.1           	6.711
MS.62          	11.077         	6.701
MS.63          	11.055         	6.673
MS.64          	11.032         	6.687
MS.65          	11.01          	6.683
MS.66          	10.99          	6.637
MS.67          	10.967         	6.659
MS.68          	10.945         	6.677
MS.69          	10.922         	6.677
MS.70          	10.903         	6.659
MS.71          	10.88          	6.643
MS.72          	10.858         	6.639
MS.73          	10.837         	6.635
MS.74          	10.815         	6.631
MS.75          	10.792         	6.633
MS.76          	10.773         	6.623
MS.77          	10.75          	6.631
MS.78          	10.727         	6.608
MS.79          	10.707         	6.621
MS.80          	10.685         	6.615
MS.81          	10.665         	6.629
MS.82          	10.642         	6.6
MS.83          	10.622         	6.635
MS.84          	10.6           	6.637
MS.85          	10.58          	6.615
MS.86          	10.557         	6.582
MS.87          	10.537         	6.53
MS.88          	10.515         	6.586
MS.89          	10.495         	6.61
MS.90          	10.475         	6.588
MS.91          	10.452         	6.645
MS.92          	10.432         	6.58
MS.93          	10.412         	6.629
MS.94          	10.39          	6.576
MS.95          	10.37          	6.568
MS.96          	10.35          	6.526
MS.97          	10.327         	6.661
MS.98          	10.307         	6.598
MS.99          	10.287         	6.647
MS.100         	10.267         	6.649
MS.101         	10.245         	6.516
MS.102         	10.225         	6.576
MS.103         	10.205         	6.534
MS.104         	10.185         	6.574
MS.105         	10.165         	6.58
MS.106         	10.145         	6.474
MS.107         	10.125         	6.518
MS.108         	10.102         	6.586
MS.109         	10.082         	6.584
MS.110         	10.062         	6.564
MS.111         	10.042         	6.516
MS.112         	10.023         	6.592
MS.113         	10.002         	6.522
MS.114         	9.983          	6.457
MS.115         	9.962          	6.528
MS.116         	9.943          	6.528
MS.117         	9.922          	6.504
MS.118         	9.903          	6.556
MS.119         	9.885          	6.419
MS.120         	9.865          	6.48
MS.121         	9.845          	6.5
MS.122         	9.825          	6.484
MS.123         	9.805          	6.449
MS.124         	9.785          	6.48
MS.125         	9.765          	6.449
MS.126         	9.747          	6.441
MS.127         	9.727          	6.431
MS.128         	9.707          	6.433
MS.129         	9.688          	6.421
MS.130         	9.67           	6.421
MS.131         	9.65           	6.457
MS.132         	9.63           	6.459
MS.133         	9.61           	6.375
MS.134         	9.592          	6.494
MS.135         	9.573          	6.471
MS.136         	9.552          	6.439
MS.137         	9.535          	6.429
MS.138         	9.515          	6.373
MS.139         	9.497          	6.413
MS.140         	9.477          	6.369
MS.141         	9.457          	6.345
MS.142         	9.44           	6.28
MS.143         	9.42           	6.357
MS.144         	9.403          	6.353
MS.145         	9.382          	6.345
MS.146         	9.365          	6.26
MS.147         	9.345          	6.324
MS.148         	9.327          	6.27
MS.149         	9.307          	6.262
MS.150         	9.29           	6.218
MS.151         	9.27           	6.266
MS.152         	9.252          	6.252
MS.153         	9.235          	6.232
MS.154         	9.215          	6.21
MS.155         	9.198          	6.224
MS.156         	9.18           	6.216
MS.157         	9.16           	6.242
MS.158         	9.142          	6.103
MS.159         	9.125          	6.179
MS.160         	9.105          	6.242
MS.161         	9.087          	6.19
MS.162         	9.07           	6.21
MS.163         	9.052          	6.274
MS.164         	9.033          	6.27
MS.165         	9.015          	6.244
MS.166         	8.997          	6.185
MS.167         	8.98           	6.143
MS.168         	8.96           	6.185
MS.169         	8.943          	6.155
MS.170         	8.925          	6.131
MS.171         	8.908          	6.206
MS.172         	8.89           	6.117
MS.173         	8.872          	6.171
MS.174         	8.855          	6.083
MS.175         	8.837          	6.071
MS.176         	8.82           	6.093
MS.177         	8.802          	6.147
MS.178         	8.783          	6.059
MS.179         	8.765          	6.097
MS.180         	8.747          	5.986
MS.181         	8.73           	5.956
MS.182         	8.715          	5.922
MS.183         	8.698          	6.093
MS.184         	8.68           	5.97
MS.185         	8.662          	5.968
MS.186         	8.645          	6.095
MS.187         	8.627          	5.952
MS.188         	8.61           	5.885
MS.189         	8.592          	5.839
MS.190         	8.575          	5.76
MS.191         	8.557          	5.819
MS.192         	8.54           	5.708
MS.193         	8.525          	5.718
MS.194         	8.507          	5.748
MS.195         	8.49           	5.767
MS.196         	8.472          	5.626
MS.197         	8.455          	5.652
MS.198         	8.44           	5.636
MS.199         	8.422          	5.74
MS.200         	8.405          	5.652
MS.201         	8.39           	5.547
MS.202         	8.372          	5.609
MS.203         	8.355          	5.537
MS.204         	8.337          	5.551
MS.205         	8.323          	5.495
MS.206         	8.305          	5.531
MS.207         	8.29           	5.402
MS.208         	8.273          	5.37
MS.209         	8.255          	5.402
MS.210         	8.24           	5.434
MS.211         	8.222          	5.36
MS.212         	8.207          	5.428
MS.213         	8.19           	5.446
MS.214         	8.172          	5.356
MS.215         	8.158          	5.285
MS.216         	8.14           	5.329
MS.217         	8.125          	5.315
MS.218         	8.108          	5.261
MS.219         	8.092          	5.12
MS.220         	8.075          	5.195
MS.221         	8.06           	5.148
MS.222         	8.045          	5.201
MS.223         	8.028          	5.231
MS.224         	8.012          	5.112
MS.225         	7.995          	5.217
MS.226         	7.98           	4.939
MS.227         	7.965          	4.977
MS.228         	7.947          	4.955
MS.229         	7.932          	4.983
MS.230         	7.915          	5.102
MS.231         	7.9            	4.949
MS.232         	7.885          	5.088
MS.233         	7.87           	4.963
MS.234         	7.852          	4.812
MS.235         	7.837          	4.862
MS.236         	7.822          	4.9
MS.237         	7.805          	4.848
MS.238         	7.79           	4.725
MS.239         	7.775          	4.828
MS.240         	7.76           	4.77
MS.241         	7.745          	4.741
MS.242         	7.727          	4.661
MS.243         	7.712          	4.683
MS.244         	7.697          	4.687
MS.245         	7.682          	4.578
MS.246         	7.668          	4.548
MS.247         	7.652          	4.663
MS.248         	7.635          	4.635
MS.249         	7.62           	4.435
MS.250         	7.605          	4.508
MS.251         	7.59           	4.55
MS.252         	7.575          	4.504
MS.253         	7.56           	4.371
MS.254         	7.545          	4.395
MS.255         	7.53           	4.427
MS.256         	7.515          	4.332
MS.257         	7.5            	4.369
MS.258         	7.485          	4.25
MS.259         	7.47           	4.294
MS.260         	7.455          	4.31
MS.261         	7.44           	4.212
MS.262         	7.425          	4.133
MS.263         	7.41           	4.083
MS.264         	7.395          	4.087
MS.265         	7.38           	4.119
MS.266         	7.365          	3.972
MS.267         	7.352          	4.063
MS.268         	7.337          	4.004
MS.269         	7.322          	4.004
MS.270         	7.307          	3.861
MS.271         	7.293          	3.879
MS.272         	7.277          	3.827
MS.273         	7.265          	3.724
MS.274         	7.25           	3.783
MS.275         	7.235          	3.899
MS.276         	7.22           	3.7
MS.277         	7.205          	3.853
MS.278         	7.192          	3.771
MS.279         	7.177          	3.619
MS.280         	7.162          	3.617
MS.281         	7.148          	3.416
MS.282         	7.135          	3.517
MS.283         	7.12           	3.456
MS.284         	7.105          	3.41
MS.285         	7.092          	3.424
MS.286         	7.077          	3.519
MS.287         	7.062          	3.523
MS.288         	7.05           	3.382
MS.289         	7.035          	3.227
MS.290         	7.02           	3.41
MS.291         	7.007          	3.289
MS.292         	6.992          	3.309
MS.293         	6.98           	3.285
MS.294         	6.965          	3.172
MS.295         	6.95           	3.247
MS.296         	6.938          	3.239
MS.297         	6.922          	3.088
MS.298         	6.91           	3.303
MS.299         	6.895          	3.16
MS.300         	6.882          	2.959
MS.301         	6.867          	3.003
MS.302         	6.855          	3.098
MS.303         	6.84           	3.076
MS.304         	6.827          	2.906
MS.305         	6.812          	2.951
MS.306         	6.8            	2.941
MS.307         	6.787          	2.882
MS.308         	6.773          	2.814
MS.309         	6.76           	2.866
MS.310         	6.745          	2.767
MS.311         	6.733          	2.78
MS.312         	6.72           	2.844
MS.313         	6.705          	2.528
MS.314         	6.692          	2.727
MS.315         	6.677          	2.83
MS.316         	6.665          	2.723
MS.317         	6.652          	2.761
MS.318         	6.637          	2.622
MS.319         	6.625          	2.526
MS.320         	6.612          	2.647
MS.321         	6.6            	2.536
MS.322         	6.585          	2.637
MS.323         	6.572          	2.437
MS.324         	6.56           	2.504
MS.325         	6.547          	2.514
MS.326         	6.532          	2.346
MS.327         	6.52           	2.34
MS.328         	6.507          	2.365
MS.329         	6.495          	2.425
MS.330         	6.48           	2.139
MS.331         	6.467          	2.085
MS.332         	6.455          	2.185
MS.333         	6.442          	2.137
MS.334         	6.43           	2.048
MS.335         	6.418          	2.177
MS.336         	6.405          	2.081
MS.337         	6.39           	2.048
MS.338         	6.378          	1.99
MS.339         	6.365          	2.095
MS.340         	6.352          	1.924
MS.341         	6.34           	1.823
MS.342         	6.327          	1.887
MS.343         	6.315          	1.911
MS.344         	6.302          	1.926
MS.345         	6.29           	1.714
MS.346         	6.277          	1.742
MS.347         	6.265          	1.754
MS.348         	6.253          	1.587
MS.349         	6.24           	1.577
MS.350         	6.227          	1.615
MS.351         	6.215          	1.529
MS.352         	6.202          	1.589
MS.353         	6.19           	1.474
MS.354         	6.177          	1.497
MS.355         	6.165          	1.339
MS.356         	6.152          	1.164
MS.357         	6.14           	1.289
MS.358         	6.128          	1.211
MS.359         	6.115          	1.329
MS.360         	6.102          	1.333
MS.361         	6.092          	1.206
MS.362         	6.08           	1.259
MS.363         	6.067          	0.941
MS.364         	6.055          	1.023
MS.365         	6.043          	1.124
MS.366         	6.03           	1.158
MS.367         	6.02           	1.041
MS.368         	6.007          	1.015
MS.369         	5.995          	1.122
MS.370         	5.983          	1.078
MS.371         	5.97           	1.059
MS.372         	5.96           	0.961
MS.373         	5.947          	0.985
MS.374         	5.935          	0.88
MS.375         	5.922          	0.844
MS.376         	5.912          	0.818
MS.377         	5.9            	0.882
MS.378         	5.887          	0.87
MS.379         	5.875          	0.904
MS.380         	5.865          	0.759
MS.381         	5.852          	0.695
MS.382         	5.84           	0.59
MS.383         	5.83           	0.514
MS.384         	5.817          	0.657
MS.385         	5.805          	0.665
MS.386         	5.795          	0.564
MS.387         	5.782          	0.471
MS.388         	5.773          	0.647
MS.389         	5.76           	0.431
MS.390         	5.747          	0.481
MS.391         	5.737          	0.518
MS.392         	5.725          	0.471
MS.393         	5.715          	0.363
MS.394         	5.702          	0.397
MS.395         	5.69           	0.437
MS.396         	5.68           	0.342
MS.397         	5.668          	0.463
MS.398         	5.657          	0.354
MS.399         	5.645          	0.447
MS.400         	5.635          	0.411
MS.401         	5.622          	0.365
MS.402         	5.612          	0.304
MS.403         	5.6            	0.421
MS.404         	5.59           	0.3
MS.405         	5.577          	0.346
MS.406         	5.567          	0.336
MS.407         	5.555          	0.286
MS.408         	5.545          	0.361
MS.409         	5.535          	0.312
MS.410         	5.523          	0.292
MS.411         	5.512          	0.348
MS.412         	5.5            	0.262
MS.413         	5.49           	0.226
MS.414         	5.48           	0.232
MS.415         	5.467          	0.312
MS.416         	5.457          	0.256
MS.417         	5.445          	0.167
MS.418         	5.435          	0.26
MS.419         	5.425          	0.127
MS.420         	5.412          	0.153
MS.421         	5.402          	0.201
MS.422         	5.392          	0.157
MS.423         	5.38           	0.083
MS.424         	5.37           	0.105
MS.425         	5.36           	0.058
MS.426         	5.35           	0.151
MS.427         	5.338          	0.089
MS.428         	5.327          	0.081
MS.429         	5.318          	-0.01
MS.430         	5.307          	0.123
MS.431         	5.295          	0.022
MS.432         	5.285          	0.095
MS.433         	5.275          	0.032
MS.434         	5.265          	0.066
MS.435         	5.253          	-0.004
MS.436         	5.242          	0.054
MS.437         	5.233          	-0.006
MS.438         	5.222          	0.054
MS.439         	5.213          	0.02
MS.440         	5.202          	-0.016
MS.441         	5.19           	0.066
MS.442         	5.18           	-0.006
MS.443         	5.17           	-0.034
MS.444         	5.16           	0.006
MS.445         	5.15           	0.05
MS.446         	5.14           	-0.03
MS.447         	5.13           	0.073
MS.448         	5.117          	0.046
MS.449         	5.108          	0.044
MS.450         	5.097          	0.004
MS.451         	5.088          	-0.012
MS.452         	5.077          	0.036
MS.453         	5.068          	-0.044
MS.454         	5.057          	0.03
MS.455         	5.047          	0.01
MS.456         	5.037          	0.161
MS.457         	5.027          	-0.042
MS.458         	5.017          	-0.006
MS.459         	5.007          	-0.046
MS.460         	4.997          	-0.02
MS.461         	4.987          	-0.032
MS.462         	4.977          	-0.038
MS.463         	4.967          	-0.008
MS.464         	4.957          	-0.034
MS.465         	4.947          	-0.028
MS.466         	4.938          	-0.044
MS.467         	4.927          	-0.002
MS.468         	4.918          	-0.032
MS.469         	4.907          	-0.022
MS.470         	4.898          	-0.034
MS.471         	4.887          	-0.036
MS.472         	4.88           	0.01
MS.473         	4.87           	-0.048
MS.474         	4.86           	-0.022
MS.475         	4.85           	-0.052
MS.476         	4.84           	-0.026
MS.477         	4.83           	-0.028
MS.478         	4.82           	-0.03
MS.479         	4.81           	-0.022
MS.480         	4.802          	-0.002
MS.481         	4.793          	-0.038
MS.482         	4.782          	-0.038
MS.483         	4.773          	-0.046
MS.484         	4.762          	-0.038
MS.485         	4.753          	-0.006
MS.486         	4.745          	-0.052
MS.487         	4.735          	-0.028
MS.488         	4.725          	-0.046
MS.489         	4.715          	-0.028
MS.490         	4.707          	-0.068
MS.491         	4.697          	-0.028
MS.492         	4.688          	-0.028
MS.493         	4.677          	-0.032
MS.494         	4.67           	-0.028
MS.495         	4.66           	-0.024
MS.496         	4.65           	-0.042
MS.497         	4.64           	-0.026
MS.498         	4.632          	-0.044
MS.499         	4.622          	-0.036
MS.500         	4.612          	-0.006
MS.501         	4.605          	-0.04
MS.502         	4.595          	-0.038
MS.503         	4.585          	-0.026
MS.504         	4.577          	-0.032
MS.505         	4.568          	-0.04
MS.506         	4.557          	-0.052
MS.507         	4.55           	-0.054
MS.508         	4.54           	-0.046
MS.509         	4.53           	-0.016
MS.510         	4.523          	-0.034
MS.511         	4.512          	-0.06
MS.512         	4.503          	-0.05
MS.513         	4.495          	-0.02
MS.514         	4.485          	-0.048
MS.515         	4.477          	-0.034
MS.516         	4.467          	-0.026
MS.517         	4.46           	-0.06
MS.518         	4.45           	-0.054
MS.519         	4.44           	-0.024
MS.520         	4.432          	-0.048
MS.521         	4.423          	-0.054
MS.522         	4.415          	-0.073
MS.523         	4.405          	-0.066
MS.524         	4.398          	-0.018
MS.525         	4.387          	-0.024
MS.526         	4.38           	-0.036
MS.527         	4.37           	-0.044
MS.528         	4.362          	-0.03
MS.529         	4.352          	-0.016
MS.530         	4.345          	-0.077
MS.531         	4.335          	-0.016
MS.532         	4.327          	-0.034
MS.533         	4.318          	-0.056
MS.534         	4.31           	-0.042
MS.535         	4.3            	-0.012
MS.536         	4.293          	-0.04
MS.537         	4.285          	-0.062
MS.538         	4.275          	-0.006
MS.539         	4.267          	-0.028
MS.540         	4.257          	-0.032
MS.541         	4.25           	-0.052
MS.542         	4.242          	-0.032
MS.543         	4.233          	0.018
MS.544         	4.225          	-0.05
MS.545         	4.215          	-0.042
MS.546         	4.207          	-0.042
MS.547         	4.2            	-0.016
MS.548         	4.19           	0.01
MS.549         	4.182          	-0.058
MS.550         	4.175          	-0.03
MS.551         	4.165          	-0.036
MS.552         	4.157          	-0.044
MS.553         	4.15           	-0.014
MS.554         	4.14           	-0.04
MS.555         	4.132          	-0.052
MS.556         	4.125          	-0.018
MS.557         	4.115          	-0.04
MS.558         	4.108          	-0.038
MS.559         	4.1            	-0.044
MS.560         	4.092          	-0.054
MS.561         	4.082          	-0.06
MS.562         	4.075          	-0.054
MS.563         	4.068          	-0.022
MS.564         	4.06           	-0.036
MS.565         	4.05           	-0.058
MS.566         	4.043          	-0.058
MS.567         	4.035          	-0.04
MS.568         	4.027          	-0.046
MS.569         	4.017          	-0.04
MS.570         	4.01           	-0.022
MS.571         	4.003          	0.01
MS.572         	3.995          	-0.042
MS.573         	3.987          	-0.018
MS.574         	3.977          	-0.02
MS.575         	3.97           	-0.04
MS.576         	3.962          	-0.022
DERIVED EXCITABILITY VARIABLES
Program = QTracP 9/10/2021
Threshold method = 6 (optimised for CAP, using data for present condition only)
SR method = 1 (using actual data values)
6.                 	0.000               	Peak response\(mV)
9.                 	31.8                	Temperature ( C)
17.                	51                  	Age (years)
18.                	2                   	Sex (M=1, F=2)

EXTRA VARIABLES

MScPeak(mV) = 6.67
MScS5(mA) = 5.56
MScS50(mA) = 7.03
MScS95(mA) = 9.42
MScNSteps = 2
MScSteps(%) = 4.3
MScStepMax(%) = 2.3
MScD50 = 58
MScSlope = 4.24
MScDuration(min) = 5.4
MSFTraces = 469
MSFPeakAmp(mV) = 6.71
MSFNUnits = 185
MSFMeanUnitAmp(uV) = 36.2
MSFHuntTime(m) = 3.4
MSFError(%) = 1.77
MSFNLarge = 66.34
MSFMedianAmp(%) = 0.489
MSFMedianAmp(mV) = 0.0328
MSFHalfAmpAmp(%) = 0.536
MSFHalfAmpAmp(mV) = 0.0359
MSFLargestAmp(%) = 1.46
MSFLargestAmp(mV) = 0.0978
MSFMeanRS(%) = 2
MSFSizeLimit(uV) = 16.8
MSFLimitType = 1
MSFSmallestAmp(uV) = 17.5
MSFOpts = 10106121

EXTRA WAVEFORMS


!MScan Model
!185
	1	5.09	0.86	2
	2	5.3	0.65	2
	3	5.35	0.46	2
	4	5.38	0.56	2
	5	5.4	0.36	2
	6	5.42	0.3	2
	7	5.44	0.41	2
	8	5.47	0.54	2
	9	5.51	0.48	2
	10	5.54	0.52	2
	11	5.62	0.93	2
	12	5.68	0.55	2
	13	5.71	0.69	2
	14	5.74	0.54	2
	15	5.76	0.58	2
	16	5.78	0.54	2
	17	5.8	0.51	2
	18	5.82	0.58	2
	19	5.83	0.51	2
	20	5.85	0.37	2
	21	5.86	0.36	2
	22	5.87	0.39	2
	23	5.88	0.47	2
	24	5.89	0.55	2
	25	5.91	0.71	2
	26	5.93	0.48	2
	27	5.94	0.52	2
	28	5.97	0.8	2
	29	6	0.81	2
	30	6.04	1.23	2
	31	6.08	0.89	2
	32	6.1	0.51	2
	33	6.11	0.73	2
	34	6.13	0.66	2
	35	6.14	0.45	2
	36	6.15	0.49	2
	37	6.17	0.58	2
	38	6.18	0.51	2
	39	6.19	0.49	2
	40	6.2	0.38	2
	41	6.21	0.35	2
	42	6.21	0.34	2
	43	6.23	0.58	2
	44	6.24	0.4	2
	45	6.25	0.42	2
	46	6.26	0.42	2
	47	6.27	0.43	2
	48	6.27	0.43	2
	49	6.28	0.4	2
	50	6.29	0.38	2
	51	6.3	0.34	2
	52	6.31	0.35	2
	53	6.32	0.45	2
	54	6.34	0.74	2
	55	6.36	0.73	2
	56	6.37	0.62	2
	57	6.39	0.46	2
	58	6.4	0.42	2
	59	6.41	0.46	2
	60	6.42	0.49	2
	61	6.44	0.48	2
	62	6.45	0.48	2
	63	6.46	0.48	2
	64	6.47	0.48	2
	65	6.49	0.4	2
	66	6.5	0.48	2
	67	6.51	0.5	2
	68	6.52	0.51	2
	69	6.54	0.49	2
	70	6.55	0.49	2
	71	6.56	0.53	2
	72	6.58	0.8	2
	73	6.61	0.88	2
	74	6.64	0.83	2
	75	6.69	1.26	2
	76	6.72	0.88	2
	77	6.76	1.09	2
	78	6.78	0.61	2
	79	6.8	0.48	2
	80	6.82	0.58	2
	81	6.84	0.54	2
	82	6.86	0.68	2
	83	6.89	0.67	2
	84	6.91	0.64	2
	85	6.94	0.84	2
	86	6.97	0.91	2
	87	7	0.8	2
	88	7.03	0.66	2
	89	7.06	0.68	2
	90	7.08	0.7	2
	91	7.11	0.93	2
	92	7.13	0.77	2
	93	7.15	0.73	2
	94	7.18	0.67	2
	95	7.2	0.66	2
	96	7.22	0.53	2
	97	7.23	0.53	2
	98	7.25	0.56	2
	99	7.27	0.55	2
	100	7.28	0.48	2
	101	7.3	0.5	2
	102	7.31	0.53	2
	103	7.32	0.45	2
	104	7.34	0.4	2
	105	7.35	0.33	2
	106	7.37	0.49	2
	107	7.38	0.29	2
	108	7.39	0.33	2
	109	7.4	0.35	2
	110	7.41	0.36	2
	111	7.42	0.28	2
	112	7.43	0.3	2
	113	7.44	0.3	2
	114	7.45	0.52	2
	115	7.46	0.26	2
	116	7.47	0.26	2
	117	7.48	0.27	2
	118	7.5	0.35	2
	119	7.51	0.39	2
	120	7.52	0.42	2
	121	7.53	0.42	2
	122	7.55	0.35	2
	123	7.56	0.34	2
	124	7.57	0.34	2
	125	7.59	0.34	2
	126	7.6	0.36	2
	127	7.61	0.34	2
	128	7.63	0.32	2
	129	7.64	0.36	2
	130	7.66	0.45	2
	131	7.68	0.45	2
	132	7.7	0.41	2
	133	7.71	0.39	2
	134	7.73	0.36	2
	135	7.75	0.39	2
	136	7.76	0.48	2
	137	7.78	0.44	2
	138	7.81	0.63	2
	139	7.84	0.61	2
	140	7.87	0.7	2
	141	7.92	1.13	2
	142	7.97	0.85	2
	143	8.01	1.01	2
	144	8.04	0.61	2
	145	8.07	0.44	2
	146	8.09	0.48	2
	147	8.11	0.51	2
	148	8.14	0.46	2
	149	8.16	0.33	2
	150	8.18	0.38	2
	151	8.2	0.42	2
	152	8.23	0.51	2
	153	8.25	0.57	2
	154	8.27	0.43	2
	155	8.29	0.32	2
	156	8.33	0.47	2
	157	8.35	0.33	2
	158	8.37	0.39	2
	159	8.39	0.43	2
	160	8.41	0.35	2
	161	8.43	0.38	2
	162	8.46	0.41	2
	163	8.48	0.54	2
	164	8.51	0.6	2
	165	8.53	0.51	2
	166	8.56	0.53	2
	167	8.58	0.32	2
	168	8.61	0.55	2
	169	8.61	1.46	2
	170	8.65	0.82	2
	171	8.7	0.66	2
	172	8.86	0.5	2
	173	8.92	0.63	2
	174	9.17	1.16	2
	175	9.24	0.33	2
	176	9.31	0.48	2
	177	9.37	0.5	2
	178	9.4	0.32	2
	179	9.45	0.52	2
	180	9.54	0.53	2
	181	9.8	0.98	2
	182	9.89	0.41	2
	183	10.25	1.2	2
	184	10.69	0.64	2
	185	10.82	0.33	2

