File:              	C:\Qtrac\Data\Daniel M Sørensen\MScan multicentre study\Data from centres\Newcastle\Processed data\SMC00226F.QZD
Name:              	UK.NEW.NC.8.1
Protocol:          	MSCAN-R2
Date:              	26/2/20
Start time:        	12:06:07
Age:               	62
Sex:               	M
Temperature:       	31.8
S/R sites:         	TA
NC/disease:        	NC
Operator:          	SM
Comments:          	Technically difficult
M-SCAN DATA (Repeat 2/2, 7.9-0.0m)
Scanpts: 474, 503, 1430, 1438
Stim. (mA)     	Amp. (mV)
MS.1           	18.5           	6.04
MS.2           	18.5           	6.014
MS.3           	18.462         	5.986
MS.4           	18.425         	6.014
MS.5           	18.39          	6.014
MS.6           	18.352         	6.004
MS.7           	18.315         	5.998
MS.8           	18.28          	6.008
MS.9           	18.243         	6.018
MS.10          	18.208         	6.022
MS.11          	18.17          	6.034
MS.12          	18.132         	5.998
MS.13          	18.097         	6.006
MS.14          	18.062         	5.998
MS.15          	18.025         	5.992
MS.16          	17.99          	6.034
MS.17          	17.952         	6.012
MS.18          	17.917         	6.049
MS.19          	17.882         	6.028
MS.20          	17.845         	6.034
MS.21          	17.81          	5.994
MS.22          	17.775         	5.974
MS.23          	17.74          	5.984
MS.24          	17.702         	6
MS.25          	17.667         	5.988
MS.26          	17.632         	6
MS.27          	17.597         	5.972
MS.28          	17.562         	6
MS.29          	17.528         	6.018
MS.30          	17.493         	6.002
MS.31          	17.458         	5.982
MS.32          	17.422         	6.014
MS.33          	17.387         	6.002
MS.34          	17.352         	5.992
MS.35          	17.317         	5.992
MS.36          	17.285         	5.98
MS.37          	17.25          	5.998
MS.38          	17.215         	6.002
MS.39          	17.18          	5.988
MS.40          	17.145         	5.982
MS.41          	17.112         	5.964
MS.42          	17.077         	5.974
MS.43          	17.042         	5.978
MS.44          	17.01          	6.002
MS.45          	16.975         	5.974
MS.46          	16.942         	5.964
MS.47          	16.907         	5.98
MS.48          	16.875         	5.974
MS.49          	16.84          	5.976
MS.50          	16.807         	6.024
MS.51          	16.772         	6.006
MS.52          	16.74          	5.98
MS.53          	16.705         	5.988
MS.54          	16.672         	5.988
MS.55          	16.64          	5.972
MS.56          	16.605         	5.974
MS.57          	16.573         	5.976
MS.58          	16.54          	6
MS.59          	16.507         	5.964
MS.60          	16.475         	5.966
MS.61          	16.44          	5.998
MS.62          	16.407         	5.978
MS.63          	16.375         	5.966
MS.64          	16.342         	5.986
MS.65          	16.31          	5.972
MS.66          	16.278         	5.984
MS.67          	16.245         	5.99
MS.68          	16.212         	5.974
MS.69          	16.18          	5.972
MS.70          	16.147         	5.978
MS.71          	16.115         	5.994
MS.72          	16.083         	5.98
MS.73          	16.05          	5.962
MS.74          	16.02          	6.002
MS.75          	15.987         	5.992
MS.76          	15.955         	5.966
MS.77          	15.922         	6.002
MS.78          	15.892         	5.942
MS.79          	15.86          	5.91
MS.80          	15.827         	5.952
MS.81          	15.795         	5.817
MS.82          	15.765         	6.024
MS.83          	15.733         	5.942
MS.84          	15.702         	5.918
MS.85          	15.67          	5.958
MS.86          	15.64          	5.948
MS.87          	15.608         	5.944
MS.88          	15.577         	5.956
MS.89          	15.545         	5.962
MS.90          	15.515         	5.936
MS.91          	15.483         	5.964
MS.92          	15.452         	5.944
MS.93          	15.422         	5.948
MS.94          	15.39          	5.946
MS.95          	15.36          	5.932
MS.96          	15.33          	5.932
MS.97          	15.297         	5.934
MS.98          	15.267         	5.926
MS.99          	15.237         	5.936
MS.100         	15.207         	5.928
MS.101         	15.177         	5.976
MS.102         	15.148         	5.944
MS.103         	15.117         	5.839
MS.104         	15.085         	5.861
MS.105         	15.055         	5.97
MS.106         	15.025         	5.93
MS.107         	14.995         	5.928
MS.108         	14.965         	5.841
MS.109         	14.935         	5.68
MS.110         	14.905         	5.908
MS.111         	14.877         	5.934
MS.112         	14.847         	5.912
MS.113         	14.818         	5.974
MS.114         	14.787         	5.924
MS.115         	14.757         	5.897
MS.116         	14.727         	5.744
MS.117         	14.7           	5.706
MS.118         	14.67          	5.815
MS.119         	14.64          	5.688
MS.120         	14.61          	5.843
MS.121         	14.582         	5.904
MS.122         	14.552         	5.91
MS.123         	14.523         	5.726
MS.124         	14.495         	5.734
MS.125         	14.465         	5.849
MS.126         	14.438         	5.678
MS.127         	14.407         	5.891
MS.128         	14.38          	5.821
MS.129         	14.35          	5.791
MS.130         	14.322         	5.732
MS.131         	14.292         	5.66
MS.132         	14.265         	5.797
MS.133         	14.235         	5.839
MS.134         	14.207         	5.926
MS.135         	14.18          	5.855
MS.136         	14.15          	5.779
MS.137         	14.122         	5.63
MS.138         	14.095         	5.738
MS.139         	14.065         	5.821
MS.140         	14.037         	5.726
MS.141         	14.01          	5.748
MS.142         	13.983         	5.706
MS.143         	13.955         	5.775
MS.144         	13.925         	5.789
MS.145         	13.898         	5.716
MS.146         	13.87          	5.787
MS.147         	13.842         	5.839
MS.148         	13.815         	5.827
MS.149         	13.787         	5.702
MS.150         	13.76          	5.724
MS.151         	13.733         	5.704
MS.152         	13.705         	5.736
MS.153         	13.677         	5.535
MS.154         	13.65          	5.752
MS.155         	13.622         	5.666
MS.156         	13.595         	5.811
MS.157         	13.57          	5.825
MS.158         	13.542         	5.791
MS.159         	13.515         	5.841
MS.160         	13.487         	5.859
MS.161         	13.46          	5.849
MS.162         	13.435         	5.861
MS.163         	13.407         	5.873
MS.164         	13.38          	5.871
MS.165         	13.352         	5.901
MS.166         	13.327         	5.817
MS.167         	13.3           	5.885
MS.168         	13.273         	5.893
MS.169         	13.247         	5.849
MS.170         	13.22          	5.861
MS.171         	13.195         	5.881
MS.172         	13.167         	5.889
MS.173         	13.142         	5.867
MS.174         	13.115         	5.897
MS.175         	13.09          	5.895
MS.176         	13.062         	5.897
MS.177         	13.037         	5.877
MS.178         	13.01          	5.867
MS.179         	12.985         	5.881
MS.180         	12.957         	5.912
MS.181         	12.932         	5.914
MS.182         	12.907         	5.873
MS.183         	12.88          	5.873
MS.184         	12.855         	5.881
MS.185         	12.83          	5.857
MS.186         	12.805         	5.843
MS.187         	12.778         	5.871
MS.188         	12.752         	5.829
MS.189         	12.727         	5.563
MS.190         	12.702         	5.698
MS.191         	12.677         	5.505
MS.192         	12.653         	5.505
MS.193         	12.625         	5.571
MS.194         	12.6           	5.513
MS.195         	12.575         	5.553
MS.196         	12.55          	5.783
MS.197         	12.525         	5.825
MS.198         	12.5           	5.827
MS.199         	12.475         	5.795
MS.200         	12.45          	5.722
MS.201         	12.425         	5.815
MS.202         	12.4           	5.787
MS.203         	12.375         	5.781
MS.204         	12.352         	5.819
MS.205         	12.327         	5.805
MS.206         	12.302         	5.821
MS.207         	12.278         	5.742
MS.208         	12.252         	5.861
MS.209         	12.227         	5.811
MS.210         	12.205         	5.779
MS.211         	12.18          	5.746
MS.212         	12.155         	5.769
MS.213         	12.13          	5.783
MS.214         	12.108         	5.771
MS.215         	12.082         	5.779
MS.216         	12.057         	5.795
MS.217         	12.035         	5.773
MS.218         	12.01          	5.732
MS.219         	11.988         	5.763
MS.220         	11.962         	5.744
MS.221         	11.938         	5.756
MS.222         	11.915         	5.773
MS.223         	11.89          	5.807
MS.224         	11.867         	5.758
MS.225         	11.842         	5.758
MS.226         	11.82          	5.767
MS.227         	11.795         	5.66
MS.228         	11.773         	5.646
MS.229         	11.75          	5.626
MS.230         	11.725         	5.746
MS.231         	11.702         	5.674
MS.232         	11.677         	5.638
MS.233         	11.655         	5.736
MS.234         	11.632         	5.783
MS.235         	11.61          	5.756
MS.236         	11.585         	5.626
MS.237         	11.562         	5.613
MS.238         	11.54          	5.636
MS.239         	11.517         	5.64
MS.240         	11.492         	5.654
MS.241         	11.47          	5.748
MS.242         	11.447         	5.581
MS.243         	11.425         	5.422
MS.244         	11.403         	5.728
MS.245         	11.38          	5.636
MS.246         	11.358         	5.809
MS.247         	11.332         	5.622
MS.248         	11.31          	5.65
MS.249         	11.287         	5.499
MS.250         	11.265         	5.454
MS.251         	11.242         	5.505
MS.252         	11.22          	5.446
MS.253         	11.197         	5.406
MS.254         	11.175         	5.352
MS.255         	11.153         	5.464
MS.256         	11.132         	5.503
MS.257         	11.11          	5.485
MS.258         	11.087         	5.446
MS.259         	11.065         	5.448
MS.260         	11.042         	5.529
MS.261         	11.02          	5.581
MS.262         	10.997         	5.575
MS.263         	10.977         	5.593
MS.264         	10.955         	5.575
MS.265         	10.932         	5.571
MS.266         	10.91          	5.559
MS.267         	10.89          	5.563
MS.268         	10.867         	5.581
MS.269         	10.845         	5.575
MS.270         	10.825         	5.581
MS.271         	10.802         	5.553
MS.272         	10.78          	5.541
MS.273         	10.76          	5.549
MS.274         	10.738         	5.388
MS.275         	10.717         	5.553
MS.276         	10.695         	5.555
MS.277         	10.672         	5.479
MS.278         	10.653         	5.615
MS.279         	10.63          	5.537
MS.280         	10.61          	5.543
MS.281         	10.587         	5.537
MS.282         	10.568         	5.406
MS.283         	10.547         	5.525
MS.284         	10.525         	5.585
MS.285         	10.505         	5.555
MS.286         	10.483         	5.577
MS.287         	10.462         	5.501
MS.288         	10.443         	5.364
MS.289         	10.42          	5.35
MS.290         	10.4           	4.989
MS.291         	10.38          	5.072
MS.292         	10.358         	4.913
MS.293         	10.337         	5.064
MS.294         	10.318         	5.261
MS.295         	10.295         	5.507
MS.296         	10.275         	5.215
MS.297         	10.255         	5.12
MS.298         	10.235         	5.267
MS.299         	10.215         	5.398
MS.300         	10.193         	5.186
MS.301         	10.172         	5.193
MS.302         	10.153         	5.325
MS.303         	0.000          	0.008
MS.304         	0.000          	0.002
MS.305         	0.000          	0.018
MS.306         	0.000          	0.026
MS.307         	1.5            	0.004
MS.308         	4.5            	3.466
MS.309         	9              	5.11
MS.310         	10.5           	5.426
MS.311         	12             	5.557
MS.312         	13.5           	5.805
MS.313         	15             	5.825
MS.314         	16.5           	5.827
MS.315         	18             	5.95
MS.316         	18             	5.885
MS.317         	19.5           	5.922
MS.318         	19.5           	5.922
MS.319         	19.5           	5.897
MS.320         	19.5           	5.968
MS.321         	19.5           	5.94
MS.322         	19.5           	5.918
MS.323         	19.5           	5.924
MS.324         	19.5           	5.92
MS.325         	19.5           	5.944
MS.326         	19.5           	5.938
MS.327         	19.5           	5.912
MS.328         	19.5           	5.924
MS.329         	19.5           	5.932
MS.330         	19.5           	5.944
MS.331         	19             	5.904
MS.332         	18.5           	5.918
MS.333         	18.5           	5.918
MS.334         	18             	5.926
MS.335         	18             	5.926
MS.336         	17.5           	5.91
MS.337         	17.5           	5.932
MS.338         	17.5           	5.968
MS.339         	17             	5.891
MS.340         	17             	5.912
MS.341         	16.5           	5.891
MS.342         	16.5           	5.91
MS.343         	16.5           	5.93
MS.344         	16.5           	5.893
MS.345         	16             	5.835
MS.346         	16             	5.95
MS.347         	16.5           	5.928
MS.348         	17.5           	5.932
MS.349         	17.5           	5.968
MS.350         	17.5           	5.916
MS.351         	17.5           	5.926
MS.352         	17.5           	5.92
MS.353         	17.5           	5.904
MS.354         	17.5           	5.942
MS.355         	17.5           	5.922
MS.356         	17.5           	5.908
MS.357         	17.5           	5.881
MS.358         	17.5           	5.914
MS.359         	17.5           	5.885
MS.360         	17.5           	5.924
MS.361         	17.5           	5.901
MS.362         	17.5           	5.901
MS.363         	17.5           	5.924
MS.364         	17.5           	5.908
MS.365         	17.5           	5.926
MS.366         	17.5           	5.906
MS.367         	17.5           	5.906
MS.368         	17.5           	5.901
MS.369         	17.5           	5.904
MS.370         	17.5           	5.893
MS.371         	17.5           	5.924
MS.372         	17.5           	5.92
MS.373         	17.5           	5.904
MS.374         	17.465         	5.891
MS.375         	17.43          	5.879
MS.376         	17.395         	5.893
MS.377         	17.36          	5.928
MS.378         	17.325         	5.916
MS.379         	17.292         	5.899
MS.380         	17.257         	5.934
MS.381         	17.222         	5.906
MS.382         	17.188         	5.916
MS.383         	17.153         	5.904
MS.384         	17.12          	5.895
MS.385         	17.085         	5.893
MS.386         	17.05          	5.881
MS.387         	17.017         	5.891
MS.388         	16.983         	5.869
MS.389         	16.95          	5.877
MS.390         	16.915         	5.906
MS.391         	16.88          	5.912
MS.392         	16.847         	5.865
MS.393         	16.815         	5.912
MS.394         	16.78          	5.91
MS.395         	16.747         	5.906
MS.396         	16.712         	5.889
MS.397         	16.68          	5.897
MS.398         	16.647         	5.897
MS.399         	16.612         	5.93
MS.400         	16.58          	5.91
MS.401         	16.547         	5.887
MS.402         	16.515         	5.883
MS.403         	16.48          	5.899
MS.404         	16.448         	5.916
MS.405         	16.415         	5.932
MS.406         	16.382         	5.914
MS.407         	16.35          	5.932
MS.408         	16.317         	5.887
MS.409         	16.285         	5.91
MS.410         	16.253         	5.889
MS.411         	16.22          	5.893
MS.412         	16.188         	5.893
MS.413         	16.155         	5.916
MS.414         	16.122         	5.891
MS.415         	16.09          	5.887
MS.416         	16.057         	5.912
MS.417         	16.025         	5.831
MS.418         	15.995         	5.936
MS.419         	15.962         	5.891
MS.420         	15.93          	5.881
MS.421         	15.898         	5.908
MS.422         	15.867         	5.869
MS.423         	15.835         	5.891
MS.424         	15.802         	5.877
MS.425         	15.773         	5.889
MS.426         	15.74          	5.893
MS.427         	15.707         	5.877
MS.428         	15.677         	5.908
MS.429         	15.645         	5.91
MS.430         	15.615         	5.877
MS.431         	15.582         	5.891
MS.432         	15.552         	5.946
MS.433         	15.52          	5.944
MS.434         	15.49          	5.914
MS.435         	15.46          	5.906
MS.436         	15.427         	5.887
MS.437         	15.398         	5.916
MS.438         	15.367         	5.883
MS.439         	15.335         	5.924
MS.440         	15.305         	5.885
MS.441         	15.275         	5.924
MS.442         	15.245         	5.908
MS.443         	15.215         	5.889
MS.444         	15.182         	5.946
MS.445         	15.152         	5.92
MS.446         	15.122         	5.887
MS.447         	15.092         	5.883
MS.448         	15.062         	5.924
MS.449         	15.032         	5.942
MS.450         	15.002         	5.904
MS.451         	14.972         	5.932
MS.452         	14.943         	5.899
MS.453         	14.912         	5.908
MS.454         	14.882         	5.873
MS.455         	14.852         	5.883
MS.456         	14.822         	5.887
MS.457         	14.792         	5.906
MS.458         	14.765         	5.893
MS.459         	14.735         	5.895
MS.460         	14.705         	5.887
MS.461         	14.675         	5.817
MS.462         	14.648         	5.908
MS.463         	14.617         	5.891
MS.464         	14.587         	5.924
MS.465         	14.56          	5.871
MS.466         	14.53          	5.932
MS.467         	14.5           	5.918
MS.468         	14.472         	5.92
MS.469         	14.443         	5.904
MS.470         	14.415         	5.926
MS.471         	14.385         	5.942
MS.472         	14.358         	5.912
MS.473         	14.327         	5.94
MS.474         	14.3           	5.912
MS.475         	14.27          	5.901
MS.476         	14.242         	5.887
MS.477         	14.212         	5.918
MS.478         	14.185         	5.922
MS.479         	14.157         	5.887
MS.480         	14.127         	5.887
MS.481         	14.1           	5.964
MS.482         	14.072         	5.958
MS.483         	14.045         	5.899
MS.484         	14.015         	5.908
MS.485         	13.987         	5.889
MS.486         	13.96          	5.901
MS.487         	13.932         	5.885
MS.488         	13.905         	5.924
MS.489         	13.877         	5.897
MS.490         	13.85          	5.918
MS.491         	13.82          	5.91
MS.492         	13.792         	5.908
MS.493         	13.765         	5.932
MS.494         	13.737         	5.916
MS.495         	13.71          	5.916
MS.496         	13.682         	5.91
MS.497         	13.657         	5.918
MS.498         	13.63          	5.91
MS.499         	13.602         	5.928
MS.500         	13.575         	5.946
MS.501         	13.547         	5.918
MS.502         	13.52          	5.94
MS.503         	13.492         	5.912
MS.504         	13.467         	5.897
MS.505         	13.44          	5.932
MS.506         	13.412         	5.893
MS.507         	13.385         	5.908
MS.508         	13.36          	5.918
MS.509         	13.332         	5.893
MS.510         	13.305         	5.897
MS.511         	13.28          	5.906
MS.512         	13.252         	5.889
MS.513         	13.225         	5.883
MS.514         	13.2           	5.908
MS.515         	13.172         	5.93
MS.516         	13.148         	5.93
MS.517         	13.12          	5.922
MS.518         	13.095         	5.922
MS.519         	13.068         	5.897
MS.520         	13.042         	5.865
MS.521         	13.017         	5.871
MS.522         	12.99          	5.885
MS.523         	12.965         	5.887
MS.524         	12.938         	5.883
MS.525         	12.912         	5.893
MS.526         	12.887         	5.889
MS.527         	12.86          	5.972
MS.528         	12.835         	5.895
MS.529         	12.81          	5.897
MS.530         	12.785         	5.887
MS.531         	12.757         	5.934
MS.532         	12.733         	5.906
MS.533         	12.707         	5.873
MS.534         	12.682         	5.891
MS.535         	12.657         	5.912
MS.536         	12.632         	5.916
MS.537         	12.608         	5.916
MS.538         	12.58          	5.879
MS.539         	12.555         	5.906
MS.540         	12.53          	5.928
MS.541         	12.505         	5.887
MS.542         	12.48          	5.877
MS.543         	12.455         	5.881
MS.544         	12.43          	5.845
MS.545         	12.405         	5.849
MS.546         	12.382         	5.897
MS.547         	12.358         	5.891
MS.548         	12.332         	5.908
MS.549         	12.307         	5.867
MS.550         	12.282         	5.857
MS.551         	12.257         	5.879
MS.552         	12.235         	5.869
MS.553         	12.21          	5.885
MS.554         	12.185         	5.861
MS.555         	12.16          	5.877
MS.556         	12.137         	5.855
MS.557         	12.113         	5.869
MS.558         	12.087         	5.891
MS.559         	12.062         	5.867
MS.560         	12.04          	5.861
MS.561         	12.015         	5.912
MS.562         	11.992         	5.867
MS.563         	11.967         	5.873
MS.564         	11.943         	5.875
MS.565         	11.92          	5.859
MS.566         	11.895         	5.885
MS.567         	11.872         	5.841
MS.568         	11.847         	5.847
MS.569         	11.825         	5.869
MS.570         	11.8           	5.823
MS.571         	11.778         	5.91
MS.572         	11.755         	5.863
MS.573         	11.73          	5.795
MS.574         	11.707         	5.859
MS.575         	11.685         	5.823
MS.576         	11.66          	5.845
MS.577         	11.637         	5.855
MS.578         	11.615         	5.851
MS.579         	11.59          	5.835
MS.580         	11.568         	5.811
MS.581         	11.545         	5.835
MS.582         	11.523         	5.797
MS.583         	11.497         	5.829
MS.584         	11.475         	5.873
MS.585         	11.452         	5.781
MS.586         	11.43          	5.767
MS.587         	11.407         	5.831
MS.588         	11.385         	5.855
MS.589         	11.36          	5.664
MS.590         	11.337         	5.742
MS.591         	11.315         	5.789
MS.592         	11.292         	5.789
MS.593         	11.27          	5.791
MS.594         	11.247         	5.869
MS.595         	11.225         	5.75
MS.596         	11.202         	5.843
MS.597         	11.18          	5.716
MS.598         	11.157         	5.68
MS.599         	11.135         	5.716
MS.600         	11.115         	5.696
MS.601         	11.092         	5.684
MS.602         	11.07          	5.662
MS.603         	11.047         	5.722
MS.604         	11.025         	5.688
MS.605         	11.002         	5.712
MS.606         	10.983         	5.69
MS.607         	10.96          	5.67
MS.608         	10.938         	5.674
MS.609         	10.915         	5.674
MS.610         	10.895         	5.803
MS.611         	10.872         	5.674
MS.612         	10.85          	5.676
MS.613         	10.827         	5.656
MS.614         	10.807         	5.66
MS.615         	10.785         	5.676
MS.616         	10.765         	5.69
MS.617         	10.742         	5.69
MS.618         	10.72          	5.69
MS.619         	10.7           	5.698
MS.620         	10.677         	5.688
MS.621         	10.657         	5.706
MS.622         	10.635         	5.644
MS.623         	10.615         	5.692
MS.624         	10.592         	5.67
MS.625         	10.573         	5.714
MS.626         	10.55          	5.692
MS.627         	10.53          	5.666
MS.628         	10.507         	5.74
MS.629         	10.488         	5.69
MS.630         	10.467         	5.676
MS.631         	10.445         	5.676
MS.632         	10.425         	5.67
MS.633         	10.405         	5.648
MS.634         	10.382         	5.672
MS.635         	10.363         	5.728
MS.636         	10.342         	5.672
MS.637         	10.32          	5.666
MS.638         	10.3           	5.654
MS.639         	10.28          	5.666
MS.640         	10.26          	5.69
MS.641         	10.24          	5.692
MS.642         	10.217         	5.672
MS.643         	10.198         	5.686
MS.644         	10.177         	5.642
MS.645         	10.157         	5.716
MS.646         	10.137         	5.617
MS.647         	10.117         	5.684
MS.648         	10.097         	5.684
MS.649         	10.077         	5.682
MS.650         	10.057         	5.599
MS.651         	10.035         	5.672
MS.652         	10.015         	5.672
MS.653         	9.995          	5.628
MS.654         	9.975          	5.66
MS.655         	9.955          	5.607
MS.656         	9.938          	5.652
MS.657         	9.917          	5.565
MS.658         	9.898          	5.636
MS.659         	9.877          	5.601
MS.660         	9.858          	5.557
MS.661         	9.837          	5.587
MS.662         	9.818          	5.581
MS.663         	9.797          	5.595
MS.664         	9.778          	5.585
MS.665         	9.76           	5.589
MS.666         	9.74           	5.519
MS.667         	9.72           	5.557
MS.668         	9.7            	5.652
MS.669         	9.682          	5.569
MS.670         	9.662          	5.601
MS.671         	9.642          	5.458
MS.672         	9.622          	5.547
MS.673         	9.605          	5.472
MS.674         	9.585          	5.567
MS.675         	9.565          	5.511
MS.676         	9.547          	5.531
MS.677         	9.528          	5.561
MS.678         	9.507          	5.509
MS.679         	9.49           	5.511
MS.680         	9.47           	5.466
MS.681         	9.452          	5.569
MS.682         	9.432          	5.521
MS.683         	9.415          	5.555
MS.684         	9.395          	5.501
MS.685         	9.377          	5.444
MS.686         	9.358          	5.458
MS.687         	9.34           	5.424
MS.688         	9.32           	5.225
MS.689         	9.302          	5.481
MS.690         	9.283          	5.446
MS.691         	9.265          	5.454
MS.692         	9.245          	5.468
MS.693         	9.227          	5.446
MS.694         	9.21           	5.44
MS.695         	9.19           	5.448
MS.696         	9.172          	5.448
MS.697         	9.155          	5.436
MS.698         	9.135          	5.458
MS.699         	9.117          	5.474
MS.700         	9.1            	5.46
MS.701         	9.08           	5.456
MS.702         	9.062          	5.464
MS.703         	9.045          	5.474
MS.704         	9.028          	5.448
MS.705         	9.01           	5.398
MS.706         	8.99           	5.297
MS.707         	8.972          	5.436
MS.708         	8.955          	5.404
MS.709         	8.938          	5.456
MS.710         	8.92           	5.426
MS.711         	8.903          	5.416
MS.712         	8.882          	5.442
MS.713         	8.865          	5.43
MS.714         	8.847          	5.42
MS.715         	8.83           	5.462
MS.716         	8.812          	5.487
MS.717         	8.795          	5.442
MS.718         	8.778          	5.404
MS.719         	8.76           	5.452
MS.720         	8.742          	5.438
MS.721         	8.725          	5.297
MS.722         	8.707          	5.426
MS.723         	8.69           	5.414
MS.724         	8.672          	5.42
MS.725         	8.655          	5.418
MS.726         	8.637          	5.404
MS.727         	8.62           	5.273
MS.728         	8.605          	5.297
MS.729         	8.587          	5.42
MS.730         	8.57           	5.414
MS.731         	8.552          	5.392
MS.732         	8.535          	5.291
MS.733         	8.517          	5.275
MS.734         	8.5            	5.265
MS.735         	8.485          	5.261
MS.736         	8.467          	5.243
MS.737         	8.45           	5.271
MS.738         	8.432          	5.249
MS.739         	8.417          	5.297
MS.740         	8.4            	5.277
MS.741         	8.382          	5.267
MS.742         	8.365          	5.297
MS.743         	8.35           	5.267
MS.744         	8.332          	5.388
MS.745         	8.315          	5.231
MS.746         	8.3            	5.255
MS.747         	8.283          	5.253
MS.748         	8.267          	5.388
MS.749         	8.25           	5.259
MS.750         	8.233          	5.374
MS.751         	8.217          	5.233
MS.752         	8.2            	5.243
MS.753         	8.185          	5.386
MS.754         	8.167          	5.38
MS.755         	8.153          	5.259
MS.756         	8.135          	5.253
MS.757         	8.12           	5.251
MS.758         	8.102          	5.223
MS.759         	8.087          	5.245
MS.760         	8.07           	5.279
MS.761         	8.055          	5.315
MS.762         	8.037          	5.225
MS.763         	8.023          	5.227
MS.764         	8.005          	5.251
MS.765         	7.99           	5.227
MS.766         	7.975          	5.247
MS.767         	7.957          	5.241
MS.768         	7.942          	5.243
MS.769         	7.927          	5.243
MS.770         	7.91           	5.223
MS.771         	7.895          	5.225
MS.772         	7.88           	5.245
MS.773         	7.862          	5.261
MS.774         	7.847          	5.205
MS.775         	7.832          	5.221
MS.776         	7.815          	5.241
MS.777         	7.8            	5.213
MS.778         	7.785          	5.245
MS.779         	7.77           	5.243
MS.780         	7.755          	5.221
MS.781         	7.737          	5.241
MS.782         	7.722          	5.241
MS.783         	7.707          	5.225
MS.784         	7.692          	5.259
MS.785         	7.677          	5.348
MS.786         	7.662          	5.273
MS.787         	7.645          	5.217
MS.788         	7.63           	5.233
MS.789         	7.615          	5.201
MS.790         	7.6            	5.255
MS.791         	7.585          	5.36
MS.792         	7.57           	5.197
MS.793         	7.555          	5.201
MS.794         	7.54           	5.317
MS.795         	7.525          	5.245
MS.796         	7.51           	5.301
MS.797         	7.495          	5.327
MS.798         	7.48           	5.273
MS.799         	7.465          	5.356
MS.800         	7.45           	5.317
MS.801         	7.435          	5.285
MS.802         	7.42           	5.289
MS.803         	7.405          	5.333
MS.804         	7.39           	5.329
MS.805         	7.375          	5.307
MS.806         	7.36           	5.299
MS.807         	7.347          	5.283
MS.808         	7.332          	5.291
MS.809         	7.317          	5.267
MS.810         	7.302          	5.251
MS.811         	7.287          	5.327
MS.812         	7.273          	5.317
MS.813         	7.257          	5.285
MS.814         	7.245          	5.261
MS.815         	7.23           	5.275
MS.816         	7.215          	5.263
MS.817         	7.2            	5.279
MS.818         	7.188          	5.297
MS.819         	7.172          	5.291
MS.820         	7.157          	5.279
MS.821         	7.142          	5.271
MS.822         	7.13           	5.293
MS.823         	7.115          	5.269
MS.824         	7.1            	5.263
MS.825         	7.087          	5.281
MS.826         	7.072          	5.277
MS.827         	7.057          	5.257
MS.828         	7.045          	5.251
MS.829         	7.03           	5.253
MS.830         	7.015          	5.257
MS.831         	7.003          	5.18
MS.832         	6.987          	5.255
MS.833         	6.975          	5.263
MS.834         	6.96           	5.281
MS.835         	6.945          	5.291
MS.836         	6.932          	5.279
MS.837         	6.918          	5.227
MS.838         	6.905          	5.281
MS.839         	6.89           	5.247
MS.840         	6.878          	5.285
MS.841         	6.862          	5.267
MS.842         	6.85           	5.235
MS.843         	6.835          	5.259
MS.844         	6.822          	5.309
MS.845         	6.807          	5.257
MS.846         	6.795          	5.269
MS.847         	6.782          	5.303
MS.848         	6.767          	5.329
MS.849         	6.755          	5.257
MS.850         	6.74           	5.269
MS.851         	6.727          	5.283
MS.852         	6.715          	5.293
MS.853         	6.7            	5.338
MS.854         	6.688          	5.329
MS.855         	6.675          	5.315
MS.856         	6.66           	5.354
MS.857         	6.648          	5.327
MS.858         	6.635          	5.323
MS.859         	6.62           	5.267
MS.860         	6.608          	5.313
MS.861         	6.595          	5.358
MS.862         	6.58           	5.344
MS.863         	6.567          	5.317
MS.864         	6.555          	5.329
MS.865         	6.543          	5.297
MS.866         	6.527          	5.382
MS.867         	6.515          	5.313
MS.868         	6.503          	5.291
MS.869         	6.49           	5.319
MS.870         	6.477          	5.321
MS.871         	6.462          	5.315
MS.872         	6.45           	5.301
MS.873         	6.438          	5.307
MS.874         	6.425          	5.336
MS.875         	6.412          	5.313
MS.876         	6.4            	5.305
MS.877         	6.387          	5.285
MS.878         	6.375          	5.291
MS.879         	6.36           	5.251
MS.880         	6.347          	5.277
MS.881         	6.335          	5.186
MS.882         	6.322          	5.291
MS.883         	6.31           	5.277
MS.884         	6.297          	5.265
MS.885         	6.285          	5.18
MS.886         	6.273          	5.184
MS.887         	6.26           	5.205
MS.888         	6.247          	5.213
MS.889         	6.235          	5.174
MS.890         	6.222          	5.261
MS.891         	6.21           	5.259
MS.892         	6.197          	5.273
MS.893         	6.185          	5.261
MS.894         	6.172          	5.227
MS.895         	6.16           	5.124
MS.896         	6.148          	5.257
MS.897         	6.135          	5.281
MS.898         	6.125          	5.231
MS.899         	6.112          	5.283
MS.900         	6.1            	5.154
MS.901         	6.088          	5.225
MS.902         	6.075          	5.239
MS.903         	6.062          	5.136
MS.904         	6.05           	5.122
MS.905         	6.04           	5.168
MS.906         	6.027          	5.132
MS.907         	6.015          	5.136
MS.908         	6.003          	5.124
MS.909         	5.99           	5.098
MS.910         	5.977          	5.12
MS.911         	5.967          	5.124
MS.912         	5.955          	5.148
MS.913         	5.942          	5.12
MS.914         	5.93           	5.122
MS.915         	5.92           	5.158
MS.916         	5.907          	5.088
MS.917         	5.895          	5.136
MS.918         	5.885          	5.15
MS.919         	5.872          	5.13
MS.920         	5.86           	5.138
MS.921         	5.847          	5.142
MS.922         	5.838          	5.19
MS.923         	5.825          	5.203
MS.924         	5.812          	5.124
MS.925         	5.802          	5.16
MS.926         	5.79           	5.098
MS.927         	5.78           	5.072
MS.928         	5.767          	5.118
MS.929         	5.755          	5.072
MS.930         	5.745          	5.15
MS.931         	5.733          	5.124
MS.932         	5.722          	5.086
MS.933         	5.71           	5.114
MS.934         	5.697          	5.094
MS.935         	5.688          	5.078
MS.936         	5.675          	5.118
MS.937         	5.665          	5.08
MS.938         	5.652          	5.066
MS.939         	5.642          	5.126
MS.940         	5.63           	5.07
MS.941         	5.62           	5.132
MS.942         	5.608          	5.082
MS.943         	5.597          	5.074
MS.944         	5.585          	5.072
MS.945         	5.575          	5.08
MS.946         	5.562          	5.078
MS.947         	5.552          	5.066
MS.948         	5.54           	5.058
MS.949         	5.53           	5.068
MS.950         	5.52           	5.096
MS.951         	5.507          	4.995
MS.952         	5.497          	5.076
MS.953         	5.485          	5.003
MS.954         	5.475          	5.021
MS.955         	5.465          	4.981
MS.956         	5.452          	5.021
MS.957         	5.443          	5.027
MS.958         	5.432          	5.003
MS.959         	5.42           	5.025
MS.960         	5.41           	5.007
MS.961         	5.4            	5.052
MS.962         	5.387          	4.999
MS.963         	5.378          	4.949
MS.964         	5.367          	5.003
MS.965         	5.355          	5.076
MS.966         	5.345          	4.975
MS.967         	5.335          	5.001
MS.968         	5.325          	4.929
MS.969         	5.312          	4.959
MS.970         	5.302          	4.925
MS.971         	5.293          	4.949
MS.972         	5.282          	5.011
MS.973         	5.27           	5.041
MS.974         	5.26           	5.041
MS.975         	5.25           	4.943
MS.976         	5.24           	4.961
MS.977         	5.23           	4.943
MS.978         	5.217          	5.058
MS.979         	5.207          	5.031
MS.980         	5.197          	5.031
MS.981         	5.188          	4.939
MS.982         	5.177          	4.906
MS.983         	5.168          	4.953
MS.984         	5.155          	5.035
MS.985         	5.145          	4.993
MS.986         	5.135          	5.078
MS.987         	5.125          	5.029
MS.988         	5.115          	4.945
MS.989         	5.105          	5.058
MS.990         	5.095          	5.039
MS.991         	5.085          	5.052
MS.992         	5.075          	5.009
MS.993         	5.065          	4.975
MS.994         	5.055          	4.987
MS.995         	5.045          	5.019
MS.996         	5.035          	5.015
MS.997         	5.025          	4.999
MS.998         	5.015          	4.955
MS.999         	5.005          	4.961
MS.1000        	4.995          	4.943
MS.1001        	4.985          	4.943
MS.1002        	4.975          	4.969
MS.1003        	4.965          	4.983
MS.1004        	4.955          	4.999
MS.1005        	4.945          	4.983
MS.1006        	4.935          	4.961
MS.1007        	4.925          	4.86
MS.1008        	4.915          	4.935
MS.1009        	4.905          	4.937
MS.1010        	4.895          	4.935
MS.1011        	4.885          	4.89
MS.1012        	4.875          	4.919
MS.1013        	4.865          	4.957
MS.1014        	4.855          	4.975
MS.1015        	4.845          	5.076
MS.1016        	4.838          	4.963
MS.1017        	4.827          	4.836
MS.1018        	4.818          	4.935
MS.1019        	4.807          	4.949
MS.1020        	4.797          	4.967
MS.1021        	4.787          	5.035
MS.1022        	4.78           	4.911
MS.1023        	4.77           	5.049
MS.1024        	4.76           	5.07
MS.1025        	4.75           	4.939
MS.1026        	4.74           	5.035
MS.1027        	4.733          	4.987
MS.1028        	4.722          	4.927
MS.1029        	4.713          	4.915
MS.1030        	4.702          	5.025
MS.1031        	4.693          	4.927
MS.1032        	4.685          	4.957
MS.1033        	4.675          	4.872
MS.1034        	4.665          	4.904
MS.1035        	4.655          	4.989
MS.1036        	4.648          	4.975
MS.1037        	4.637          	4.915
MS.1038        	4.628          	4.911
MS.1039        	4.62           	5.054
MS.1040        	4.61           	4.981
MS.1041        	4.6            	4.971
MS.1042        	4.592          	4.949
MS.1043        	4.582          	4.965
MS.1044        	4.572          	5.058
MS.1045        	4.565          	4.971
MS.1046        	4.555          	4.931
MS.1047        	4.545          	4.987
MS.1048        	4.537          	4.909
MS.1049        	4.527          	5.009
MS.1050        	4.517          	4.909
MS.1051        	4.51           	4.906
MS.1052        	4.5            	4.927
MS.1053        	4.492          	4.796
MS.1054        	4.483          	4.804
MS.1055        	4.472          	4.842
MS.1056        	4.465          	4.975
MS.1057        	4.455          	4.84
MS.1058        	4.447          	4.88
MS.1059        	4.438          	4.84
MS.1060        	4.43           	5.023
MS.1061        	4.42           	4.81
MS.1062        	4.412          	4.757
MS.1063        	4.402          	4.953
MS.1064        	4.395          	4.838
MS.1065        	4.385          	4.802
MS.1066        	4.378          	4.82
MS.1067        	4.367          	4.836
MS.1068        	4.36           	4.687
MS.1069        	4.35           	4.689
MS.1070        	4.342          	4.798
MS.1071        	4.332          	4.647
MS.1072        	4.325          	4.57
MS.1073        	4.315          	4.56
MS.1074        	4.307          	4.834
MS.1075        	4.298          	4.8
MS.1076        	4.29           	4.747
MS.1077        	4.28           	4.653
MS.1078        	4.273          	4.568
MS.1079        	4.265          	4.49
MS.1080        	4.255          	4.594
MS.1081        	4.247          	4.544
MS.1082        	4.237          	4.56
MS.1083        	4.23           	4.568
MS.1084        	4.222          	4.508
MS.1085        	4.213          	4.552
MS.1086        	4.205          	4.389
MS.1087        	4.197          	4.391
MS.1088        	4.188          	4.403
MS.1089        	4.18           	4.451
MS.1090        	4.17           	4.31
MS.1091        	4.162          	4.32
MS.1092        	4.155          	4.302
MS.1093        	4.145          	4.292
MS.1094        	4.137          	4.353
MS.1095        	4.13           	4.204
MS.1096        	4.122          	4.224
MS.1097        	4.112          	4.341
MS.1098        	4.105          	4.22
MS.1099        	4.097          	4.27
MS.1100        	4.088          	4.097
MS.1101        	4.08           	4.111
MS.1102        	4.072          	4.294
MS.1103        	4.065          	4.351
MS.1104        	4.055          	4.055
MS.1105        	4.048          	4.133
MS.1106        	4.04           	4.123
MS.1107        	4.032          	4.052
MS.1108        	4.023          	4.151
MS.1109        	4.015          	4.059
MS.1110        	4.007          	4.02
MS.1111        	4              	3.93
MS.1112        	3.992          	3.887
MS.1113        	3.982          	3.833
MS.1114        	3.975          	4.038
MS.1115        	3.967          	3.893
MS.1116        	3.96           	3.875
MS.1117        	3.952          	3.964
MS.1118        	3.945          	3.819
MS.1119        	3.935          	4.119
MS.1120        	3.928          	3.823
MS.1121        	3.92           	3.986
MS.1122        	3.912          	3.76
MS.1123        	3.905          	3.887
MS.1124        	3.897          	3.928
MS.1125        	3.89           	3.732
MS.1126        	3.882          	3.686
MS.1127        	3.872          	3.815
MS.1128        	3.865          	3.764
MS.1129        	3.857          	3.801
MS.1130        	3.85           	3.678
MS.1131        	3.842          	3.716
MS.1132        	3.835          	3.718
MS.1133        	3.827          	3.752
MS.1134        	3.82           	3.621
MS.1135        	3.812          	3.65
MS.1136        	3.805          	3.674
MS.1137        	3.797          	3.628
MS.1138        	3.79           	3.678
MS.1139        	3.783          	3.714
MS.1140        	3.775          	3.609
MS.1141        	3.767          	3.619
MS.1142        	3.76           	3.601
MS.1143        	3.752          	3.609
MS.1144        	3.745          	3.563
MS.1145        	3.737          	3.551
MS.1146        	3.73           	3.664
MS.1147        	3.722          	3.605
MS.1148        	3.715          	3.575
MS.1149        	3.707          	3.563
MS.1150        	3.7            	3.587
MS.1151        	3.692          	3.607
MS.1152        	3.685          	3.589
MS.1153        	3.678          	3.583
MS.1154        	3.67           	3.535
MS.1155        	3.662          	3.597
MS.1156        	3.655          	3.569
MS.1157        	3.647          	3.517
MS.1158        	3.64           	3.545
MS.1159        	3.632          	3.563
MS.1160        	3.627          	3.535
MS.1161        	3.62           	3.585
MS.1162        	3.612          	3.45
MS.1163        	3.605          	3.432
MS.1164        	3.597          	3.478
MS.1165        	3.59           	3.531
MS.1166        	3.582          	3.426
MS.1167        	3.575          	3.527
MS.1168        	3.567          	3.482
MS.1169        	3.562          	3.432
MS.1170        	3.555          	3.529
MS.1171        	3.547          	3.464
MS.1172        	3.54           	3.418
MS.1173        	3.533          	3.464
MS.1174        	3.525          	3.188
MS.1175        	3.52           	3.515
MS.1176        	3.512          	3.287
MS.1177        	3.505          	3.277
MS.1178        	3.497          	3.283
MS.1179        	3.49           	3.301
MS.1180        	3.485          	3.194
MS.1181        	3.477          	3.186
MS.1182        	3.47           	3.227
MS.1183        	3.462          	3.341
MS.1184        	3.457          	3.259
MS.1185        	3.45           	3.196
MS.1186        	3.442          	3.287
MS.1187        	3.435          	3.142
MS.1188        	3.43           	3.152
MS.1189        	3.422          	3.122
MS.1190        	3.415          	3.231
MS.1191        	3.408          	3.074
MS.1192        	3.402          	3.112
MS.1193        	3.395          	3.102
MS.1194        	3.387          	3.06
MS.1195        	3.38           	3.104
MS.1196        	3.375          	3.11
MS.1197        	3.367          	3.076
MS.1198        	3.36           	2.963
MS.1199        	3.355          	3.086
MS.1200        	3.347          	2.965
MS.1201        	3.34           	3.074
MS.1202        	3.335          	3.027
MS.1203        	3.327          	3.033
MS.1204        	3.32           	2.876
MS.1205        	3.315          	2.812
MS.1206        	3.307          	2.977
MS.1207        	3.3            	2.82
MS.1208        	3.295          	2.84
MS.1209        	3.287          	2.848
MS.1210        	3.28           	2.719
MS.1211        	3.275          	2.985
MS.1212        	3.267          	2.794
MS.1213        	3.262          	2.669
MS.1214        	3.255          	2.747
MS.1215        	3.247          	2.641
MS.1216        	3.242          	2.624
MS.1217        	3.235          	2.757
MS.1218        	3.23           	2.761
MS.1219        	3.222          	2.618
MS.1220        	3.215          	2.598
MS.1221        	3.21           	2.524
MS.1222        	3.202          	2.582
MS.1223        	3.197          	2.338
MS.1224        	3.19           	2.451
MS.1225        	3.185          	2.5
MS.1226        	3.178          	2.485
MS.1227        	3.172          	2.546
MS.1228        	3.165          	2.51
MS.1229        	3.16           	2.379
MS.1230        	3.152          	2.244
MS.1231        	3.145          	2.304
MS.1232        	3.14           	2.31
MS.1233        	3.132          	2.381
MS.1234        	3.127          	2.179
MS.1235        	3.12           	2.26
MS.1236        	3.115          	2.304
MS.1237        	3.107          	2.117
MS.1238        	3.102          	2.216
MS.1239        	3.097          	2.389
MS.1240        	3.09           	1.994
MS.1241        	3.085          	2.111
MS.1242        	3.077          	2.155
MS.1243        	3.072          	2.224
MS.1244        	3.065          	2.199
MS.1245        	3.06           	2.091
MS.1246        	3.053          	2.075
MS.1247        	3.047          	2.052
MS.1248        	3.04           	2.101
MS.1249        	3.035          	2.075
MS.1250        	3.03           	1.958
MS.1251        	3.023          	1.936
MS.1252        	3.017          	1.946
MS.1253        	3.01           	1.907
MS.1254        	3.005          	1.913
MS.1255        	3              	1.926
MS.1256        	2.992          	1.899
MS.1257        	2.987          	1.895
MS.1258        	2.98           	1.801
MS.1259        	2.975          	1.966
MS.1260        	2.97           	1.68
MS.1261        	2.962          	1.801
MS.1262        	2.957          	1.726
MS.1263        	2.95           	1.704
MS.1264        	2.945          	1.7
MS.1265        	2.94           	1.619
MS.1266        	2.932          	1.714
MS.1267        	2.928          	1.629
MS.1268        	2.922          	1.553
MS.1269        	2.915          	1.607
MS.1270        	2.91           	1.648
MS.1271        	2.905          	1.547
MS.1272        	2.898          	1.541
MS.1273        	2.892          	1.523
MS.1274        	2.888          	1.404
MS.1275        	2.88           	1.462
MS.1276        	2.875          	1.541
MS.1277        	2.87           	1.521
MS.1278        	2.865          	1.537
MS.1279        	2.857          	1.42
MS.1280        	2.852          	1.452
MS.1281        	2.847          	1.388
MS.1282        	2.84           	1.261
MS.1283        	2.835          	1.406
MS.1284        	2.83           	1.4
MS.1285        	2.825          	1.398
MS.1286        	2.817          	1.263
MS.1287        	2.812          	1.313
MS.1288        	2.807          	1.303
MS.1289        	2.803          	1.221
MS.1290        	2.795          	1.217
MS.1291        	2.79           	1.158
MS.1292        	2.785          	1.166
MS.1293        	2.78           	1.18
MS.1294        	2.775          	1.172
MS.1295        	2.767          	1.11
MS.1296        	2.763          	1.18
MS.1297        	2.757          	1.146
MS.1298        	2.753          	1.196
MS.1299        	2.745          	1.223
MS.1300        	2.74           	1.128
MS.1301        	2.735          	1.031
MS.1302        	2.73           	1.108
MS.1303        	2.725          	0.969
MS.1304        	2.72           	1.16
MS.1305        	2.712          	1.047
MS.1306        	2.707          	1.033
MS.1307        	2.702          	0.957
MS.1308        	2.697          	0.985
MS.1309        	2.692          	1.047
MS.1310        	2.688          	0.866
MS.1311        	2.68           	0.84
MS.1312        	2.675          	0.929
MS.1313        	2.67           	0.826
MS.1314        	2.665          	0.882
MS.1315        	2.66           	0.862
MS.1316        	2.655          	0.84
MS.1317        	2.65           	0.852
MS.1318        	2.645          	0.882
MS.1319        	2.638          	0.755
MS.1320        	2.632          	0.751
MS.1321        	2.628          	0.781
MS.1322        	2.622          	0.679
MS.1323        	2.617          	0.659
MS.1324        	2.612          	0.743
MS.1325        	2.607          	0.784
MS.1326        	2.602          	0.761
MS.1327        	2.597          	0.665
MS.1328        	2.592          	0.657
MS.1329        	2.585          	0.592
MS.1330        	2.58           	0.659
MS.1331        	2.575          	0.628
MS.1332        	2.57           	0.574
MS.1333        	2.565          	0.62
MS.1334        	2.56           	0.558
MS.1335        	2.555          	0.532
MS.1336        	2.55           	0.582
MS.1337        	2.545          	0.461
MS.1338        	2.54           	0.518
MS.1339        	2.535          	0.487
MS.1340        	2.53           	0.381
MS.1341        	2.525          	0.512
MS.1342        	2.52           	0.588
MS.1343        	2.515          	0.367
MS.1344        	2.51           	0.479
MS.1345        	2.505          	0.471
MS.1346        	2.5            	0.35
MS.1347        	2.495          	0.395
MS.1348        	2.49           	0.342
MS.1349        	2.485          	0.308
MS.1350        	2.48           	0.431
MS.1351        	2.475          	0.29
MS.1352        	2.47           	0.3
MS.1353        	2.465          	0.324
MS.1354        	2.46           	0.328
MS.1355        	2.455          	0.264
MS.1356        	2.45           	0.29
MS.1357        	2.445          	0.308
MS.1358        	2.44           	0.268
MS.1359        	2.435          	0.3
MS.1360        	2.43           	0.3
MS.1361        	2.425          	0.252
MS.1362        	2.42           	0.298
MS.1363        	2.415          	0.254
MS.1364        	2.412          	0.165
MS.1365        	2.408          	0.177
MS.1366        	2.402          	0.135
MS.1367        	2.398          	0.145
MS.1368        	2.392          	0.109
MS.1369        	2.388          	0.157
MS.1370        	2.382          	0.127
MS.1371        	2.378          	0.203
MS.1372        	2.372          	0.205
MS.1373        	2.367          	0.127
MS.1374        	2.362          	0.125
MS.1375        	2.36           	0.123
MS.1376        	2.355          	0.107
MS.1377        	2.35           	0.145
MS.1378        	2.345          	0.087
MS.1379        	2.34           	0.103
MS.1380        	2.335          	0.143
MS.1381        	2.33           	0.105
MS.1382        	2.325          	0.093
MS.1383        	2.322          	0.097
MS.1384        	2.317          	0.075
MS.1385        	2.312          	0.07
MS.1386        	2.307          	0.073
MS.1387        	2.303          	0.101
MS.1388        	2.297          	0.093
MS.1389        	2.295          	0.075
MS.1390        	2.29           	0.093
MS.1391        	2.285          	0.07
MS.1392        	2.28           	0.05
MS.1393        	2.275          	0.062
MS.1394        	2.27           	0.079
MS.1395        	2.267          	0.087
MS.1396        	2.263          	0.064
MS.1397        	2.257          	0.052
MS.1398        	2.253          	0.04
MS.1399        	2.247          	0.062
MS.1400        	2.245          	0.034
MS.1401        	2.24           	0.042
MS.1402        	2.235          	0.06
MS.1403        	2.23           	0.044
MS.1404        	2.225          	0.062
MS.1405        	2.222          	0.042
MS.1406        	2.217          	0.028
MS.1407        	2.212          	0.048
MS.1408        	2.207          	0.046
MS.1409        	2.205          	0.046
MS.1410        	2.2            	0.026
MS.1411        	2.195          	0.155
MS.1412        	2.19           	0.068
MS.1413        	2.188          	0.028
MS.1414        	2.182          	0.02
MS.1415        	2.178          	0.048
MS.1416        	2.172          	0.06
MS.1417        	2.17           	0.018
MS.1418        	2.165          	0.06
MS.1419        	2.16           	0.016
MS.1420        	2.155          	0.012
MS.1421        	2.152          	0.016
MS.1422        	2.148          	0.014
MS.1423        	2.142          	0.032
MS.1424        	2.138          	0.02
MS.1425        	2.135          	0.022
MS.1426        	2.13           	0.02
MS.1427        	2.125          	0.022
MS.1428        	2.122          	0.046
MS.1429        	2.118          	0.022
MS.1430        	2.112          	0.03
MS.1431        	2.11           	0.02
MS.1432        	2.105          	0.012
MS.1433        	2.1            	0.008
MS.1434        	2.097          	0.02
MS.1435        	2.092          	0.006
MS.1436        	2.087          	0.04
MS.1437        	2.085          	0.016
MS.1438        	2.08           	0.014
MS.1439        	2.075          	0.008
MS.1440        	2.072          	0.028
MS.1441        	2.067          	0.073
MS.1442        	2.062          	0.038
MS.1443        	2.06           	0.089
MS.1444        	2.055          	0.014
MS.1445        	2.05           	0.048
MS.1446        	2.047          	0.006
MS.1447        	2.043          	0.058
MS.1448        	2.037          	0.052
MS.1449        	2.035          	0.064
MS.1450        	2.03           	0.032
MS.1451        	2.027          	0.028
MS.1452        	2.023          	0.032
MS.1453        	2.017          	0.121
MS.1454        	2.015          	0.04
MS.1455        	2.01           	0.085
MS.1456        	2.005          	0.026
MS.1457        	2.003          	0.046
MS.1458        	1.997          	0.006
MS.1459        	1.995          	0.006
MS.1460        	1.99           	0.058
MS.1461        	1.985          	0.01
MS.1462        	1.982          	0.014
MS.1463        	1.977          	0.022
MS.1464        	1.975          	0.091
MS.1465        	1.97           	-0.004
MS.1466        	1.967          	0.064
MS.1467        	1.962          	0.077
MS.1468        	1.957          	0.046
MS.1469        	1.955          	0.054
MS.1470        	1.95           	0.038
MS.1471        	1.947          	0.008
MS.1472        	1.942          	0.012
MS.1473        	1.94           	0.087
MS.1474        	1.935          	0.095
MS.1475        	1.933          	0.018
MS.1476        	1.928          	0.036
MS.1477        	1.923          	0.04
MS.1478        	1.92           	0.036
MS.1479        	1.915          	0.046
MS.1480        	1.912          	-0.008
MS.1481        	1.907          	0.064
MS.1482        	1.905          	0.054
MS.1483        	1.9            	0.06
MS.1484        	1.897          	0.044
MS.1485        	1.892          	0.101
MS.1486        	1.89           	0.04
MS.1487        	1.885          	0.026
MS.1488        	1.882          	0.026
MS.1489        	1.877          	-0.01
MS.1490        	1.875          	0.107
MS.1491        	1.87           	0.038
MS.1492        	1.867          	0.04
MS.1493        	1.862          	0.028
MS.1494        	1.86           	0.004
MS.1495        	1.855          	0.02
MS.1496        	1.852          	0.022
DERIVED EXCITABILITY VARIABLES
Program = QTracP 9/10/2021
Threshold method = 6 (optimised for CAP, using data for present condition only)
SR method = 1 (using actual data values)
6.                 	0.000               	Peak response\(mV)
9.                 	31.8                	Temperature ( C)
17.                	62                  	Age (years)
18.                	1                   	Sex (M=1, F=2)

EXTRA VARIABLES

MScPeak(mV) = 0.02
MScS5(mA) = 1.92
MScS50(mA) = 1.68
MScS95(mA) = 1.84
MScNSteps = 50
MScSteps(%) = 821.7
MScStepMax(%) = 78.3
MScD50 = 81
MScSlope = 4.98
MScDuration(min) = -7.7
MSFTraces = 965
MSFPeakAmp(mV) = 5.9
MSFNUnits = 118
MSFMeanUnitAmp(uV) = 50
MSFHuntTime(m) = 5.49
MSFError(%) = 2.82
MSFNLarge = 36.5
MSFMedianAmp(%) = 0.697
MSFMedianAmp(mV) = 0.0411
MSFHalfAmpAmp(%) = 0.945
MSFHalfAmpAmp(mV) = 0.0557
MSFLargestAmp(%) = 2.41
MSFLargestAmp(mV) = 0.142
MSFMeanRS(%) = 2.02
MSFSizeLimit(uV) = 14.7
MSFLimitType = 1
MSFSmallestAmp(uV) = 20.8
MSFOpts = 10106121

EXTRA WAVEFORMS


!MScan Model
!118
	1	2.15	0.49	2
	2	2.3	0.72	2
	3	2.36	0.68	2
	4	2.38	0.59	2
	5	2.4	0.58	2
	6	2.44	0.57	2
	7	2.45	0.6	2
	8	2.46	1.22	2
	9	2.49	0.59	2
	10	2.5	0.66	2
	11	2.52	0.66	2
	12	2.53	0.61	2
	13	2.54	0.62	2
	14	2.56	0.65	2
	15	2.57	0.64	2
	16	2.58	0.38	2
	17	2.59	0.38	2
	18	2.59	0.39	2
	19	2.6	0.45	2
	20	2.61	0.52	2
	21	2.62	0.46	2
	22	2.63	0.53	2
	23	2.64	0.58	2
	24	2.65	0.5	2
	25	2.66	0.39	2
	26	2.67	0.51	2
	27	2.68	0.64	2
	28	2.7	0.74	2
	29	2.71	0.71	2
	30	2.73	0.53	2
	31	2.74	0.94	2
	32	2.76	0.76	2
	33	2.77	0.61	2
	34	2.79	0.6	2
	35	2.79	0.35	2
	36	2.8	0.41	2
	37	2.81	0.47	2
	38	2.82	0.51	2
	39	2.83	0.38	2
	40	2.84	0.39	2
	41	2.85	0.69	2
	42	2.86	0.76	2
	43	2.87	0.56	2
	44	2.88	0.46	2
	45	2.89	0.5	2
	46	2.91	0.58	2
	47	2.92	0.73	2
	48	2.93	0.66	2
	49	2.94	0.42	2
	50	2.94	0.39	2
	51	2.95	0.42	2
	52	2.96	0.46	2
	53	2.97	0.43	2
	54	2.97	0.42	2
	55	2.98	0.45	2
	56	2.99	0.49	2
	57	3	0.58	2
	58	3.01	0.58	2
	59	3.02	0.54	2
	60	3.03	0.95	2
	61	3.05	0.97	2
	62	3.08	1.14	2
	63	3.1	1.52	2
	64	3.13	1.25	2
	65	3.15	0.94	2
	66	3.16	0.84	2
	67	3.18	0.91	2
	68	3.19	0.98	2
	69	3.21	1.07	2
	70	3.23	1.11	2
	71	3.25	0.93	2
	72	3.26	0.84	2
	73	3.28	1.27	2
	74	3.3	1.12	2
	75	3.33	0.97	2
	76	3.35	0.91	2
	77	3.37	0.81	2
	78	3.4	1.36	2
	79	3.43	0.89	2
	80	3.46	1.03	2
	81	3.5	1.24	2
	82	3.53	1.64	2
	83	3.58	0.61	1.6
	84	3.64	1.59	2
	85	3.71	0.95	2
	86	3.77	0.76	2
	87	3.82	0.81	2
	88	3.85	1.09	2
	89	3.91	1.68	2
	90	3.98	2.05	2
	91	4.02	1.46	2
	92	4.05	1.23	2
	93	4.09	1.21	2
	94	4.12	1.34	2
	95	4.14	0.53	2
	96	4.15	0.63	2
	97	4.17	0.6	2
	98	4.18	0.54	2
	99	4.2	0.6	2
	100	4.22	0.9	2
	101	4.25	0.92	2
	102	4.29	1.49	2
	103	4.36	2.32	2.4
	104	4.5	2.24	2.4
	105	4.97	1	2
	106	5.43	0.93	2
	107	5.52	0.6	2
	108	5.66	0.7	2
	109	6.02	1.11	2
	110	6.26	1.43	2
	111	8.52	2.41	2
	112	9.27	1.29	2
	113	9.66	1.59	2
	114	9.87	0.91	2
	115	10.01	0.53	2
	116	11.12	1.55	2
	117	11.52	1.51	2
	118	12.34	1.1	2

