File:              	C:\Qtrac\Data\Daniel M Sørensen\MScan multicentre study\Data from centres\Newcastle\Processed data\SMC00226C.QZD
Name:              	UK.NEW.NC.4.2
Protocol:          	MSCAN-R2
Date:              	26/2/20
Start time:        	09:59:15
Age:               	49
Sex:               	M
Temperature:       	31.9
S/R sites:         	TA
NC/disease:        	NC
Operator:          	SM
Comments:
M-SCAN DATA (8-2.1m)
Scanpts: 49, 65, 482, 503
Stim. (mA)     	Amp. (mV)
MS.1           	18.5           	9.559
MS.2           	18.5           	9.525
MS.3           	18.5           	9.547
MS.4           	18.5           	9.569
MS.5           	18.5           	9.543
MS.6           	18.5           	9.577
MS.7           	18.5           	9.465
MS.8           	18.5           	9.465
MS.9           	18.5           	9.511
MS.10          	18.5           	9.479
MS.11          	18.5           	9.444
MS.12          	18.5           	9.483
MS.13          	18.5           	9.521
MS.14          	18.5           	9.535
MS.15          	18.5           	9.523
MS.16          	18.5           	9.499
MS.17          	18.5           	9.513
MS.18          	18.5           	9.509
MS.19          	18.5           	9.499
MS.20          	18.5           	9.555
MS.21          	18.5           	9.495
MS.22          	18.5           	9.507
MS.23          	18.5           	9.523
MS.24          	18.425         	9.533
MS.25          	18.39          	9.404
MS.26          	18.352         	9.557
MS.27          	18.315         	9.533
MS.28          	18.28          	9.497
MS.29          	18.243         	9.442
MS.30          	18.208         	9.527
MS.31          	18.17          	9.448
MS.32          	18.132         	9.378
MS.33          	18.097         	9.438
MS.34          	18.06          	9.436
MS.35          	18.025         	9.444
MS.36          	17.99          	9.517
MS.37          	17.952         	9.44
MS.38          	17.917         	9.477
MS.39          	17.882         	9.531
MS.40          	17.845         	9.666
MS.41          	17.81          	9.438
MS.42          	17.775         	9.436
MS.43          	17.74          	9.579
MS.44          	17.702         	9.495
MS.45          	17.667         	9.469
MS.46          	17.632         	9.577
MS.47          	17.597         	9.529
MS.48          	17.562         	9.517
MS.49          	17.528         	9.479
MS.50          	17.493         	9.418
MS.51          	17.458         	9.533
MS.52          	17.422         	9.553
MS.53          	17.387         	9.517
MS.54          	17.352         	9.481
MS.55          	17.317         	9.454
MS.56          	17.285         	9.485
MS.57          	17.25          	9.549
MS.58          	17.215         	9.539
MS.59          	17.18          	9.505
MS.60          	17.145         	9.513
MS.61          	17.112         	9.513
MS.62          	17.077         	9.461
MS.63          	17.042         	9.382
MS.64          	17.01          	9.44
MS.65          	16.975         	9.469
MS.66          	16.942         	9.475
MS.67          	16.907         	9.485
MS.68          	16.875         	9.493
MS.69          	16.84          	9.517
MS.70          	16.807         	9.454
MS.71          	16.772         	9.452
MS.72          	16.74          	9.493
MS.73          	16.705         	9.432
MS.74          	16.672         	9.523
MS.75          	16.64          	9.41
MS.76          	16.605         	9.446
MS.77          	16.573         	9.456
MS.78          	16.54          	9.452
MS.79          	16.507         	9.458
MS.80          	16.472         	9.43
MS.81          	16.44          	9.438
MS.82          	16.407         	9.473
MS.83          	16.375         	9.43
MS.84          	16.342         	9.458
MS.85          	16.31          	9.42
MS.86          	16.278         	9.404
MS.87          	16.245         	9.406
MS.88          	16.212         	9.416
MS.89          	16.18          	9.408
MS.90          	16.147         	9.452
MS.91          	16.115         	9.368
MS.92          	16.083         	9.483
MS.93          	16.05          	9.394
MS.94          	16.02          	9.328
MS.95          	15.987         	9.384
MS.96          	15.955         	9.35
MS.97          	15.922         	9.414
MS.98          	15.89          	9.418
MS.99          	15.86          	9.408
MS.100         	15.827         	9.501
MS.101         	15.795         	9.265
MS.102         	15.765         	9.334
MS.103         	15.733         	9.328
MS.104         	15.702         	9.249
MS.105         	15.67          	9.404
MS.106         	15.64          	9.376
MS.107         	15.608         	9.463
MS.108         	15.577         	9.187
MS.109         	15.545         	9.402
MS.110         	15.515         	9.332
MS.111         	15.483         	9.199
MS.112         	15.452         	9.352
MS.113         	15.422         	9.154
MS.114         	15.39          	9.424
MS.115         	15.36          	9.33
MS.116         	15.33          	9.36
MS.117         	15.297         	9.205
MS.118         	15.267         	9.189
MS.119         	15.237         	9.201
MS.120         	15.207         	9.273
MS.121         	15.177         	9.177
MS.122         	15.148         	9.108
MS.123         	15.115         	9.195
MS.124         	15.085         	9.064
MS.125         	15.055         	9.058
MS.126         	15.025         	9.146
MS.127         	14.995         	9.058
MS.128         	14.965         	9.058
MS.129         	14.935         	9.13
MS.130         	14.905         	8.903
MS.131         	14.877         	9.027
MS.132         	14.847         	8.854
MS.133         	14.818         	8.999
MS.134         	14.787         	8.878
MS.135         	14.757         	8.939
MS.136         	14.727         	8.776
MS.137         	14.7           	8.778
MS.138         	14.67          	8.824
MS.139         	14.64          	8.886
MS.140         	14.61          	8.868
MS.141         	14.582         	8.713
MS.142         	14.552         	8.607
MS.143         	14.523         	8.677
MS.144         	14.495         	8.673
MS.145         	14.465         	8.472
MS.146         	14.438         	8.54
MS.147         	14.407         	8.461
MS.148         	14.38          	8.631
MS.149         	14.35          	8.468
MS.150         	14.322         	8.308
MS.151         	14.292         	8.447
MS.152         	14.265         	8.466
MS.153         	14.235         	8.357
MS.154         	14.207         	8.345
MS.155         	14.18          	8.214
MS.156         	14.15          	8.186
MS.157         	14.122         	8.264
MS.158         	14.095         	8.099
MS.159         	14.065         	8.137
MS.160         	14.037         	8.194
MS.161         	14.01          	8.077
MS.162         	13.983         	8.002
MS.163         	13.955         	8.095
MS.164         	13.925         	8.024
MS.165         	13.898         	8.206
MS.166         	13.87          	8.065
MS.167         	13.842         	8.053
MS.168         	13.815         	8.043
MS.169         	13.787         	8.071
MS.170         	13.76          	7.982
MS.171         	13.733         	7.97
MS.172         	13.705         	7.835
MS.173         	13.677         	7.819
MS.174         	13.65          	7.692
MS.175         	13.622         	7.734
MS.176         	13.595         	7.829
MS.177         	13.568         	7.817
MS.178         	13.542         	7.803
MS.179         	13.515         	7.783
MS.180         	13.487         	7.712
MS.181         	13.46          	7.614
MS.182         	13.432         	7.646
MS.183         	13.407         	7.658
MS.184         	13.38          	7.493
MS.185         	13.352         	7.66
MS.186         	13.327         	7.513
MS.187         	13.3           	7.015
MS.188         	13.273         	7.41
MS.189         	13.247         	7.571
MS.190         	13.22          	7.307
MS.191         	13.195         	7.319
MS.192         	13.167         	7.348
MS.193         	13.142         	7.295
MS.194         	13.115         	7.458
MS.195         	13.09          	7.215
MS.196         	13.062         	7.203
MS.197         	13.037         	7.203
MS.198         	13.01          	7.211
MS.199         	12.985         	7.207
MS.200         	12.957         	7.108
MS.201         	12.932         	7.06
MS.202         	12.907         	7.06
MS.203         	12.88          	7.046
MS.204         	12.855         	7.084
MS.205         	12.83          	7.152
MS.206         	12.805         	6.983
MS.207         	12.778         	6.848
MS.208         	12.752         	6.333
MS.209         	12.727         	6.316
MS.210         	12.702         	6.262
MS.211         	12.677         	6.361
MS.212         	12.653         	6.602
MS.213         	12.625         	6.228
MS.214         	12.6           	5.992
MS.215         	12.575         	5.91
MS.216         	12.55          	6.057
MS.217         	12.525         	5.901
MS.218         	12.5           	5.996
MS.219         	12.475         	5.857
MS.220         	12.45          	6.014
MS.221         	12.425         	5.932
MS.222         	12.4           	6.109
MS.223         	12.375         	5.831
MS.224         	12.352         	5.7
MS.225         	12.327         	5.752
MS.226         	12.302         	5.756
MS.227         	12.278         	5.652
MS.228         	12.252         	5.613
MS.229         	12.227         	5.73
MS.230         	12.205         	5.68
MS.231         	12.18          	5.489
MS.232         	12.155         	5.346
MS.233         	12.13          	5.444
MS.234         	12.108         	5.245
MS.235         	12.082         	5.291
MS.236         	12.057         	5.444
MS.237         	12.035         	5.388
MS.238         	12.01          	5.362
MS.239         	11.988         	5.331
MS.240         	11.962         	5.156
MS.241         	11.938         	5.352
MS.242         	11.915         	5.404
MS.243         	11.89          	5.303
MS.244         	11.867         	5.092
MS.245         	11.842         	5.112
MS.246         	11.82          	5.132
MS.247         	11.795         	4.941
MS.248         	11.773         	4.981
MS.249         	11.75          	5.047
MS.250         	11.725         	5.011
MS.251         	11.702         	4.832
MS.252         	11.677         	5.118
MS.253         	11.655         	4.844
MS.254         	11.632         	5.112
MS.255         	11.61          	4.995
MS.256         	11.585         	4.896
MS.257         	11.562         	4.862
MS.258         	11.54          	4.796
MS.259         	11.517         	4.653
MS.260         	11.492         	4.667
MS.261         	11.47          	4.753
MS.262         	11.447         	4.578
MS.263         	11.425         	4.814
MS.264         	11.403         	4.772
MS.265         	11.38          	4.709
MS.266         	11.355         	4.586
MS.267         	11.332         	4.349
MS.268         	11.31          	4.582
MS.269         	11.287         	4.58
MS.270         	11.265         	4.568
MS.271         	11.242         	4.367
MS.272         	11.22          	4.3
MS.273         	11.197         	4.089
MS.274         	11.175         	4.695
MS.275         	11.153         	4.353
MS.276         	11.132         	4.191
MS.277         	11.11          	4.123
MS.278         	11.087         	3.889
MS.279         	11.065         	4.202
MS.280         	11.042         	3.909
MS.281         	11.02          	3.954
MS.282         	10.997         	3.92
MS.283         	10.977         	3.97
MS.284         	10.955         	3.744
MS.285         	10.932         	3.833
MS.286         	10.91          	3.821
MS.287         	10.89          	3.833
MS.288         	10.867         	3.656
MS.289         	10.845         	3.617
MS.290         	10.825         	3.795
MS.291         	10.802         	3.434
MS.292         	10.78          	3.368
MS.293         	10.76          	3.297
MS.294         	10.738         	3.372
MS.295         	10.717         	3.271
MS.296         	10.695         	3.108
MS.297         	10.672         	3.521
MS.298         	10.653         	3.648
MS.299         	10.63          	3.424
MS.300         	10.61          	3.035
MS.301         	10.587         	2.923
MS.302         	10.568         	2.89
MS.303         	10.545         	2.929
MS.304         	10.525         	2.937
MS.305         	10.505         	3.013
MS.306         	10.483         	2.655
MS.307         	10.462         	2.743
MS.308         	10.443         	2.9
MS.309         	10.42          	2.79
MS.310         	10.4           	2.834
MS.311         	10.38          	2.653
MS.312         	10.358         	2.604
MS.313         	10.337         	2.647
MS.314         	10.318         	2.59
MS.315         	10.295         	2.494
MS.316         	10.275         	2.268
MS.317         	10.255         	2.25
MS.318         	10.235         	2.423
MS.319         	10.215         	2.417
MS.320         	10.193         	2.191
MS.321         	10.172         	2.212
MS.322         	10.153         	2.054
MS.323         	10.132         	2.125
MS.324         	10.113         	1.911
MS.325         	10.092         	1.956
MS.326         	10.073         	1.919
MS.327         	10.052         	1.968
MS.328         	10.032         	2.004
MS.329         	10.012         	1.887
MS.330         	9.992          	1.819
MS.331         	9.972          	1.76
MS.332         	9.952          	1.839
MS.333         	9.932          	1.642
MS.334         	9.912          	1.633
MS.335         	9.892          	1.591
MS.336         	9.872          	1.762
MS.337         	9.852          	1.728
MS.338         	9.832          	1.627
MS.339         	9.812          	1.541
MS.340         	9.795          	1.43
MS.341         	9.775          	1.48
MS.342         	9.755          	1.436
MS.343         	9.735          	1.313
MS.344         	9.715          	1.402
MS.345         	9.698          	1.396
MS.346         	9.677          	1.422
MS.347         	9.657          	1.263
MS.348         	9.637          	1.122
MS.349         	9.62           	1.221
MS.350         	9.6            	1.11
MS.351         	9.58           	1.164
MS.352         	9.562          	1.059
MS.353         	9.542          	1.094
MS.354         	9.523          	1.11
MS.355         	9.505          	1.09
MS.356         	9.485          	1.039
MS.357         	9.467          	0.914
MS.358         	9.448          	0.904
MS.359         	9.43           	0.906
MS.360         	9.41           	0.781
MS.361         	9.39           	0.939
MS.362         	9.372          	0.729
MS.363         	9.352          	0.816
MS.364         	9.335          	0.844
MS.365         	9.318          	0.779
MS.366         	9.297          	0.729
MS.367         	9.28           	0.538
MS.368         	9.26           	0.628
MS.369         	9.242          	0.532
MS.370         	9.222          	0.6
MS.371         	9.205          	0.522
MS.372         	9.188          	0.57
MS.373         	9.167          	0.546
MS.374         	9.15           	0.512
MS.375         	9.132          	0.423
MS.376         	9.113          	0.534
MS.377         	9.095          	0.447
MS.378         	9.077          	0.518
MS.379         	9.06           	0.445
MS.380         	9.04           	0.536
MS.381         	9.023          	0.417
MS.382         	9.005          	0.512
MS.383         	8.988          	0.477
MS.384         	8.97           	0.393
MS.385         	8.95           	0.405
MS.386         	8.932          	0.395
MS.387         	8.915          	0.447
MS.388         	8.898          	0.387
MS.389         	8.88           	0.332
MS.390         	8.863          	0.31
MS.391         	8.845          	0.334
MS.392         	8.827          	0.334
MS.393         	8.81           	0.284
MS.394         	8.792          	0.298
MS.395         	8.775          	0.33
MS.396         	8.755          	0.286
MS.397         	8.74           	0.284
MS.398         	8.722          	0.292
MS.399         	8.705          	0.248
MS.400         	8.688          	0.312
MS.401         	8.67           	0.322
MS.402         	8.653          	0.298
MS.403         	8.635          	0.264
MS.404         	8.617          	0.288
MS.405         	8.6            	0.29
MS.406         	8.582          	0.262
MS.407         	8.565          	0.31
MS.408         	8.547          	0.294
MS.409         	8.533          	0.25
MS.410         	8.515          	0.276
MS.411         	8.497          	0.262
MS.412         	8.48           	0.272
MS.413         	8.462          	0.238
MS.414         	8.448          	0.226
MS.415         	8.43           	0.218
MS.416         	8.412          	0.234
MS.417         	8.395          	0.24
MS.418         	8.38           	0.218
MS.419         	8.363          	0.236
MS.420         	8.345          	0.171
MS.421         	8.33           	0.205
MS.422         	8.312          	0.171
MS.423         	8.295          	0.195
MS.424         	8.28           	0.193
MS.425         	8.262          	0.187
MS.426         	8.247          	0.195
MS.427         	8.23           	0.179
MS.428         	8.212          	0.189
MS.429         	8.198          	0.161
MS.430         	8.18           	0.165
MS.431         	8.165          	0.169
MS.432         	8.148          	0.177
MS.433         	8.132          	0.137
MS.434         	8.115          	0.143
MS.435         	8.1            	0.155
MS.436         	8.082          	0.147
MS.437         	8.068          	0.147
MS.438         	8.05           	0.139
MS.439         	8.035          	0.133
MS.440         	8.017          	0.109
MS.441         	8.002          	0.135
MS.442         	7.987          	0.149
MS.443         	7.97           	0.123
MS.444         	7.955          	0.125
MS.445         	7.94           	0.131
MS.446         	7.922          	0.089
MS.447         	7.907          	0.115
MS.448         	7.892          	0.095
MS.449         	7.875          	0.099
MS.450         	7.86           	0.099
MS.451         	7.845          	0.093
MS.452         	7.827          	0.087
MS.453         	7.812          	0.087
MS.454         	7.797          	0.056
MS.455         	7.782          	0.068
MS.456         	7.765          	0.062
MS.457         	7.75           	0.066
MS.458         	7.735          	0.097
MS.459         	7.72           	0.062
MS.460         	7.705          	0.068
MS.461         	7.69           	0.068
MS.462         	7.672          	0.07
MS.463         	7.657          	0.075
MS.464         	7.642          	0.068
MS.465         	7.628          	0.058
MS.466         	7.612          	0.046
MS.467         	7.597          	0.066
MS.468         	7.582          	0.062
MS.469         	7.567          	0.068
MS.470         	7.552          	0.081
MS.471         	7.537          	0.046
MS.472         	7.523          	0.06
MS.473         	7.507          	0.087
MS.474         	7.492          	0.095
MS.475         	7.477          	0.081
MS.476         	7.462          	0.06
MS.477         	7.447          	0.066
MS.478         	7.432          	0.054
MS.479         	7.418          	0.064
MS.480         	7.402          	0.068
MS.481         	7.387          	0.058
MS.482         	7.372          	0.058
MS.483         	7.357          	0.066
MS.484         	7.342          	0.046
MS.485         	7.327          	0.046
MS.486         	7.315          	0.054
MS.487         	7.3            	0.052
MS.488         	7.285          	0.058
MS.489         	7.27           	0.052
MS.490         	7.255          	0.06
MS.491         	7.24           	0.05
MS.492         	7.227          	0.052
MS.493         	7.212          	0.06
MS.494         	7.197          	0.058
MS.495         	7.182          	0.058
MS.496         	7.17           	0.05
MS.497         	7.155          	0.068
MS.498         	7.14           	0.054
MS.499         	7.125          	0.044
MS.500         	7.112          	0.036
MS.501         	7.097          	0.066
MS.502         	7.082          	0.058
MS.503         	7.07           	0.068
MS.504         	7.055          	0.056
MS.505         	7.04           	0.048
MS.506         	7.027          	0.058
MS.507         	7.012          	0.046
MS.508         	7              	0.056
MS.509         	6.985          	0.056
MS.510         	6.97           	0.066
MS.511         	6.957          	0.044
MS.512         	6.942          	0.052
MS.513         	6.93           	0.042
MS.514         	6.915          	0.054
MS.515         	6.902          	0.052
MS.516         	6.887          	0.044
MS.517         	6.875          	0.056
MS.518         	6.86           	0.054
MS.519         	6.847          	0.05
MS.520         	6.832          	0.046
MS.521         	6.82           	0.046
MS.522         	6.805          	0.05
MS.523         	6.793          	0.042
MS.524         	6.777          	0.054
MS.525         	6.765          	0.056
MS.526         	6.753          	0.038
MS.527         	6.737          	0.056
MS.528         	6.725          	0.052
MS.529         	6.71           	0.05
MS.530         	6.697          	0.081
MS.531         	6.685          	0.042
MS.532         	6.67           	0.052
MS.533         	6.657          	0.062
MS.534         	6.645          	0.054
MS.535         	6.63           	0.058
MS.536         	6.617          	0.058
MS.537         	6.605          	0.062
MS.538         	6.592          	0.06
MS.539         	6.577          	0.052
MS.540         	6.565          	0.048
MS.541         	6.552          	0.052
MS.542         	6.54           	0.062
MS.543         	6.525          	0.07
MS.544         	6.512          	0.064
MS.545         	6.5            	0.052
MS.546         	6.487          	0.06
MS.547         	6.475          	0.052
MS.548         	6.46           	0.054
MS.549         	6.447          	0.054
MS.550         	6.435          	0.07
MS.551         	6.422          	0.058
MS.552         	6.41           	0.066
MS.553         	6.398          	0.048
MS.554         	6.385          	0.064
MS.555         	6.37           	0.058
MS.556         	6.358          	0.056
MS.557         	6.345          	0.052
MS.558         	6.332          	0.044
MS.559         	6.32           	0.06
MS.560         	6.307          	0.056
MS.561         	6.295          	0.054
MS.562         	6.282          	0.06
MS.563         	6.27           	0.058
MS.564         	6.257          	0.056
MS.565         	6.245          	0.077
MS.566         	6.233          	0.058
MS.567         	6.22           	0.056
MS.568         	6.207          	0.066
MS.569         	6.195          	0.054
MS.570         	6.182          	0.06
MS.571         	6.17           	0.058
MS.572         	6.157          	0.06
MS.573         	6.145          	0.05
MS.574         	6.132          	0.075
MS.575         	6.122          	0.042
MS.576         	6.11           	0.054
MS.577         	6.097          	0.064
MS.578         	6.085          	0.06
MS.579         	6.072          	0.05
MS.580         	6.06           	0.077
MS.581         	6.047          	0.056
MS.582         	6.035          	0.052
MS.583         	6.025          	0.042
MS.584         	6.012          	0.062
MS.585         	6              	0.06
MS.586         	5.987          	0.066
MS.587         	5.975          	0.06
MS.588         	5.965          	0.06
MS.589         	5.952          	0.054
MS.590         	5.94           	0.062
MS.591         	5.927          	0.068
MS.592         	5.918          	0.056
MS.593         	5.905          	0.062
MS.594         	5.892          	0.058
MS.595         	5.88           	0.054
MS.596         	5.87           	0.05
MS.597         	5.858          	0.058
MS.598         	5.845          	0.07
MS.599         	5.835          	0.06
MS.600         	5.822          	0.056
MS.601         	5.81           	0.06
MS.602         	5.8            	0.058
MS.603         	5.787          	0.064
MS.604         	5.777          	0.05
MS.605         	5.765          	0.056
MS.606         	5.753          	0.054
MS.607         	5.742          	0.032
MS.608         	5.73           	0.04
MS.609         	5.72           	0.034
MS.610         	5.707          	0.044
MS.611         	5.695          	0.052
MS.612         	5.685          	0.058
MS.613         	5.672          	0.05
MS.614         	5.662          	0.056
MS.615         	5.65           	0.052
MS.616         	5.64           	0.036
MS.617         	5.628          	0.042
MS.618         	5.617          	0.046
MS.619         	5.605          	0.038
MS.620         	5.595          	0.02
MS.621         	5.582          	0.034
MS.622         	5.572          	0.034
MS.623         	5.56           	0.044
MS.624         	5.55           	0.034
MS.625         	5.537          	0.048
MS.626         	5.527          	0.042
MS.627         	5.517          	0.032
MS.628         	5.505          	0.042
MS.629         	5.495          	0.036
MS.630         	5.483          	0.036
MS.631         	5.472          	0.034
MS.632         	5.463          	0.054
MS.633         	5.45           	0.05
MS.634         	5.44           	0.058
MS.635         	5.43           	0.04
MS.636         	5.418          	0.042
MS.637         	5.407          	0.04
MS.638         	5.398          	0.038
MS.639         	5.385          	0.06
MS.640         	5.375          	0.042
MS.641         	5.365          	0.066
DERIVED EXCITABILITY VARIABLES
Program = QTracP 9/10/2021
Threshold method = 6 (optimised for CAP, using data for present condition only)
SR method = 1 (using actual data values)
6.                 	0.000               	Peak response\(mV)
9.                 	31.9                	Temperature ( C)
17.                	49                  	Age (years)
18.                	1                   	Sex (M=1, F=2)

EXTRA VARIABLES

MScPeak(mV) = 9.47
MScS5(mA) = 9.07
MScS50(mA) = 11.46
MScS95(mA) = 14.86
MScNSteps = 1
MScSteps(%) = 2.1
MScStepMax(%) = 2.1
MScD50 = 56
MScSlope = 4.09
MScDuration(min) = 5.9
MSFTraces = 455
MSFPeakAmp(mV) = 9.43
MSFNUnits = 157
MSFMeanUnitAmp(uV) = 60.1
MSFHuntTime(m) = 2.83
MSFError(%) = 4.19
MSFNLarge = 41.36
MSFMedianAmp(%) = 0.471
MSFMedianAmp(mV) = 0.0444
MSFHalfAmpAmp(%) = 0.845
MSFHalfAmpAmp(mV) = 0.0797
MSFLargestAmp(%) = 1.79
MSFLargestAmp(mV) = 0.169
MSFMeanRS(%) = 2
MSFSizeLimit(uV) = 23.6
MSFLimitType = 1
MSFSmallestAmp(uV) = 24.8
MSFOpts = 10106121

EXTRA WAVEFORMS


!MScan Model
!157
	1	7.79	0.31	2
	2	7.92	0.28	2
	3	8.1	0.44	2
	4	8.26	0.38	2
	5	8.37	0.33	2
	6	8.52	0.46	2
	7	8.74	0.58	2
	8	8.86	0.55	2
	9	8.94	0.43	2
	10	9.02	0.46	2
	11	9.1	0.56	2
	12	9.15	0.62	2
	13	9.22	0.48	2
	14	9.24	0.33	2
	15	9.27	0.32	2
	16	9.3	0.56	2
	17	9.33	0.43	2
	18	9.35	0.27	2
	19	9.37	0.35	2
	20	9.39	0.32	2
	21	9.41	0.29	2
	22	9.43	0.3	2
	23	9.45	0.32	2
	24	9.47	0.26	2
	25	9.48	0.28	2
	26	9.5	0.3	2
	27	9.51	0.32	2
	28	9.53	0.42	2
	29	9.57	0.56	2
	30	9.6	0.56	2
	31	9.63	0.56	2
	32	9.65	0.28	2
	33	9.67	0.3	2
	34	9.68	0.29	2
	35	9.7	0.29	2
	36	9.72	0.3	2
	37	9.74	0.32	2
	38	9.75	0.3	2
	39	9.77	0.33	2
	40	9.79	0.34	2
	41	9.8	0.34	2
	42	9.82	0.33	2
	43	9.84	0.34	2
	44	9.86	0.35	2
	45	9.88	0.32	2
	46	9.9	0.29	2
	47	9.92	0.31	2
	48	9.94	0.36	2
	49	9.96	0.33	2
	50	9.98	0.44	2
	51	10	0.46	2
	52	10.01	0.42	2
	53	10.03	0.37	2
	54	10.05	0.31	2
	55	10.07	0.28	2
	56	10.08	0.27	2
	57	10.1	0.29	2
	58	10.11	0.33	2
	59	10.13	0.37	2
	60	10.14	0.34	2
	61	10.16	0.32	2
	62	10.17	0.27	2
	63	10.18	0.31	2
	64	10.2	0.32	2
	65	10.21	0.35	2
	66	10.22	0.35	2
	67	10.24	0.37	2
	68	10.26	0.52	2
	69	10.28	0.47	2
	70	10.3	0.39	2
	71	10.32	0.35	2
	72	10.34	0.59	2
	73	10.38	0.94	2
	74	10.42	1.02	2
	75	10.48	1.32	2
	76	10.54	1.35	2
	77	10.6	1.18	2
	78	10.66	1.26	2
	79	10.71	1.22	2
	80	10.76	1.24	2
	81	10.84	1.7	2
	82	10.89	1.05	2
	83	10.93	0.86	2
	84	10.98	0.99	2
	85	11.02	1	2
	86	11.06	0.97	2
	87	11.11	0.94	2
	88	11.16	0.84	2
	89	11.23	1.51	2
	90	11.32	1.51	2
	91	11.42	1.65	2
	92	11.5	0.89	2
	93	11.6	1.18	2
	94	11.68	0.93	2
	95	11.76	1.11	2
	96	11.87	1.17	2
	97	11.94	0.7	2
	98	12	0.8	2
	99	12.06	0.94	2
	100	12.12	0.7	2
	101	12.16	0.46	2
	102	12.19	0.61	2
	103	12.24	0.7	2
	104	12.31	0.89	2
	105	12.39	1.19	2
	106	12.47	1.61	2
	107	12.52	0.81	2
	108	12.57	1.42	2
	109	12.61	1.09	2
	110	12.66	1.19	2
	111	12.7	0.68	2
	112	12.74	1.16	2
	113	12.78	1.49	2
	114	12.82	0.71	2
	115	12.86	1.19	2
	116	12.93	1.14	2
	117	12.93	0.36	2
	118	13.04	1.79	2
	119	13.18	1.55	2
	120	13.3	1.37	2
	121	13.41	1.22	2
	122	13.5	1.05	2
	123	13.55	0.56	2
	124	13.59	0.56	2
	125	13.63	0.47	2
	126	13.69	0.63	2
	127	13.76	0.53	2
	128	13.84	0.66	2
	129	13.92	0.57	2
	130	13.99	0.7	2
	131	14.06	0.77	2
	132	14.1	0.34	2
	133	14.17	0.42	2
	134	14.2	0.38	2
	135	14.23	0.36	2
	136	14.26	0.35	2
	137	14.3	0.37	2
	138	14.33	0.41	2
	139	14.36	0.41	2
	140	14.4	0.49	2
	141	14.44	0.46	2
	142	14.47	0.4	2
	143	14.52	0.45	2
	144	14.56	0.48	2
	145	14.61	0.45	2
	146	14.65	0.48	2
	147	14.71	0.6	2
	148	14.76	0.5	2
	149	14.82	0.45	2
	150	14.87	0.48	2
	151	14.93	0.43	2
	152	14.99	0.46	2
	153	15.05	0.48	2
	154	15.15	0.76	2
	155	15.37	1.35	2
	156	16.2	1.07	2
	157	16.2	0.27	2

