File:              	C:\Qtrac\Data\Daniel M Sørensen\MScan multicentre study\Data from centres\Newcastle\Processed data\SMC00224C.QZD
Name:              	UK.NEW.NC.7.1
Protocol:          	MSCAN-R2
Date:              	24/2/20
Start time:        	14:35:45
Age:               	56
Sex:               	M
Temperature:       	30.9
S/R sites:         	TA
NC/disease:        	NC
Operator:          	SM
Comments:
M-SCAN DATA (7.8-1.5m)
Scanpts: 76, 91, 649, 670
Stim. (mA)     	Amp. (mV)
MS.1           	20             	9.14
MS.2           	20             	9.15
MS.3           	20             	9.158
MS.4           	20             	9.09
MS.5           	20             	9.092
MS.6           	20             	9.074
MS.7           	20             	9.082
MS.8           	20             	9.044
MS.9           	20             	9.078
MS.10          	20             	9.078
MS.11          	20             	9.078
MS.12          	20             	9.078
MS.13          	20             	9.052
MS.14          	20             	9.05
MS.15          	20             	9.064
MS.16          	20             	9.046
MS.17          	20             	9.058
MS.18          	20             	9.038
MS.19          	20             	9.038
MS.20          	20             	9.017
MS.21          	20             	9.044
MS.22          	20             	9.038
MS.23          	20             	9.07
MS.24          	19.92          	9.011
MS.25          	19.88          	9.048
MS.26          	19.84          	9.056
MS.27          	19.8           	9.023
MS.28          	19.762         	9.046
MS.29          	19.722         	9.013
MS.30          	19.682         	9.044
MS.31          	19.642         	9.023
MS.32          	19.605         	9.042
MS.33          	19.565         	9.036
MS.34          	19.525         	9.025
MS.35          	19.487         	9.007
MS.36          	19.448         	9.029
MS.37          	19.41          	9.036
MS.38          	19.37          	9.038
MS.39          	19.333         	9.027
MS.40          	19.292         	9.021
MS.41          	19.255         	9.034
MS.42          	19.215         	9.046
MS.43          	19.177         	9.021
MS.44          	19.14          	9.064
MS.45          	19.1           	9.017
MS.46          	19.062         	9.017
MS.47          	19.025         	9.036
MS.48          	18.987         	9.036
MS.49          	18.948         	9.034
MS.50          	18.91          	9.031
MS.51          	18.872         	9.023
MS.52          	18.835         	9.023
MS.53          	18.797         	9.046
MS.54          	18.76          	9.042
MS.55          	18.722         	9.042
MS.56          	18.685         	9.036
MS.57          	18.647         	9.056
MS.58          	18.61          	9.054
MS.59          	18.573         	9.056
MS.60          	18.535         	9.058
MS.61          	18.5           	9.068
MS.62          	18.462         	9.08
MS.63          	18.425         	9.058
MS.64          	18.387         	9.052
MS.65          	18.352         	9.074
MS.66          	18.315         	9.07
MS.67          	18.278         	9.052
MS.68          	18.243         	9.058
MS.69          	18.205         	9.066
MS.70          	18.17          	9.068
MS.71          	18.132         	9.078
MS.72          	18.097         	9.068
MS.73          	18.06          	9.062
MS.74          	18.025         	9.066
MS.75          	17.987         	9.076
MS.76          	17.952         	9.092
MS.77          	17.917         	9.084
MS.78          	17.88          	9.086
MS.79          	17.845         	9.068
MS.80          	17.81          	9.064
MS.81          	17.775         	9.054
MS.82          	17.737         	9.064
MS.83          	17.702         	9.076
MS.84          	17.667         	9.062
MS.85          	17.632         	9.084
MS.86          	17.597         	9.06
MS.87          	17.562         	9.064
MS.88          	17.528         	9.076
MS.89          	17.493         	9.038
MS.90          	17.458         	9.084
MS.91          	17.422         	9.08
MS.92          	17.387         	9.064
MS.93          	17.352         	9.07
MS.94          	17.317         	9.082
MS.95          	17.282         	9.078
MS.96          	17.247         	9.08
MS.97          	17.215         	9.064
MS.98          	17.18          	9.072
MS.99          	17.145         	9.072
MS.100         	17.11          	9.007
MS.101         	17.077         	9.074
MS.102         	17.042         	9.023
MS.103         	17.01          	9.042
MS.104         	16.975         	9.015
MS.105         	16.94          	9.084
MS.106         	16.907         	8.991
MS.107         	16.872         	9.076
MS.108         	16.84          	9.011
MS.109         	16.805         	9.082
MS.110         	16.772         	9.084
MS.111         	16.74          	9.034
MS.112         	16.705         	9.076
MS.113         	16.672         	9.072
MS.114         	16.637         	9.048
MS.115         	16.605         	9.06
MS.116         	16.573         	9.038
MS.117         	16.54          	9.034
MS.118         	16.505         	8.886
MS.119         	16.472         	9.005
MS.120         	16.44          	8.893
MS.121         	16.407         	8.973
MS.122         	16.375         	8.965
MS.123         	16.342         	8.935
MS.124         	16.31          	8.991
MS.125         	16.278         	9.052
MS.126         	16.245         	8.935
MS.127         	16.212         	8.947
MS.128         	16.18          	8.931
MS.129         	16.147         	8.953
MS.130         	16.115         	8.891
MS.131         	16.083         	8.953
MS.132         	16.05          	8.844
MS.133         	16.017         	8.86
MS.134         	15.985         	8.947
MS.135         	15.955         	8.929
MS.136         	15.922         	8.983
MS.137         	15.89          	8.804
MS.138         	15.86          	8.864
MS.139         	15.827         	8.824
MS.140         	15.795         	8.907
MS.141         	15.765         	8.78
MS.142         	15.733         	8.957
MS.143         	15.7           	8.905
MS.144         	15.67          	8.854
MS.145         	15.637         	8.848
MS.146         	15.608         	8.842
MS.147         	15.575         	8.798
MS.148         	15.545         	8.786
MS.149         	15.515         	8.766
MS.150         	15.483         	8.913
MS.151         	15.452         	8.741
MS.152         	15.42          	8.798
MS.153         	15.39          	8.76
MS.154         	15.36          	8.816
MS.155         	15.327         	8.818
MS.156         	15.297         	8.741
MS.157         	15.267         	8.721
MS.158         	15.237         	8.721
MS.159         	15.207         	8.723
MS.160         	15.175         	8.756
MS.161         	15.145         	8.758
MS.162         	15.115         	8.647
MS.163         	15.085         	8.717
MS.164         	15.055         	8.669
MS.165         	15.025         	8.671
MS.166         	14.995         	8.721
MS.167         	14.965         	8.699
MS.168         	14.935         	8.713
MS.169         	14.905         	8.655
MS.170         	14.875         	8.671
MS.171         	14.845         	8.671
MS.172         	14.818         	8.713
MS.173         	14.787         	8.651
MS.174         	14.757         	8.655
MS.175         	14.727         	8.607
MS.176         	14.697         	8.679
MS.177         	14.67          	8.651
MS.178         	14.64          	8.598
MS.179         	14.61          	8.623
MS.180         	14.58          	8.607
MS.181         	14.552         	8.651
MS.182         	14.523         	8.564
MS.183         	14.495         	8.586
MS.184         	14.465         	8.598
MS.185         	14.435         	8.586
MS.186         	14.407         	8.566
MS.187         	14.377         	8.588
MS.188         	14.35          	8.486
MS.189         	14.32          	8.596
MS.190         	14.292         	8.572
MS.191         	14.265         	8.59
MS.192         	14.235         	8.604
MS.193         	14.207         	8.318
MS.194         	14.177         	8.496
MS.195         	14.15          	8.562
MS.196         	14.122         	8.53
MS.197         	14.092         	8.474
MS.198         	14.065         	8.351
MS.199         	14.037         	8.542
MS.200         	14.01          	8.252
MS.201         	13.983         	8.476
MS.202         	13.952         	8.492
MS.203         	13.925         	8.196
MS.204         	13.898         	8.502
MS.205         	13.87          	8.232
MS.206         	13.842         	8.204
MS.207         	13.815         	8.214
MS.208         	13.787         	8.453
MS.209         	13.76          	8.165
MS.210         	13.733         	8.236
MS.211         	13.705         	8.393
MS.212         	13.677         	8.151
MS.213         	13.65          	8.2
MS.214         	13.622         	8.121
MS.215         	13.595         	8.049
MS.216         	13.568         	8.085
MS.217         	13.54          	8.071
MS.218         	13.515         	8.111
MS.219         	13.487         	8.039
MS.220         	13.46          	8.024
MS.221         	13.432         	8.121
MS.222         	13.407         	7.849
MS.223         	13.38          	7.734
MS.224         	13.352         	7.873
MS.225         	13.325         	7.803
MS.226         	13.3           	7.92
MS.227         	13.273         	7.799
MS.228         	13.247         	7.688
MS.229         	13.22          	7.926
MS.230         	13.193         	7.853
MS.231         	13.167         	7.658
MS.232         	13.14          	7.535
MS.233         	13.115         	7.817
MS.234         	13.087         	7.686
MS.235         	13.062         	7.893
MS.236         	13.035         	7.475
MS.237         	13.01          	7.535
MS.238         	12.985         	7.565
MS.239         	12.957         	7.583
MS.240         	12.932         	7.454
MS.241         	12.907         	7.593
MS.242         	12.88          	7.589
MS.243         	12.855         	7.287
MS.244         	12.83          	7.444
MS.245         	12.802         	7.221
MS.246         	12.778         	7.211
MS.247         	12.752         	7.271
MS.248         	12.727         	7.027
MS.249         	12.702         	6.915
MS.250         	12.675         	6.882
MS.251         	12.65          	7.037
MS.252         	12.625         	6.913
MS.253         	12.6           	6.981
MS.254         	12.575         	7.189
MS.255         	12.55          	7.07
MS.256         	12.525         	7.178
MS.257         	12.5           	6.81
MS.258         	12.475         	6.651
MS.259         	12.45          	6.747
MS.260         	12.425         	6.826
MS.261         	12.4           	6.49
MS.262         	12.375         	6.768
MS.263         	12.35          	6.625
MS.264         	12.325         	6.665
MS.265         	12.302         	6.796
MS.266         	12.278         	6.518
MS.267         	12.252         	6.665
MS.268         	12.227         	6.486
MS.269         	12.202         	6.439
MS.270         	12.18          	6.433
MS.271         	12.155         	6.27
MS.272         	12.13          	6.395
MS.273         	12.108         	6.351
MS.274         	12.082         	6.373
MS.275         	12.057         	6.28
MS.276         	12.035         	6.28
MS.277         	12.01          	6.326
MS.278         	11.985         	6.141
MS.279         	11.962         	6.103
MS.280         	11.938         	6.113
MS.281         	11.915         	6.145
MS.282         	11.89          	6.049
MS.283         	11.867         	6.004
MS.284         	11.842         	6.014
MS.285         	11.82          	6.047
MS.286         	11.795         	6.071
MS.287         	11.773         	6.002
MS.288         	11.747         	5.99
MS.289         	11.725         	5.869
MS.290         	11.702         	5.787
MS.291         	11.677         	5.853
MS.292         	11.655         	5.857
MS.293         	11.632         	5.76
MS.294         	11.608         	5.569
MS.295         	11.585         	5.893
MS.296         	11.562         	5.682
MS.297         	11.54          	5.642
MS.298         	11.515         	5.69
MS.299         	11.492         	5.557
MS.300         	11.47          	5.702
MS.301         	11.447         	5.307
MS.302         	11.425         	5.507
MS.303         	11.403         	5.323
MS.304         	11.377         	5.396
MS.305         	11.355         	5.36
MS.306         	11.332         	5.267
MS.307         	11.31          	5.108
MS.308         	11.287         	5.106
MS.309         	11.265         	5.166
MS.310         	11.242         	5.182
MS.311         	11.22          	5.271
MS.312         	11.197         	5.017
MS.313         	11.175         	5.074
MS.314         	11.153         	4.884
MS.315         	11.13          	5.07
MS.316         	11.108         	4.78
MS.317         	11.087         	4.846
MS.318         	11.065         	4.798
MS.319         	11.042         	4.844
MS.320         	11.02          	4.788
MS.321         	10.997         	4.671
MS.322         	10.975         	4.635
MS.323         	10.955         	4.433
MS.324         	10.932         	4.538
MS.325         	10.91          	4.439
MS.326         	10.887         	4.635
MS.327         	10.867         	4.453
MS.328         	10.845         	4.369
MS.329         	10.823         	4.326
MS.330         	10.802         	4.369
MS.331         	10.78          	4.214
MS.332         	10.76          	4.127
MS.333         	10.738         	4.276
MS.334         	10.715         	4.284
MS.335         	10.695         	4.059
MS.336         	10.672         	4.03
MS.337         	10.653         	4.163
MS.338         	10.63          	4.065
MS.339         	10.61          	3.932
MS.340         	10.587         	4.024
MS.341         	10.568         	4.002
MS.342         	10.545         	3.867
MS.343         	10.525         	3.781
MS.344         	10.502         	3.823
MS.345         	10.483         	3.881
MS.346         	10.462         	3.779
MS.347         	10.44          	3.831
MS.348         	10.42          	3.754
MS.349         	10.4           	3.855
MS.350         	10.377         	3.545
MS.351         	10.358         	3.525
MS.352         	10.337         	3.436
MS.353         	10.318         	3.557
MS.354         	10.295         	3.589
MS.355         	10.275         	3.412
MS.356         	10.255         	3.398
MS.357         	10.235         	3.362
MS.358         	10.212         	3.245
MS.359         	10.193         	3.18
MS.360         	10.172         	3.132
MS.361         	10.153         	3.255
MS.362         	10.132         	3.261
MS.363         	10.113         	3.126
MS.364         	10.092         	3.201
MS.365         	10.073         	3.158
MS.366         	10.052         	3.021
MS.367         	10.032         	2.973
MS.368         	10.012         	2.993
MS.369         	9.992          	2.965
MS.370         	9.972          	2.987
MS.371         	9.952          	2.989
MS.372         	9.932          	2.959
MS.373         	9.912          	2.963
MS.374         	9.892          	2.929
MS.375         	9.872          	2.929
MS.376         	9.852          	2.836
MS.377         	9.832          	2.947
MS.378         	9.812          	2.983
MS.379         	9.792          	2.84
MS.380         	9.775          	2.854
MS.381         	9.755          	2.729
MS.382         	9.735          	2.689
MS.383         	9.715          	2.767
MS.384         	9.695          	2.705
MS.385         	9.677          	2.653
MS.386         	9.657          	2.763
MS.387         	9.637          	2.6
MS.388         	9.62           	2.487
MS.389         	9.6            	2.506
MS.390         	9.58           	2.673
MS.391         	9.562          	2.61
MS.392         	9.542          	2.598
MS.393         	9.523          	2.59
MS.394         	9.505          	2.624
MS.395         	9.485          	2.429
MS.396         	9.465          	2.477
MS.397         	9.448          	2.475
MS.398         	9.427          	2.55
MS.399         	9.41           	2.449
MS.400         	9.39           	2.453
MS.401         	9.372          	2.276
MS.402         	9.352          	2.393
MS.403         	9.335          	2.328
MS.404         	9.315          	2.349
MS.405         	9.297          	2.371
MS.406         	9.28           	2.254
MS.407         	9.26           	2.308
MS.408         	9.242          	2.332
MS.409         	9.222          	2.25
MS.410         	9.205          	2.34
MS.411         	9.188          	2.286
MS.412         	9.167          	2.306
MS.413         	9.15           	2.26
MS.414         	9.132          	2.222
MS.415         	9.113          	2.197
MS.416         	9.095          	2.21
MS.417         	9.077          	2.147
MS.418         	9.057          	2.099
MS.419         	9.04           	2.095
MS.420         	9.023          	2.147
MS.421         	9.005          	2.054
MS.422         	8.988          	2.024
MS.423         	8.967          	2.006
MS.424         	8.95           	2.067
MS.425         	8.932          	1.996
MS.426         	8.915          	2.012
MS.427         	8.898          	1.97
MS.428         	8.88           	1.893
MS.429         	8.863          	1.891
MS.430         	8.845          	1.865
MS.431         	8.825          	1.783
MS.432         	8.807          	1.869
MS.433         	8.79           	1.803
MS.434         	8.773          	1.738
MS.435         	8.755          	1.841
MS.436         	8.738          	1.738
MS.437         	8.72           	1.702
MS.438         	8.702          	1.748
MS.439         	8.685          	1.738
MS.440         	8.67           	1.674
MS.441         	8.653          	1.627
MS.442         	8.635          	1.682
MS.443         	8.617          	1.587
MS.444         	8.6            	1.591
MS.445         	8.582          	1.611
MS.446         	8.565          	1.573
MS.447         	8.547          	1.513
MS.448         	8.53           	1.527
MS.449         	8.515          	1.539
MS.450         	8.497          	1.521
MS.451         	8.48           	1.531
MS.452         	8.462          	1.442
MS.453         	8.448          	1.468
MS.454         	8.43           	1.43
MS.455         	8.412          	1.41
MS.456         	8.395          	1.46
MS.457         	8.38           	1.436
MS.458         	8.363          	1.388
MS.459         	8.345          	1.44
MS.460         	8.33           	1.362
MS.461         	8.312          	1.374
MS.462         	8.295          	1.382
MS.463         	8.28           	1.281
MS.464         	8.262          	1.275
MS.465         	8.245          	1.279
MS.466         	8.23           	1.231
MS.467         	8.212          	1.271
MS.468         	8.198          	1.178
MS.469         	8.18           	1.283
MS.470         	8.165          	1.16
MS.471         	8.148          	1.285
MS.472         	8.132          	1.208
MS.473         	8.115          	1.184
MS.474         	8.1            	1.18
MS.475         	8.082          	1.118
MS.476         	8.068          	1.088
MS.477         	8.05           	1.128
MS.478         	8.035          	1.092
MS.479         	8.017          	0.987
MS.480         	8.002          	1.08
MS.481         	7.987          	1.08
MS.482         	7.97           	1.043
MS.483         	7.955          	1.043
MS.484         	7.938          	1.027
MS.485         	7.922          	1.001
MS.486         	7.907          	1.009
MS.487         	7.89           	0.868
MS.488         	7.875          	0.933
MS.489         	7.86           	0.961
MS.490         	7.845          	0.935
MS.491         	7.827          	0.959
MS.492         	7.812          	0.844
MS.493         	7.797          	0.844
MS.494         	7.782          	0.906
MS.495         	7.765          	0.902
MS.496         	7.75           	0.963
MS.497         	7.735          	0.83
MS.498         	7.72           	0.798
MS.499         	7.705          	0.806
MS.500         	7.688          	0.777
MS.501         	7.672          	0.729
MS.502         	7.657          	0.725
MS.503         	7.642          	0.846
MS.504         	7.628          	0.834
MS.505         	7.612          	0.792
MS.506         	7.597          	0.794
MS.507         	7.582          	0.731
MS.508         	7.567          	0.552
MS.509         	7.552          	0.683
MS.510         	7.537          	0.602
MS.511         	7.52           	0.63
MS.512         	7.505          	0.495
MS.513         	7.49           	0.582
MS.514         	7.475          	0.554
MS.515         	7.462          	0.568
MS.516         	7.447          	0.536
MS.517         	7.432          	0.431
MS.518         	7.418          	0.56
MS.519         	7.402          	0.588
MS.520         	7.387          	0.455
MS.521         	7.372          	0.441
MS.522         	7.357          	0.435
MS.523         	7.342          	0.417
MS.524         	7.327          	0.401
MS.525         	7.312          	0.423
MS.526         	7.3            	0.385
MS.527         	7.285          	0.385
MS.528         	7.27           	0.383
MS.529         	7.255          	0.375
MS.530         	7.24           	0.336
MS.531         	7.227          	0.417
MS.532         	7.212          	0.365
MS.533         	7.197          	0.332
MS.534         	7.182          	0.359
MS.535         	7.168          	0.413
MS.536         	7.155          	0.31
MS.537         	7.14           	0.284
MS.538         	7.125          	0.336
MS.539         	7.112          	0.302
MS.540         	7.097          	0.278
MS.541         	7.082          	0.3
MS.542         	7.07           	0.296
MS.543         	7.055          	0.29
MS.544         	7.04           	0.28
MS.545         	7.027          	0.252
MS.546         	7.012          	0.258
MS.547         	6.997          	0.248
MS.548         	6.985          	0.23
MS.549         	6.97           	0.252
MS.550         	6.957          	0.26
MS.551         	6.942          	0.236
MS.552         	6.93           	0.23
MS.553         	6.915          	0.228
MS.554         	6.902          	0.209
MS.555         	6.887          	0.216
MS.556         	6.875          	0.211
MS.557         	6.86           	0.183
MS.558         	6.847          	0.224
MS.559         	6.832          	0.205
MS.560         	6.82           	0.203
MS.561         	6.805          	0.195
MS.562         	6.793          	0.205
MS.563         	6.777          	0.205
MS.564         	6.765          	0.163
MS.565         	6.753          	0.187
MS.566         	6.737          	0.173
MS.567         	6.725          	0.147
MS.568         	6.71           	0.183
MS.569         	6.697          	0.171
MS.570         	6.685          	0.165
MS.571         	6.67           	0.173
MS.572         	6.657          	0.153
MS.573         	6.645          	0.183
MS.574         	6.63           	0.153
MS.575         	6.617          	0.169
MS.576         	6.605          	0.155
MS.577         	6.59           	0.125
MS.578         	6.577          	0.127
MS.579         	6.565          	0.149
MS.580         	6.552          	0.133
MS.581         	6.537          	0.135
MS.582         	6.525          	0.131
MS.583         	6.512          	0.107
MS.584         	6.5            	0.111
MS.585         	6.487          	0.133
MS.586         	6.472          	0.113
MS.587         	6.46           	0.107
MS.588         	6.447          	0.113
MS.589         	6.435          	0.141
MS.590         	6.422          	0.129
MS.591         	6.41           	0.121
MS.592         	6.398          	0.131
MS.593         	6.382          	0.091
MS.594         	6.37           	0.087
MS.595         	6.358          	0.079
MS.596         	6.345          	0.103
MS.597         	6.332          	0.113
MS.598         	6.32           	0.095
MS.599         	6.307          	0.103
MS.600         	6.295          	0.085
MS.601         	6.282          	0.062
MS.602         	6.27           	0.073
MS.603         	6.257          	0.077
MS.604         	6.245          	0.054
MS.605         	6.233          	0.066
MS.606         	6.22           	0.066
MS.607         	6.207          	0.068
MS.608         	6.195          	0.07
MS.609         	6.182          	0.066
MS.610         	6.17           	0.054
MS.611         	6.157          	0.054
MS.612         	6.145          	0.064
MS.613         	6.132          	0.048
MS.614         	6.12           	0.046
MS.615         	6.11           	0.046
MS.616         	6.097          	0.048
MS.617         	6.085          	0.026
MS.618         	6.072          	0.016
MS.619         	6.06           	0.038
MS.620         	6.047          	0.03
MS.621         	6.035          	0.028
MS.622         	6.025          	0.02
MS.623         	6.012          	0.03
MS.624         	6              	0.018
MS.625         	5.987          	0.03
MS.626         	5.975          	0.018
MS.627         	5.965          	0.016
MS.628         	5.952          	0.024
MS.629         	5.94           	0.034
MS.630         	5.927          	0.018
MS.631         	5.918          	0.02
MS.632         	5.905          	0.014
MS.633         	5.892          	0.022
MS.634         	5.88           	0.014
MS.635         	5.87           	0.02
MS.636         	5.858          	0.012
MS.637         	5.845          	0.02
MS.638         	5.835          	0.012
MS.639         	5.822          	0.022
MS.640         	5.81           	0.016
MS.641         	5.8            	0.016
MS.642         	5.787          	0.008
MS.643         	5.775          	0.02
MS.644         	5.765          	0.014
MS.645         	5.753          	0.014
MS.646         	5.742          	0.028
MS.647         	5.73           	0.018
MS.648         	5.717          	0.006
MS.649         	5.707          	0.014
MS.650         	5.695          	0.018
MS.651         	5.685          	0.01
MS.652         	5.672          	0.016
MS.653         	5.662          	0.016
MS.654         	5.65           	0.016
MS.655         	5.64           	0.016
MS.656         	5.628          	0.016
MS.657         	5.617          	0.012
MS.658         	5.605          	0.018
MS.659         	5.595          	0.014
MS.660         	5.582          	0.016
MS.661         	5.572          	0.012
MS.662         	5.56           	0.014
MS.663         	5.55           	0.016
MS.664         	5.537          	0.014
MS.665         	5.527          	0.014
MS.666         	5.517          	0.02
MS.667         	5.505          	0.014
MS.668         	5.495          	0.012
MS.669         	5.483          	0.01
MS.670         	5.472          	0.014
DERIVED EXCITABILITY VARIABLES
Program = QTracP 9/10/2021
Threshold method = 6 (optimised for CAP, using data for present condition only)
SR method = 1 (using actual data values)
6.                 	0.000               	Peak response\(mV)
9.                 	30.9                	Temperature ( C)
17.                	56                  	Age (years)
18.                	1                   	Sex (M=1, F=2)

EXTRA VARIABLES

MScPeak(mV) = 9.06
MScS5(mA) = 7.42
MScS50(mA) = 10.92
MScS95(mA) = 14.46
MScNSteps = 0
MScSteps(%) = 0.0
MScStepMax(%) = 0.0
MScD50 = 69
MScSlope = 3.45
MScDuration(min) = 6.3
MSFTraces = 595
MSFPeakAmp(mV) = 9.06
MSFNUnits = 160
MSFMeanUnitAmp(uV) = 56.6
MSFHuntTime(m) = 4.81
MSFError(%) = 2.36
MSFNLarge = 53.62
MSFMedianAmp(%) = 0.551
MSFMedianAmp(mV) = 0.0499
MSFHalfAmpAmp(%) = 0.617
MSFHalfAmpAmp(mV) = 0.0559
MSFLargestAmp(%) = 2.61
MSFLargestAmp(mV) = 0.236
MSFMeanRS(%) = 2
MSFSizeLimit(uV) = 22.6
MSFLimitType = 1
MSFSmallestAmp(uV) = 22.8
MSFOpts = 10106121

EXTRA WAVEFORMS


!MScan Model
!160
	1	6.12	0.38	2
	2	6.24	0.25	2
	3	6.39	0.47	2
	4	6.65	0.51	2
	5	6.81	0.45	2
	6	6.93	0.41	2
	7	7.03	0.42	2
	8	7.13	0.53	2
	9	7.2	0.44	2
	10	7.27	0.47	2
	11	7.33	0.47	2
	12	7.39	0.62	2
	13	7.44	0.48	2
	14	7.48	0.43	2
	15	7.53	0.55	2
	16	7.59	0.66	2
	17	7.65	0.65	2
	18	7.71	0.59	2
	19	7.77	0.72	2
	20	7.83	0.59	2
	21	7.88	0.45	2
	22	7.92	0.36	2
	23	7.96	0.37	2
	24	7.99	0.32	2
	25	8.02	0.31	2
	26	8.05	0.27	2
	27	8.08	0.28	2
	28	8.1	0.29	2
	29	8.13	0.27	2
	30	8.16	0.25	2
	31	8.21	0.5	2
	32	8.23	0.26	2
	33	8.26	0.26	2
	34	8.28	0.39	2
	35	8.35	0.59	2
	36	8.39	0.38	2
	37	8.43	0.5	2
	38	8.49	0.58	2
	39	8.54	0.47	2
	40	8.57	0.45	2
	41	8.62	0.44	2
	42	8.65	0.32	2
	43	8.68	0.34	2
	44	8.72	0.48	2
	45	8.74	0.32	2
	46	8.77	0.32	2
	47	8.8	0.34	2
	48	8.83	0.38	2
	49	8.86	0.49	2
	50	8.91	0.53	2
	51	8.94	0.42	2
	52	8.97	0.54	2
	53	9.03	0.59	2
	54	9.06	0.32	2
	55	9.09	0.36	2
	56	9.13	0.34	2
	57	9.16	0.36	2
	58	9.2	0.43	2
	59	9.25	0.55	2
	60	9.32	0.71	2
	61	9.4	0.73	2
	62	9.46	0.63	2
	63	9.52	0.67	2
	64	9.57	0.58	2
	65	9.63	0.63	2
	66	9.69	0.65	2
	67	9.75	0.62	2
	68	9.81	0.63	2
	69	9.86	0.75	2
	70	9.92	0.42	2
	71	9.96	0.8	2
	72	10	0.53	1.92
	73	10.04	0.58	2
	74	10.08	0.65	2
	75	10.12	0.62	2
	76	10.15	0.43	2
	77	10.18	0.43	2
	78	10.21	0.46	2
	79	10.23	0.45	2
	80	10.26	0.47	2
	81	10.29	0.49	2
	82	10.32	0.5	2
	83	10.35	0.54	2
	84	10.38	0.55	2
	85	10.41	0.55	2
	86	10.44	0.54	2
	87	10.46	0.53	2
	88	10.49	0.54	2
	89	10.52	0.54	2
	90	10.55	0.63	2
	91	10.58	0.62	2
	92	10.61	0.6	2
	93	10.65	0.6	2
	94	10.68	0.58	2
	95	10.71	0.57	2
	96	10.74	0.57	2
	97	10.76	0.44	2
	98	10.78	0.42	2
	99	10.81	0.44	2
	100	10.83	0.46	2
	101	10.85	0.47	2
	102	10.88	0.48	2
	103	10.9	0.49	2
	104	10.93	0.49	2
	105	10.95	0.48	2
	106	10.98	0.52	2
	107	11.01	0.53	2
	108	11.04	0.53	2
	109	11.06	0.53	2
	110	11.09	0.53	2
	111	11.12	0.55	2
	112	11.14	0.56	2
	113	11.17	0.56	2
	114	11.2	0.66	2
	115	11.24	0.65	2
	116	11.27	0.64	2
	117	11.3	0.64	2
	118	11.34	0.67	2
	119	11.37	0.67	2
	120	11.41	0.65	2
	121	11.44	0.66	2
	122	11.48	0.64	2
	123	11.52	0.62	2
	124	11.55	0.58	2
	125	11.59	0.57	2
	126	11.63	0.56	2
	127	11.67	0.73	2
	128	11.72	0.74	2
	129	11.76	0.71	2
	130	11.8	0.59	2
	131	11.84	0.56	2
	132	11.88	0.56	2
	133	11.93	0.57	2
	134	11.97	0.58	2
	135	12.01	0.62	2
	136	12.07	0.85	2
	137	12.13	0.84	2
	138	12.19	0.84	2
	139	12.25	0.87	2
	140	12.34	1.18	2
	141	12.43	1.25	2
	142	12.51	1.41	2
	143	12.6	1.32	2
	144	12.7	1.4	2
	145	12.79	1.47	2
	146	12.9	1.19	2
	147	13.01	1.74	2
	148	13.12	1.44	2
	149	13.27	1.12	2
	150	13.27	0.74	2
	151	13.41	1.36	2
	152	13.54	1.28	2
	153	13.7	2.61	2
	154	14.09	2.22	2
	155	14.68	1.2	2
	156	14.89	0.55	2
	157	15.46	0.78	2
	158	15.74	0.83	2
	159	15.94	1.09	2
	160	16.55	1.16	2

