File:              	C:\Qtrac\Data\Daniel M Sørensen\MScan multicentre study\Data from centres\Oslo\IronKey\Oslo_NC_first examination\SZC00528D.QZD
Name:              	NO.OSL.NC.14.1
Protocol:          	MSCAN-R2
Date:              	28/5/20
Start time:        	17:17:36
Age:               	28
Sex:               	F
Temperature:       	34.6
S/R sites:         	Peroneal TA
NC/disease:        	NC14
Operator:          	SZ
Comments:          	Test1
M-SCAN DATA (10.1-5.3m)
Scanpts: 11, 15, 439, 445
Stim. (mA)     	Amp. (mV)
MS.1           	44             	8.077
MS.2           	44             	8.053
MS.3           	44             	8.01
MS.4           	44             	8.002
MS.5           	44             	8.012
MS.6           	44             	7.988
MS.7           	44             	8.006
MS.8           	44             	7.956
MS.9           	44             	7.946
MS.10          	44             	7.952
MS.11          	44             	7.948
MS.12          	44             	7.956
MS.13          	44             	7.978
MS.14          	44             	7.95
MS.15          	44             	7.956
MS.16          	44             	7.968
MS.17          	44             	7.966
MS.18          	44             	7.992
MS.19          	44             	7.98
MS.20          	44             	7.97
MS.21          	44             	8.006
MS.22          	44             	8.018
MS.23          	44             	8.012
MS.24          	43.825         	7.966
MS.25          	43.737         	7.98
MS.26          	43.65          	7.962
MS.27          	43.562         	7.962
MS.28          	43.475         	7.962
MS.29          	43.388         	7.966
MS.30          	43.302         	7.92
MS.31          	43.215         	7.944
MS.32          	43.127         	7.902
MS.33          	43.042         	7.902
MS.34          	42.958         	7.898
MS.35          	42.87          	7.918
MS.36          	42.785         	7.908
MS.37          	42.7           	7.857
MS.38          	42.615         	7.861
MS.39          	42.53          	7.914
MS.40          	42.445         	7.869
MS.41          	42.36          	7.865
MS.42          	42.275         	7.835
MS.43          	42.19          	7.835
MS.44          	42.105         	7.811
MS.45          	42.022         	7.857
MS.46          	41.938         	7.843
MS.47          	41.855         	7.811
MS.48          	41.77          	7.791
MS.49          	41.688         	7.807
MS.50          	41.603         	7.795
MS.51          	41.52          	7.787
MS.52          	41.438         	7.736
MS.53          	41.355         	7.74
MS.54          	41.272         	7.801
MS.55          	41.19          	7.744
MS.56          	41.107         	7.787
MS.57          	41.025         	7.728
MS.58          	40.942         	7.734
MS.59          	40.862         	7.666
MS.60          	40.78          	7.728
MS.61          	40.697         	7.692
MS.62          	40.618         	7.652
MS.63          	40.535         	7.654
MS.64          	40.455         	7.694
MS.65          	40.375         	7.668
MS.66          	40.292         	7.652
MS.67          	40.212         	7.581
MS.68          	40.132         	7.614
MS.69          	40.052         	7.583
MS.70          	39.972         	7.597
MS.71          	39.892         	7.585
MS.72          	39.812         	7.569
MS.73          	39.732         	7.517
MS.74          	39.655         	7.493
MS.75          	39.575         	7.493
MS.76          	39.495         	7.483
MS.77          	39.417         	7.495
MS.78          	39.337         	7.46
MS.79          	39.26          	7.475
MS.80          	39.18          	7.44
MS.81          	39.103         	7.487
MS.82          	39.025         	7.434
MS.83          	38.947         	7.392
MS.84          	38.868         	7.422
MS.85          	38.79          	7.36
MS.86          	38.712         	7.319
MS.87          	38.635         	7.293
MS.88          	38.56          	7.289
MS.89          	38.482         	7.301
MS.90          	38.405         	7.317
MS.91          	38.327         	7.287
MS.92          	38.252         	7.293
MS.93          	38.175         	7.271
MS.94          	38.1           	7.263
MS.95          	38.022         	7.223
MS.96          	37.947         	7.221
MS.97          	37.87          	7.199
MS.98          	37.795         	7.209
MS.99          	37.72          	7.205
MS.100         	37.645         	7.152
MS.101         	37.57          	7.114
MS.102         	37.495         	7.128
MS.103         	37.42          	7.106
MS.104         	37.345         	7.1
MS.105         	37.27          	7.078
MS.106         	37.195         	7.005
MS.107         	37.12          	7.015
MS.108         	37.048         	7.027
MS.109         	36.972         	6.995
MS.110         	36.9           	7.005
MS.111         	36.825         	6.955
MS.112         	36.752         	6.943
MS.113         	36.677         	6.88
MS.114         	36.605         	6.917
MS.115         	36.532         	6.915
MS.116         	36.46          	6.854
MS.117         	36.385         	6.903
MS.118         	36.312         	6.806
MS.119         	36.24          	6.788
MS.120         	36.167         	6.83
MS.121         	36.095         	6.745
MS.122         	36.025         	6.762
MS.123         	35.952         	6.792
MS.124         	35.88          	6.731
MS.125         	35.807         	6.766
MS.126         	35.737         	6.693
MS.127         	35.665         	6.645
MS.128         	35.595         	6.608
MS.129         	35.522         	6.621
MS.130         	35.452         	6.598
MS.131         	35.382         	6.59
MS.132         	35.31          	6.512
MS.133         	35.24          	6.498
MS.134         	35.17          	6.506
MS.135         	35.1           	6.445
MS.136         	35.03          	6.463
MS.137         	34.96          	6.441
MS.138         	34.89          	6.345
MS.139         	34.82          	6.339
MS.140         	34.75          	6.274
MS.141         	34.68          	6.28
MS.142         	34.612         	6.2
MS.143         	34.542         	6.206
MS.144         	34.472         	6.268
MS.145         	34.405         	6.155
MS.146         	34.335         	6.165
MS.147         	34.267         	6.151
MS.148         	34.197         	6.105
MS.149         	34.13          	6.161
MS.150         	34.062         	6.053
MS.151         	33.995         	6.081
MS.152         	33.925         	6.093
MS.153         	33.857         	6.016
MS.154         	33.79          	5.96
MS.155         	33.722         	5.908
MS.156         	33.655         	5.887
MS.157         	33.587         	5.845
MS.158         	33.522         	5.899
MS.159         	33.455         	5.805
MS.160         	33.388         	5.718
MS.161         	33.32          	5.797
MS.162         	33.255         	5.771
MS.163         	33.188         	5.678
MS.164         	33.122         	5.67
MS.165         	33.055         	5.652
MS.166         	32.99          	5.63
MS.167         	32.923         	5.579
MS.168         	32.857         	5.541
MS.169         	32.792         	5.563
MS.170         	32.728         	5.539
MS.171         	32.66          	5.497
MS.172         	32.595         	5.456
MS.173         	32.53          	5.396
MS.174         	32.465         	5.47
MS.175         	32.4           	5.368
MS.176         	32.335         	5.297
MS.177         	32.272         	5.285
MS.178         	32.208         	5.269
MS.179         	32.142         	5.241
MS.180         	32.077         	5.162
MS.181         	32.015         	5.221
MS.182         	31.95          	5.136
MS.183         	31.887         	5.096
MS.184         	31.823         	5.062
MS.185         	31.76          	5.094
MS.186         	31.695         	5.128
MS.187         	31.632         	4.983
MS.188         	31.57          	5.052
MS.189         	31.505         	4.963
MS.190         	31.442         	5.001
MS.191         	31.38          	4.973
MS.192         	31.317         	4.981
MS.193         	31.255         	4.911
MS.194         	31.192         	4.884
MS.195         	31.13          	4.937
MS.196         	31.067         	4.862
MS.197         	31.005         	4.82
MS.198         	30.945         	4.792
MS.199         	30.882         	4.77
MS.200         	30.82          	4.687
MS.201         	30.76          	4.755
MS.202         	30.698         	4.655
MS.203         	30.637         	4.616
MS.204         	30.575         	4.556
MS.205         	30.515         	4.57
MS.206         	30.452         	4.57
MS.207         	30.392         	4.53
MS.208         	30.332         	4.536
MS.209         	30.27          	4.451
MS.210         	30.21          	4.401
MS.211         	30.15          	4.473
MS.212         	30.09          	4.343
MS.213         	30.03          	4.419
MS.214         	29.97          	4.254
MS.215         	29.91          	4.26
MS.216         	29.85          	4.334
MS.217         	29.79          	4.27
MS.218         	29.73          	4.24
MS.219         	29.672         	4.226
MS.220         	29.612         	4.236
MS.221         	29.552         	4.224
MS.222         	29.495         	4.149
MS.223         	29.435         	4.137
MS.224         	29.375         	4.097
MS.225         	29.317         	4.139
MS.226         	29.26          	4.103
MS.227         	29.2           	4.046
MS.228         	29.142         	4.061
MS.229         	29.085         	3.984
MS.230         	29.025         	3.907
MS.231         	28.967         	3.841
MS.232         	28.91          	3.825
MS.233         	28.852         	3.829
MS.234         	28.795         	3.787
MS.235         	28.737         	3.881
MS.236         	28.68          	3.918
MS.237         	28.622         	3.714
MS.238         	28.565         	3.73
MS.239         	28.507         	3.736
MS.240         	28.45          	3.752
MS.241         	28.395         	3.577
MS.242         	28.337         	3.646
MS.243         	28.28          	3.662
MS.244         	28.225         	3.555
MS.245         	28.167         	3.579
MS.246         	28.112         	3.442
MS.247         	28.055         	3.44
MS.248         	28             	3.362
MS.249         	27.942         	3.408
MS.250         	27.887         	3.428
MS.251         	27.832         	3.372
MS.252         	27.778         	3.331
MS.253         	27.72          	3.335
MS.254         	27.665         	3.237
MS.255         	27.61          	3.237
MS.256         	27.555         	3.14
MS.257         	27.5           	3.213
MS.258         	27.445         	3.225
MS.259         	27.39          	3.138
MS.260         	27.335         	3.007
MS.261         	27.28          	3.092
MS.262         	27.227         	3.031
MS.263         	27.172         	2.957
MS.264         	27.118         	2.89
MS.265         	27.062         	2.979
MS.266         	27.01          	2.923
MS.267         	26.955         	2.864
MS.268         	26.903         	2.977
MS.269         	26.847         	2.921
MS.270         	26.795         	2.85
MS.271         	26.74          	2.834
MS.272         	26.688         	2.731
MS.273         	26.635         	2.715
MS.274         	26.58          	2.804
MS.275         	26.528         	2.721
MS.276         	26.475         	2.717
MS.277         	26.422         	2.786
MS.278         	26.37          	2.727
MS.279         	26.315         	2.725
MS.280         	26.262         	2.765
MS.281         	26.21          	2.639
MS.282         	26.16          	2.552
MS.283         	26.108         	2.516
MS.284         	26.055         	2.536
MS.285         	26.002         	2.626
MS.286         	25.95          	2.477
MS.287         	25.897         	2.435
MS.288         	25.847         	2.441
MS.289         	25.795         	2.417
MS.290         	25.743         	2.369
MS.291         	25.692         	2.262
MS.292         	25.64          	2.302
MS.293         	25.59          	2.242
MS.294         	25.538         	2.252
MS.295         	25.487         	2.232
MS.296         	25.438         	2.234
MS.297         	25.385         	2.147
MS.298         	25.335         	2.218
MS.299         	25.285         	2.157
MS.300         	25.235         	2.073
MS.301         	25.182         	2.179
MS.302         	25.132         	2.036
MS.303         	25.082         	2.067
MS.304         	25.032         	2.012
MS.305         	24.983         	1.964
MS.306         	24.932         	1.911
MS.307         	24.882         	1.839
MS.308         	24.832         	1.879
MS.309         	24.782         	1.787
MS.310         	24.735         	1.954
MS.311         	24.685         	1.799
MS.312         	24.635         	1.827
MS.313         	24.585         	1.801
MS.314         	24.538         	1.805
MS.315         	24.487         	1.688
MS.316         	24.44          	1.678
MS.317         	24.39          	1.656
MS.318         	24.342         	1.611
MS.319         	24.292         	1.631
MS.320         	24.245         	1.668
MS.321         	24.195         	1.537
MS.322         	24.147         	1.571
MS.323         	24.1           	1.547
MS.324         	24.05          	1.571
MS.325         	24.002         	1.432
MS.326         	23.955         	1.488
MS.327         	23.907         	1.309
MS.328         	23.86          	1.394
MS.329         	23.812         	1.337
MS.330         	23.765         	1.366
MS.331         	23.717         	1.337
MS.332         	23.67          	1.285
MS.333         	23.622         	1.311
MS.334         	23.575         	1.311
MS.335         	23.528         	1.347
MS.336         	23.48          	1.178
MS.337         	23.435         	1.241
MS.338         	23.387         	1.186
MS.339         	23.34          	1.325
MS.340         	23.292         	1.14
MS.341         	23.247         	1.086
MS.342         	23.2           	1.106
MS.343         	23.155         	1.15
MS.344         	23.108         	1.005
MS.345         	23.062         	0.987
MS.346         	23.015         	1.108
MS.347         	22.97          	0.983
MS.348         	22.925         	0.985
MS.349         	22.877         	1.08
MS.350         	22.832         	0.922
MS.351         	22.788         	0.949
MS.352         	22.743         	0.908
MS.353         	22.695         	0.85
MS.354         	22.65          	0.866
MS.355         	22.605         	0.794
MS.356         	22.56          	0.82
MS.357         	22.515         	0.818
MS.358         	22.47          	0.763
MS.359         	22.425         	0.773
MS.360         	22.38          	0.798
MS.361         	22.335         	0.721
MS.362         	22.29          	0.769
MS.363         	22.247         	0.638
MS.364         	22.202         	0.651
MS.365         	22.157         	0.655
MS.366         	22.112         	0.628
MS.367         	22.07          	0.655
MS.368         	22.025         	0.703
MS.369         	21.98          	0.641
MS.370         	21.938         	0.62
MS.371         	21.892         	0.63
MS.372         	21.85          	0.608
MS.373         	21.805         	0.584
MS.374         	21.762         	0.504
MS.375         	21.72          	0.57
MS.376         	21.675         	0.548
MS.377         	21.632         	0.598
MS.378         	21.59          	0.526
MS.379         	21.545         	0.546
MS.380         	21.502         	0.491
MS.381         	21.46          	0.554
MS.382         	21.417         	0.508
MS.383         	21.375         	0.502
MS.384         	21.333         	0.502
MS.385         	21.29          	0.393
MS.386         	21.247         	0.445
MS.387         	21.205         	0.463
MS.388         	21.163         	0.399
MS.389         	21.12          	0.451
MS.390         	21.077         	0.405
MS.391         	21.035         	0.417
MS.392         	20.993         	0.419
MS.393         	20.95          	0.385
MS.394         	20.91          	0.365
MS.395         	20.868         	0.35
MS.396         	20.825         	0.282
MS.397         	20.785         	0.278
MS.398         	20.743         	0.332
MS.399         	20.7           	0.209
MS.400         	20.66          	0.26
MS.401         	20.618         	0.205
MS.402         	20.577         	0.292
MS.403         	20.535         	0.224
MS.404         	20.495         	0.205
MS.405         	20.455         	0.232
MS.406         	20.413         	0.181
MS.407         	20.372         	0.205
MS.408         	20.333         	0.254
MS.409         	20.29          	0.189
MS.410         	20.25          	0.147
MS.411         	20.21          	0.149
MS.412         	20.17          	0.121
MS.413         	20.13          	0.091
MS.414         	20.09          	0.097
MS.415         	20.05          	0.153
MS.416         	20.01          	0.075
MS.417         	19.97          	0.073
MS.418         	19.93          	0.085
MS.419         	19.89          	0.103
MS.420         	19.85          	0.091
MS.421         	19.81          	0.099
MS.422         	19.77          	0.103
MS.423         	19.73          	0.052
MS.424         	19.692         	0.083
MS.425         	19.653         	0.032
MS.426         	19.612         	0.02
MS.427         	19.573         	0.022
MS.428         	19.535         	0.058
MS.429         	19.495         	0.046
MS.430         	19.458         	0.026
MS.431         	19.417         	0.038
MS.432         	19.38          	0.034
MS.433         	19.34          	0.026
MS.434         	19.302         	0.018
MS.435         	19.262         	0.028
MS.436         	19.225         	0.032
MS.437         	19.185         	0.054
MS.438         	19.147         	0.024
MS.439         	19.11          	0.054
MS.440         	19.073         	0.024
MS.441         	19.032         	0.01
MS.442         	18.995         	0.02
MS.443         	18.958         	-0.004
MS.444         	18.92          	0.006
MS.445         	18.882         	0.018
MS.446         	18.845         	0.03
MS.447         	18.805         	0.01
MS.448         	18.767         	0.024
MS.449         	18.73          	0.044
MS.450         	18.692         	0.016
MS.451         	18.657         	0.014
MS.452         	18.62          	0.042
MS.453         	18.583         	0.026
MS.454         	18.545         	0.04
MS.455         	18.507         	0.042
MS.456         	18.47          	0.028
MS.457         	18.435         	0.04
MS.458         	18.397         	0.03
MS.459         	18.36          	0.026
MS.460         	18.323         	0.046
MS.461         	18.288         	0.066
MS.462         	18.25          	0.058
MS.463         	18.215         	0.04
MS.464         	18.177         	0.066
MS.465         	18.14          	0.042
MS.466         	18.105         	0.058
MS.467         	18.07          	0.056
MS.468         	18.032         	0.081
MS.469         	17.997         	0.046
MS.470         	17.96          	0.03
MS.471         	17.925         	0.058
MS.472         	17.89          	0.048
MS.473         	17.852         	0.044
MS.474         	17.817         	0.054
MS.475         	17.782         	0.048
MS.476         	17.747         	0.077
MS.477         	17.71          	0.081
MS.478         	17.675         	0.066
MS.479         	17.64          	0.056
MS.480         	17.605         	0.07
MS.481         	17.57          	0.085
MS.482         	17.535         	0.083
MS.483         	17.5           	0.06
MS.484         	17.465         	0.062
MS.485         	17.43          	0.083
MS.486         	17.395         	0.07
MS.487         	17.36          	0.097
MS.488         	17.325         	0.05
MS.489         	17.29          	0.079
MS.490         	17.257         	0.073
MS.491         	17.222         	0.079
MS.492         	17.188         	0.075
MS.493         	17.153         	0.066
MS.494         	17.12          	0.07
MS.495         	17.085         	0.068
MS.496         	17.05          	0.087
MS.497         	17.017         	0.075
MS.498         	16.983         	0.05
MS.499         	16.948         	0.068
MS.500         	16.915         	0.077
MS.501         	16.88          	0.095
MS.502         	16.847         	0.079
MS.503         	16.812         	0.081
MS.504         	16.78          	0.081
MS.505         	16.747         	0.079
MS.506         	16.712         	0.081
MS.507         	16.68          	0.091
MS.508         	16.647         	0.083
MS.509         	16.612         	0.079
MS.510         	16.58          	0.073
MS.511         	16.547         	0.097
MS.512         	16.512         	0.099
MS.513         	16.48          	0.085
MS.514         	16.448         	0.085
MS.515         	16.415         	0.066
MS.516         	16.382         	0.095
MS.517         	16.35          	0.091
MS.518         	16.317         	0.081
MS.519         	16.285         	0.054
MS.520         	16.253         	0.075
MS.521         	16.22          	0.07
MS.522         	16.188         	0.077
MS.523         	16.155         	0.062
MS.524         	16.122         	0.07
DERIVED EXCITABILITY VARIABLES
Program = QTracP 3/4/2020
Threshold method = 6 (optimised for CAP, using data for present condition only)
SR method = 1 (using actual data values)
6.                 	0.000               	Peak response\(mV)
9.                 	34.6                	Temperature ( C)
17.                	28                  	Age (years)
18.                	2                   	Sex (M=1, F=2)

EXTRA VARIABLES

MScPeak(mV) = 7.91
MScS5(mA) = 21.18
MScS50(mA) = 29.06
MScS95(mA) = 39.71
MScNSteps = 0
MScSteps(%) = 0.0
MScStepMax(%) = 0.0
MScD50 = 77
MScSlope = 3.32
MSFPeakAmp(mV) = 7.94
MSFNUnits = 193
MSFMeanUnitAmp(uV) = 41.1
MSFHuntTime(m) = 2.61
MSFError(%) = 2.27
MSFNLarge = 66.69
MSFMedianAmp(%) = 0.467
MSFMedianAmp(mV) = 0.0371
MSFHalfAmpAmp(%) = 0.568
MSFHalfAmpAmp(mV) = 0.0451
MSFLargestAmp(%) = 1.4
MSFLargestAmp(mV) = 0.111
MSFMeanRS(%) = 2
MSFOpts = 10106121
MScDuration(min) = 4.8
MSFTraces = 435
MSFSizeLimit(uV) = 19.8
MSFLimitType = 1
MSFSmallestAmp(uV) = 20.5

EXTRA WAVEFORMS


!MScan Model
!193
	1	19.73	0.64	2
	2	20.07	0.75	2
	3	20.37	0.79	2
	4	20.57	0.78	2
	5	20.75	0.68	2
	6	20.91	0.56	2
	7	21.07	0.75	2
	8	21.26	0.47	2
	9	21.48	0.85	2
	10	21.74	0.81	2
	11	21.95	0.69	2
	12	22.11	0.56	2
	13	22.25	0.55	2
	14	22.37	0.59	2
	15	22.51	0.7	2
	16	22.64	0.6	2
	17	22.8	0.86	2
	18	22.96	0.96	2
	19	23.13	0.96	2
	20	23.37	1.34	2
	21	23.56	1.03	2
	22	23.73	1.08	2
	23	23.89	0.94	2
	24	23.99	0.59	2
	25	24.09	0.64	2
	26	24.22	0.73	2
	27	24.34	0.76	2
	28	24.45	0.75	2
	29	24.56	0.78	2
	30	24.67	0.67	2
	31	24.77	0.66	2
	32	24.87	0.71	2
	33	24.99	0.74	2
	34	25.11	0.7	2
	35	25.21	0.63	2
	36	25.31	0.66	2
	37	25.39	0.58	2
	38	25.48	0.59	2
	39	25.56	0.58	2
	40	25.65	0.57	2
	41	25.74	0.61	2
	42	25.83	0.66	2
	43	25.95	0.79	2
	44	26.08	0.69	2
	45	26.24	0.65	2
	46	26.24	0.43	2
	47	26.44	0.74	2
	48	26.71	1.4	2
	49	26.93	1.2	2
	50	27.04	0.5	2
	51	27.15	0.63	2
	52	27.26	0.67	2
	53	27.36	0.65	2
	54	27.47	0.63	2
	55	27.56	0.55	2
	56	27.65	0.6	2
	57	27.74	0.64	2
	58	27.84	0.71	2
	59	27.95	0.74	2
	60	28.06	0.8	2
	61	28.19	0.8	2
	62	28.32	0.8	2
	63	28.46	0.87	2
	64	28.6	0.88	2
	65	28.74	0.95	2
	66	28.87	0.85	2
	67	29	0.75	2
	68	29.13	0.72	2
	69	29.25	0.64	2
	70	29.37	0.57	2
	71	29.48	0.61	2
	72	29.58	0.61	2
	73	29.68	0.57	2
	74	29.78	0.49	2
	75	29.87	0.48	2
	76	29.97	0.49	2
	77	30.05	0.45	2
	78	30.12	0.36	2
	79	30.19	0.36	2
	80	30.26	0.39	2
	81	30.33	0.4	2
	82	30.41	0.4	2
	83	30.48	0.39	2
	84	30.55	0.41	2
	85	30.62	0.44	2
	86	30.69	0.41	2
	87	30.76	0.37	2
	88	30.82	0.35	2
	89	30.89	0.33	2
	90	30.95	0.37	2
	91	31.05	0.52	2
	92	31.14	0.47	2
	93	31.23	0.45	2
	94	31.34	0.55	2
	95	31.45	0.58	2
	96	31.56	0.52	2
	97	31.67	0.5	2
	98	31.77	0.56	2
	99	31.87	0.56	2
	100	31.94	0.34	2
	101	32.01	0.3	2
	102	32.08	0.32	2
	103	32.14	0.34	2
	104	32.21	0.36	2
	105	32.25	0.26	2
	106	32.35	0.48	2
	107	32.44	0.5	2
	108	32.49	0.26	2
	109	32.54	0.28	2
	110	32.59	0.3	2
	111	32.64	0.29	2
	112	32.69	0.28	2
	113	32.74	0.28	2
	114	32.79	0.27	2
	115	32.84	0.28	2
	116	32.91	0.34	2
	117	32.97	0.38	2
	118	33.03	0.39	2
	119	33.1	0.38	2
	120	33.16	0.36	2
	121	33.22	0.34	2
	122	33.29	0.32	2
	123	33.35	0.32	2
	124	33.41	0.32	2
	125	33.47	0.32	2
	126	33.53	0.34	2
	127	33.62	0.46	2
	128	33.71	0.43	2
	129	33.8	0.41	2
	130	33.89	0.45	2
	131	33.99	0.49	2
	132	34.09	0.48	2
	133	34.19	0.48	2
	134	34.28	0.46	2
	135	34.37	0.48	2
	136	34.46	0.46	2
	137	34.55	0.42	2
	138	34.61	0.29	2
	139	34.68	0.28	2
	140	34.74	0.28	2
	141	34.8	0.29	2
	142	34.87	0.3	2
	143	34.94	0.32	2
	144	35.01	0.33	2
	145	35.08	0.32	2
	146	35.15	0.32	2
	147	35.22	0.34	2
	148	35.3	0.37	2
	149	35.38	0.37	2
	150	35.46	0.34	2
	151	35.53	0.32	2
	152	35.62	0.34	2
	153	35.71	0.39	2
	154	35.8	0.37	2
	155	35.89	0.33	2
	156	35.99	0.36	2
	157	36.11	0.45	2
	158	36.23	0.41	2
	159	36.35	0.39	2
	160	36.48	0.45	2
	161	36.61	0.44	2
	162	36.8	0.55	2
	163	36.96	0.5	2
	164	37.11	0.44	2
	165	37.23	0.36	2
	166	37.35	0.35	2
	167	37.52	0.48	2
	168	37.63	0.3	2
	169	37.74	0.26	2
	170	37.87	0.31	2
	171	38.01	0.4	2
	172	38.14	0.38	2
	173	38.29	0.37	2
	174	38.45	0.38	2
	175	38.6	0.35	2
	176	38.75	0.33	2
	177	38.9	0.32	2
	178	39.05	0.34	2
	179	39.21	0.33	2
	180	39.36	0.36	2
	181	39.53	0.41	2
	182	39.69	0.38	2
	183	39.85	0.32	2
	184	40.01	0.3	2
	185	40.18	0.35	2
	186	40.42	0.44	2
	187	40.69	0.5	2
	188	41.01	0.52	2
	189	41.44	0.6	2
	190	41.89	0.56	2
	191	42.25	0.4	2
	192	42.57	0.37	2
	193	43.07	0.56	2

