File:              	C:\Qtrac\Data\Daniel M Sørensen\MScan multicentre study\Data from centres\Bucharest\Processed data\TDLC00921C.QZD
Name:              	RO.BU.NC.6.2
Protocol:          	MSCAN-R2
Date:              	21/9/20
Start time:        	14:48:41
Age:               	48
Sex:               	F
Temperature:       	35.8
S/R sites:         	TA
NC/disease:        	NC
Operator:          	TL
Comments:          	RONC6.2.
M-SCAN DATA (6.8-1.3m)
Scanpts: 64, 72, 568, 572
Stim. (mA)     	Amp. (mV)
MS.1           	25             	2.846
MS.2           	25             	2.842
MS.3           	25             	2.846
MS.4           	25             	2.834
MS.5           	25             	2.824
MS.6           	25             	2.822
MS.7           	25             	2.832
MS.8           	25             	2.828
MS.9           	25             	2.82
MS.10          	25             	2.814
MS.11          	25             	2.818
MS.12          	25             	2.816
MS.13          	25             	2.81
MS.14          	25             	2.804
MS.15          	25             	2.802
MS.16          	25             	2.798
MS.17          	25             	2.792
MS.18          	25             	2.753
MS.19          	25             	2.757
MS.20          	25             	2.741
MS.21          	25             	2.753
MS.22          	25             	2.741
MS.23          	25             	2.717
MS.24          	24.9           	2.719
MS.25          	24.85          	2.719
MS.26          	24.8           	2.693
MS.27          	24.75          	2.679
MS.28          	24.702         	2.681
MS.29          	24.653         	2.681
MS.30          	24.602         	2.675
MS.31          	24.555         	2.675
MS.32          	24.505         	2.685
MS.33          	24.455         	2.687
MS.34          	24.407         	2.679
MS.35          	24.358         	2.673
MS.36          	24.31          	2.665
MS.37          	24.26          	2.655
MS.38          	24.212         	2.657
MS.39          	24.165         	2.639
MS.40          	24.115         	2.657
MS.41          	24.067         	2.653
MS.42          	24.02          	2.683
MS.43          	23.972         	2.653
MS.44          	23.925         	2.651
MS.45          	23.875         	2.649
MS.46          	23.827         	2.62
MS.47          	23.78          	2.622
MS.48          	23.733         	2.624
MS.49          	23.685         	2.618
MS.50          	23.637         	2.628
MS.51          	23.59          	2.612
MS.52          	23.545         	2.612
MS.53          	23.497         	2.612
MS.54          	23.45          	2.606
MS.55          	23.403         	2.6
MS.56          	23.358         	2.6
MS.57          	23.31          	2.606
MS.58          	23.262         	2.602
MS.59          	23.217         	2.606
MS.60          	23.17          	2.6
MS.61          	23.125         	2.602
MS.62          	23.077         	2.6
MS.63          	23.032         	2.596
MS.64          	22.985         	2.602
MS.65          	22.94          	2.598
MS.66          	22.895         	2.604
MS.67          	22.847         	2.604
MS.68          	22.802         	2.596
MS.69          	22.757         	2.59
MS.70          	22.712         	2.594
MS.71          	22.665         	2.598
MS.72          	22.62          	2.594
MS.73          	22.575         	2.59
MS.74          	22.53          	2.586
MS.75          	22.485         	2.584
MS.76          	22.44          	2.594
MS.77          	22.395         	2.596
MS.78          	22.35          	2.586
MS.79          	22.307         	2.586
MS.80          	22.262         	2.59
MS.81          	22.217         	2.592
MS.82          	22.172         	2.586
MS.83          	22.127         	2.584
MS.84          	22.085         	2.584
MS.85          	22.04          	2.588
MS.86          	21.995         	2.592
MS.87          	21.952         	2.584
MS.88          	21.907         	2.568
MS.89          	21.865         	2.568
MS.90          	21.82          	2.558
MS.91          	21.778         	2.542
MS.92          	21.735         	2.534
MS.93          	21.69          	2.536
MS.94          	21.647         	2.538
MS.95          	21.605         	2.544
MS.96          	21.56          	2.536
MS.97          	21.517         	2.536
MS.98          	21.475         	2.534
MS.99          	21.432         	2.544
MS.100         	21.39          	2.524
MS.101         	21.345         	2.54
MS.102         	21.302         	2.524
MS.103         	21.26          	2.514
MS.104         	21.217         	2.516
MS.105         	21.175         	2.506
MS.106         	21.135         	2.528
MS.107         	21.092         	2.534
MS.108         	21.05          	2.532
MS.109         	21.007         	2.532
MS.110         	20.965         	2.508
MS.111         	20.922         	2.534
MS.112         	20.882         	2.536
MS.113         	20.84          	2.518
MS.114         	20.797         	2.52
MS.115         	20.757         	2.524
MS.116         	20.715         	2.54
MS.117         	20.675         	2.522
MS.118         	20.632         	2.516
MS.119         	20.592         	2.52
MS.120         	20.55          	2.514
MS.121         	20.51          	2.52
MS.122         	20.467         	2.514
MS.123         	20.427         	2.512
MS.124         	20.387         	2.49
MS.125         	20.345         	2.494
MS.126         	20.305         	2.475
MS.127         	20.265         	2.475
MS.128         	20.225         	2.483
MS.129         	20.182         	2.485
MS.130         	20.142         	2.492
MS.131         	20.102         	2.49
MS.132         	20.062         	2.485
MS.133         	20.022         	2.481
MS.134         	19.983         	2.49
MS.135         	19.942         	2.494
MS.136         	19.903         	2.487
MS.137         	19.862         	2.49
MS.138         	19.823         	2.496
MS.139         	19.785         	2.496
MS.140         	19.745         	2.494
MS.141         	19.705         	2.483
MS.142         	19.665         	2.487
MS.143         	19.627         	2.477
MS.144         	19.587         	2.483
MS.145         	19.547         	2.483
MS.146         	19.51          	2.487
MS.147         	19.47          	2.475
MS.148         	19.43          	2.471
MS.149         	19.392         	2.479
MS.150         	19.352         	2.465
MS.151         	19.315         	2.477
MS.152         	19.275         	2.469
MS.153         	19.237         	2.441
MS.154         	19.2           	2.483
MS.155         	19.16          	2.453
MS.156         	19.122         	2.465
MS.157         	19.085         	2.451
MS.158         	19.047         	2.471
MS.159         	19.007         	2.453
MS.160         	18.97          	2.435
MS.161         	18.932         	2.465
MS.162         	18.895         	2.429
MS.163         	18.858         	2.455
MS.164         	18.82          	2.445
MS.165         	18.782         	2.437
MS.166         	18.745         	2.425
MS.167         	18.708         	2.423
MS.168         	18.67          	2.421
MS.169         	18.632         	2.383
MS.170         	18.595         	2.415
MS.171         	18.557         	2.403
MS.172         	18.52          	2.385
MS.173         	18.483         	2.409
MS.174         	18.448         	2.375
MS.175         	18.41          	2.387
MS.176         	18.372         	2.349
MS.177         	18.335         	2.355
MS.178         	18.3           	2.349
MS.179         	18.262         	2.353
MS.180         	18.227         	2.349
MS.181         	18.19          	2.357
MS.182         	18.153         	2.349
MS.183         	18.118         	2.324
MS.184         	18.08          	2.322
MS.185         	18.045         	2.346
MS.186         	18.01          	2.34
MS.187         	17.972         	2.324
MS.188         	17.938         	2.328
MS.189         	17.903         	2.326
MS.190         	17.865         	2.328
MS.191         	17.83          	2.318
MS.192         	17.795         	2.32
MS.193         	17.757         	2.332
MS.194         	17.722         	2.316
MS.195         	17.688         	2.318
MS.196         	17.653         	2.32
MS.197         	17.618         	2.318
MS.198         	17.583         	2.296
MS.199         	17.547         	2.294
MS.200         	17.512         	2.282
MS.201         	17.477         	2.28
MS.202         	17.442         	2.28
MS.203         	17.407         	2.276
MS.204         	17.372         	2.272
MS.205         	17.337         	2.258
MS.206         	17.302         	2.278
MS.207         	17.267         	2.292
MS.208         	17.235         	2.286
MS.209         	17.2           	2.288
MS.210         	17.165         	2.28
MS.211         	17.13          	2.268
MS.212         	17.097         	2.266
MS.213         	17.062         	2.264
MS.214         	17.028         	2.254
MS.215         	16.995         	2.248
MS.216         	16.96          	2.256
MS.217         	16.927         	2.25
MS.218         	16.892         	2.262
MS.219         	16.86          	2.232
MS.220         	16.825         	2.246
MS.221         	16.792         	2.242
MS.222         	16.757         	2.256
MS.223         	16.725         	2.25
MS.224         	16.69          	2.236
MS.225         	16.657         	2.238
MS.226         	16.625         	2.244
MS.227         	16.59          	2.242
MS.228         	16.557         	2.244
MS.229         	16.525         	2.224
MS.230         	16.493         	2.24
MS.231         	16.46          	2.236
MS.232         	16.425         	2.238
MS.233         	16.392         	2.246
MS.234         	16.36          	2.228
MS.235         	16.327         	2.228
MS.236         	16.295         	2.236
MS.237         	16.262         	2.216
MS.238         	16.23          	2.21
MS.239         	16.198         	2.212
MS.240         	16.165         	2.206
MS.241         	16.132         	2.206
MS.242         	16.1           	2.21
MS.243         	16.067         	2.212
MS.244         	16.038         	2.175
MS.245         	16.005         	2.206
MS.246         	15.972         	2.185
MS.247         	15.94          	2.191
MS.248         	15.91          	2.189
MS.249         	15.877         	2.175
MS.250         	15.845         	2.163
MS.251         	15.812         	2.169
MS.252         	15.782         	2.181
MS.253         	15.75          	2.155
MS.254         	15.72          	2.153
MS.255         	15.688         	2.155
MS.256         	15.657         	2.137
MS.257         	15.625         	2.151
MS.258         	15.595         	2.149
MS.259         	15.562         	2.129
MS.260         	15.532         	2.139
MS.261         	15.5           	2.119
MS.262         	15.47          	2.107
MS.263         	15.438         	2.081
MS.264         	15.407         	2.129
MS.265         	15.377         	2.107
MS.266         	15.347         	2.089
MS.267         	15.315         	2.083
MS.268         	15.285         	2.101
MS.269         	15.255         	2.121
MS.270         	15.225         	2.083
MS.271         	15.193         	2.06
MS.272         	15.162         	2.06
MS.273         	15.132         	2.069
MS.274         	15.102         	2.046
MS.275         	15.072         	2.048
MS.276         	15.042         	2.042
MS.277         	15.012         	2.04
MS.278         	14.983         	2.024
MS.279         	14.952         	2.006
MS.280         	14.922         	2
MS.281         	14.892         	2.034
MS.282         	14.862         	1.99
MS.283         	14.832         	2.02
MS.284         	14.802         	2.01
MS.285         	14.775         	1.992
MS.286         	14.745         	1.984
MS.287         	14.715         	1.996
MS.288         	14.685         	1.94
MS.289         	14.657         	1.944
MS.290         	14.627         	1.956
MS.291         	14.597         	1.956
MS.292         	14.568         	1.962
MS.293         	14.54          	1.936
MS.294         	14.51          	1.926
MS.295         	14.483         	1.893
MS.296         	14.452         	1.907
MS.297         	14.422         	1.905
MS.298         	14.395         	1.907
MS.299         	14.365         	1.881
MS.300         	14.337         	1.899
MS.301         	14.31          	1.869
MS.302         	14.28          	1.863
MS.303         	14.252         	1.903
MS.304         	14.222         	1.855
MS.305         	14.195         	1.847
MS.306         	14.167         	1.829
MS.307         	14.137         	1.849
MS.308         	14.11          	1.831
MS.309         	14.082         	1.869
MS.310         	14.052         	1.831
MS.311         	14.025         	1.821
MS.312         	13.997         	1.841
MS.313         	13.97          	1.807
MS.314         	13.943         	1.829
MS.315         	13.912         	1.787
MS.316         	13.885         	1.803
MS.317         	13.858         	1.774
MS.318         	13.83          	1.754
MS.319         	13.802         	1.736
MS.320         	13.775         	1.766
MS.321         	13.747         	1.744
MS.322         	13.72          	1.724
MS.323         	13.693         	1.75
MS.324         	13.665         	1.766
MS.325         	13.637         	1.742
MS.326         	13.61          	1.684
MS.327         	13.582         	1.726
MS.328         	13.557         	1.722
MS.329         	13.53          	1.728
MS.330         	13.502         	1.668
MS.331         	13.475         	1.658
MS.332         	13.447         	1.67
MS.333         	13.422         	1.71
MS.334         	13.395         	1.638
MS.335         	13.367         	1.642
MS.336         	13.342         	1.627
MS.337         	13.315         	1.648
MS.338         	13.287         	1.65
MS.339         	13.262         	1.642
MS.340         	13.235         	1.642
MS.341         	13.207         	1.617
MS.342         	13.182         	1.613
MS.343         	13.155         	1.642
MS.344         	13.13          	1.601
MS.345         	13.102         	1.617
MS.346         	13.077         	1.591
MS.347         	13.05          	1.609
MS.348         	13.025         	1.565
MS.349         	13             	1.559
MS.350         	12.972         	1.573
MS.351         	12.947         	1.563
MS.352         	12.92          	1.579
MS.353         	12.895         	1.527
MS.354         	12.87          	1.549
MS.355         	12.845         	1.484
MS.356         	12.818         	1.539
MS.357         	12.792         	1.495
MS.358         	12.767         	1.486
MS.359         	12.742         	1.537
MS.360         	12.715         	1.509
MS.361         	12.69          	1.521
MS.362         	12.665         	1.511
MS.363         	12.64          	1.503
MS.364         	12.615         	1.408
MS.365         	12.59          	1.408
MS.366         	12.565         	1.378
MS.367         	12.54          	1.358
MS.368         	12.515         	1.446
MS.369         	12.49          	1.438
MS.370         	12.465         	1.47
MS.371         	12.44          	1.396
MS.372         	12.415         	1.44
MS.373         	12.39          	1.412
MS.374         	12.365         	1.426
MS.375         	12.34          	1.325
MS.376         	12.315         	1.364
MS.377         	12.29          	1.4
MS.378         	12.267         	1.347
MS.379         	12.242         	1.341
MS.380         	12.217         	1.388
MS.381         	12.193         	1.333
MS.382         	12.17          	1.339
MS.383         	12.145         	1.315
MS.384         	12.12          	1.339
MS.385         	12.095         	1.295
MS.386         	12.072         	1.208
MS.387         	12.047         	1.275
MS.388         	12.023         	1.219
MS.389         	12             	1.259
MS.390         	11.975         	1.158
MS.391         	11.952         	1.267
MS.392         	11.927         	1.271
MS.393         	11.905         	1.184
MS.394         	11.88          	1.122
MS.395         	11.858         	1.152
MS.396         	11.832         	1.204
MS.397         	11.81          	1.128
MS.398         	11.785         	1.15
MS.399         	11.762         	1.096
MS.400         	11.738         	1.19
MS.401         	11.715         	1.134
MS.402         	11.693         	1.114
MS.403         	11.667         	1.053
MS.404         	11.645         	1.106
MS.405         	11.622         	1.027
MS.406         	11.597         	1.146
MS.407         	11.575         	1.098
MS.408         	11.552         	1.063
MS.409         	11.53          	1.015
MS.410         	11.505         	0.967
MS.411         	11.483         	1.017
MS.412         	11.46          	1.009
MS.413         	11.438         	0.983
MS.414         	11.415         	1.009
MS.415         	11.392         	0.953
MS.416         	11.37          	0.951
MS.417         	11.345         	0.912
MS.418         	11.322         	0.943
MS.419         	11.3           	0.862
MS.420         	11.278         	0.92
MS.421         	11.255         	0.977
MS.422         	11.233         	0.86
MS.423         	11.21          	0.965
MS.424         	11.188         	0.914
MS.425         	11.165         	0.888
MS.426         	11.142         	0.876
MS.427         	11.122         	0.85
MS.428         	11.1           	0.832
MS.429         	11.077         	0.862
MS.430         	11.055         	0.85
MS.431         	11.032         	0.876
MS.432         	11.01          	0.816
MS.433         	10.988         	0.848
MS.434         	10.967         	0.79
MS.435         	10.945         	0.824
MS.436         	10.922         	0.814
MS.437         	10.9           	0.798
MS.438         	10.88          	0.788
MS.439         	10.858         	0.751
MS.440         	10.835         	0.731
MS.441         	10.815         	0.82
MS.442         	10.792         	0.751
MS.443         	10.77          	0.705
MS.444         	10.75          	0.699
MS.445         	10.727         	0.669
MS.446         	10.707         	0.709
MS.447         	10.685         	0.749
MS.448         	10.665         	0.628
MS.449         	10.642         	0.663
MS.450         	10.622         	0.622
MS.451         	10.6           	0.632
MS.452         	10.58          	0.661
MS.453         	10.557         	0.723
MS.454         	10.537         	0.588
MS.455         	10.515         	0.596
MS.456         	10.495         	0.518
MS.457         	10.472         	0.477
MS.458         	10.452         	0.508
MS.459         	10.432         	0.624
MS.460         	10.41          	0.51
MS.461         	10.39          	0.497
MS.462         	10.37          	0.526
MS.463         	10.35          	0.502
MS.464         	10.327         	0.485
MS.465         	10.307         	0.451
MS.466         	10.287         	0.379
MS.467         	10.267         	0.461
MS.468         	10.245         	0.411
MS.469         	10.225         	0.427
MS.470         	10.205         	0.405
MS.471         	10.185         	0.433
MS.472         	10.165         	0.35
MS.473         	10.145         	0.373
MS.474         	10.122         	0.332
MS.475         	10.102         	0.304
MS.476         	10.082         	0.342
MS.477         	10.062         	0.28
MS.478         	10.042         	0.381
MS.479         	10.023         	0.28
MS.480         	10.002         	0.298
MS.481         	9.983          	0.31
MS.482         	9.962          	0.318
MS.483         	9.943          	0.274
MS.484         	9.922          	0.304
MS.485         	9.903          	0.254
MS.486         	9.882          	0.264
MS.487         	9.865          	0.234
MS.488         	9.845          	0.326
MS.489         	9.825          	0.256
MS.490         	9.805          	0.252
MS.491         	9.785          	0.266
MS.492         	9.765          	0.242
MS.493         	9.745          	0.205
MS.494         	9.727          	0.183
MS.495         	9.707          	0.258
MS.496         	9.688          	0.207
MS.497         	9.667          	0.151
MS.498         	9.65           	0.207
MS.499         	9.63           	0.171
MS.500         	9.61           	0.26
MS.501         	9.592          	0.153
MS.502         	9.573          	0.201
MS.503         	9.552          	0.236
MS.504         	9.535          	0.201
MS.505         	9.515          	0.173
MS.506         	9.495          	0.185
MS.507         	9.477          	0.151
MS.508         	9.457          	0.137
MS.509         	9.44           	0.181
MS.510         	9.42           	0.189
MS.511         	9.403          	0.203
MS.512         	9.382          	0.175
MS.513         	9.365          	0.199
MS.514         	9.345          	0.139
MS.515         	9.327          	0.153
MS.516         	9.307          	0.139
MS.517         	9.29           	0.145
MS.518         	9.27           	0.143
MS.519         	9.252          	0.105
MS.520         	9.235          	0.129
MS.521         	9.215          	0.153
MS.522         	9.198          	0.091
MS.523         	9.177          	0.133
MS.524         	9.16           	0.129
MS.525         	9.142          	0.081
MS.526         	9.122          	0.089
MS.527         	9.105          	0.099
MS.528         	9.087          	0.085
MS.529         	9.07           	0.125
MS.530         	9.05           	0.135
MS.531         	9.033          	0.066
MS.532         	9.015          	0.077
MS.533         	8.997          	0.081
MS.534         	8.98           	0.077
MS.535         	8.96           	0.056
MS.536         	8.943          	0.028
MS.537         	8.925          	0.022
MS.538         	8.908          	0.052
MS.539         	8.89           	0.04
MS.540         	8.872          	0.022
MS.541         	8.855          	0.058
MS.542         	8.837          	0.038
MS.543         	8.818          	-0.01
MS.544         	8.8            	0.006
MS.545         	8.783          	0.024
MS.546         	8.765          	-0.006
MS.547         	8.747          	0.000
MS.548         	8.73           	0.004
MS.549         	8.712          	0.01
MS.550         	8.695          	-0.042
MS.551         	8.677          	0.024
MS.552         	8.662          	0.018
MS.553         	8.645          	-0.004
MS.554         	8.627          	-0.012
MS.555         	8.61           	-0.016
MS.556         	8.592          	0.004
MS.557         	8.575          	-0.02
MS.558         	8.557          	-0.04
MS.559         	8.54           	-0.044
MS.560         	8.525          	-0.018
MS.561         	8.507          	-0.038
MS.562         	8.49           	0.000
MS.563         	8.472          	-0.014
MS.564         	8.455          	-0.036
MS.565         	8.44           	-0.036
MS.566         	8.422          	-0.042
MS.567         	8.405          	-0.044
MS.568         	8.387          	-0.044
MS.569         	8.372          	-0.05
MS.570         	8.355          	-0.044
MS.571         	8.337          	-0.05
MS.572         	8.323          	-0.042
MS.573         	8.305          	-0.046
MS.574         	8.287          	-0.054
MS.575         	8.273          	-0.042
MS.576         	8.255          	-0.05
MS.577         	8.24           	-0.046
MS.578         	8.222          	-0.06
MS.579         	8.205          	-0.034
MS.580         	8.19           	-0.058
MS.581         	8.172          	-0.062
MS.582         	8.158          	-0.05
MS.583         	8.14           	-0.048
MS.584         	8.125          	-0.06
MS.585         	8.108          	-0.066
MS.586         	8.092          	-0.06
MS.587         	8.075          	-0.064
MS.588         	8.06           	-0.054
MS.589         	8.042          	-0.06
MS.590         	8.028          	-0.062
MS.591         	8.012          	-0.056
MS.592         	7.995          	-0.036
MS.593         	7.98           	-0.06
DERIVED EXCITABILITY VARIABLES
Program = QTracP 3/4/2020
Threshold method = 6 (optimised for CAP, using data for present condition only)
SR method = 1 (using actual data values)
6.                 	0.000               	Peak response\(mV)
9.                 	35.8                	Temperature ( C)
17.                	48                  	Age (years)
18.                	2                   	Sex (M=1, F=2)

EXTRA VARIABLES

MScPeak(mV) = 2.86
MScS5(mA) = 9.32
MScS50(mA) = 12.48
MScS95(mA) = 24.84
MScNSteps = 1
MScSteps(%) = 2.2
MScStepMax(%) = 2.2
MScD50 = 85
MScSlope = 2.51
MSFPeakAmp(mV) = 2.64
MSFNUnits = 160
MSFMeanUnitAmp(uV) = 16.5
MSFHuntTime(m) = 2.91
MSFError(%) = 0.645
MSFNLarge = 44.52
MSFMedianAmp(%) = 0.491
MSFMedianAmp(mV) = 0.013
MSFHalfAmpAmp(%) = 0.754
MSFHalfAmpAmp(mV) = 0.0199
MSFLargestAmp(%) = 2.27
MSFLargestAmp(mV) = 0.0599
MSFMeanRS(%) = 1.99
MSFOpts = 10106121
MScDuration(min) = 5.5
MSFTraces = 509
MSFSizeLimit(uV) = 6.6
MSFLimitType = 1
MSFSmallestAmp(uV) = 6.6

EXTRA WAVEFORMS


!MScan Model
!160
	1	8.61	1.24	2
	2	8.77	0.96	2
	3	8.85	0.67	2
	4	8.9	0.44	2
	5	8.95	0.63	2
	6	9.02	0.71	2
	7	9.09	0.6	2
	8	9.17	0.93	2
	9	9.26	1.05	2
	10	9.43	1.33	1.6
	11	9.7	1.56	2
	12	9.8	1	2
	13	9.9	1.03	2
	14	9.99	1.26	2
	15	10.04	0.56	2
	16	10.08	0.64	2
	17	10.11	0.54	2
	18	10.14	0.66	2
	19	10.17	0.65	2
	20	10.22	0.72	2
	21	10.26	0.76	2
	22	10.31	1.01	2
	23	10.35	1.36	2
	24	10.4	1.13	2
	25	10.45	1.02	2
	26	10.5	1.28	2
	27	10.56	1.26	2
	28	10.62	1.24	2
	29	10.67	0.9	2
	30	10.71	0.86	2
	31	10.74	0.75	2
	32	10.78	0.79	1.6
	33	10.81	0.65	2
	34	10.85	0.63	2
	35	10.88	0.46	2
	36	10.91	0.49	2
	37	10.95	0.37	2
	38	10.95	0.25	2
	39	11.01	1.24	2
	40	11.1	1.21	2
	41	11.2	1.13	2
	42	11.29	1.18	2
	43	11.36	1.31	2
	44	11.42	0.94	2
	45	11.47	0.84	2
	46	11.53	0.98	2
	47	11.58	0.79	2
	48	11.63	0.96	2
	49	11.73	1.46	2
	50	11.83	1.71	2
	51	11.86	1.53	2
	52	11.9	1.14	2
	53	11.96	1.19	2
	54	12.02	0.99	2
	55	12.08	0.92	2
	56	12.14	0.75	2
	57	12.2	1.17	2
	58	12.51	2.27	2
	59	12.63	1.28	2
	60	12.71	0.99	2
	61	12.78	0.69	2
	62	12.84	0.78	2
	63	12.9	0.71	2
	64	12.95	0.57	2
	65	12.99	0.42	2
	66	13.03	0.36	2
	67	13.08	0.36	2
	68	13.13	0.49	2
	69	13.2	0.57	2
	70	13.26	0.5	2
	71	13.32	0.69	2
	72	13.38	0.52	2
	73	13.44	0.44	2
	74	13.49	0.51	2
	75	13.55	0.48	2
	76	13.6	0.43	2
	77	13.65	0.5	2
	78	13.7	0.49	2
	79	13.74	0.48	2
	80	13.79	0.46	2
	81	13.84	0.41	2
	82	13.88	0.4	2
	83	13.93	0.41	2
	84	13.97	0.36	2
	85	14.01	0.35	2
	86	14.06	0.49	2
	87	14.13	0.64	2
	88	14.19	0.46	2
	89	14.23	0.26	2
	90	14.26	0.29	2
	91	14.3	0.31	2
	92	14.36	0.5	2
	93	14.42	0.41	2
	94	14.45	0.26	2
	95	14.48	0.27	2
	96	14.51	0.26	2
	97	14.56	0.5	2
	98	14.59	0.25	2
	99	14.62	0.28	2
	100	14.65	0.28	2
	101	14.72	0.48	2
	102	14.75	0.26	2
	103	14.78	0.26	2
	104	14.81	0.26	2
	105	14.84	0.26	2
	106	14.91	0.49	2
	107	14.94	0.28	2
	108	14.98	0.32	2
	109	15.01	0.32	2
	110	15.05	0.27	2
	111	15.09	0.29	2
	112	15.14	0.29	2
	113	15.18	0.28	2
	114	15.23	0.32	2
	115	15.27	0.34	2
	116	15.32	0.33	2
	117	15.37	0.29	2
	118	15.43	0.38	2
	119	15.49	0.38	2
	120	15.56	0.42	2
	121	15.63	0.36	2
	122	15.7	0.4	2
	123	15.76	0.38	2
	124	15.83	0.32	2
	125	15.9	0.32	2
	126	15.97	0.29	2
	127	16.04	0.34	2
	128	16.12	0.36	2
	129	16.19	0.29	2
	130	16.35	0.58	2
	131	16.74	0.65	2
	132	16.89	0.3	2
	133	17.08	0.37	2
	134	17.25	0.42	2
	135	17.39	0.46	2
	136	17.51	0.38	2
	137	17.67	0.33	2
	138	17.77	0.41	2
	139	17.89	0.38	2
	140	18.01	0.37	2
	141	18.16	0.6	2
	142	18.32	0.53	2
	143	18.4	0.4	2
	144	18.48	0.45	2
	145	18.56	0.37	2
	146	18.66	0.51	2
	147	18.72	0.38	2
	148	18.8	0.34	2
	149	18.93	0.47	2
	150	19.1	0.57	2
	151	19.29	0.39	2
	152	19.48	0.34	2
	153	20.06	0.48	2
	154	20.32	0.36	2
	155	20.49	0.28	2
	156	21.49	0.83	2
	157	21.6	0.74	2
	158	21.8	0.38	2
	159	21.88	0.35	2
	160	22.04	0.84	2

