File:              	C:\Qtrac\Data\Daniel M Sørensen\MScan multicentre study\Data from centres\Bucharest\Processed data\TDLC10107C.QZD
Name:              	RO.BU.NC.9.2
Protocol:          	MSCAN-R2
Date:              	7/1/21
Start time:        	11:27:59
Age:               	35
Sex:               	F
Temperature:       	35.7
S/R sites:         	TA
NC/disease:        	NC9
Operator:          	TL
Comments:          	RO.NC.9.2.
M-SCAN DATA (8.6-1.5m)
Scanpts: 28, 37, 718, 731
Stim. (mA)     	Amp. (mV)
MS.1           	16.5           	2.492
MS.2           	16.5           	2.487
MS.3           	16.5           	2.492
MS.4           	16.5           	2.481
MS.5           	16.5           	2.481
MS.6           	16.5           	2.485
MS.7           	16.5           	2.477
MS.8           	16.5           	2.479
MS.9           	16.5           	2.463
MS.10          	16.5           	2.485
MS.11          	16.5           	2.479
MS.12          	16.5           	2.483
MS.13          	16.5           	2.479
MS.14          	16.5           	2.481
MS.15          	16.5           	2.483
MS.16          	16.5           	2.487
MS.17          	16.5           	2.481
MS.18          	16.5           	2.477
MS.19          	16.5           	2.477
MS.20          	16.5           	2.469
MS.21          	16.5           	2.473
MS.22          	16.5           	2.475
MS.23          	16.5           	2.479
MS.24          	16.435         	2.473
MS.25          	16.4           	2.469
MS.26          	16.368         	2.471
MS.27          	16.335         	2.471
MS.28          	16.302         	2.467
MS.29          	16.27          	2.473
MS.30          	16.237         	2.467
MS.31          	16.205         	2.467
MS.32          	16.172         	2.469
MS.33          	16.14          	2.463
MS.34          	16.108         	2.473
MS.35          	16.077         	2.463
MS.36          	16.045         	2.473
MS.37          	16.012         	2.469
MS.38          	15.98          	2.465
MS.39          	15.947         	2.467
MS.40          	15.917         	2.469
MS.41          	15.885         	2.471
MS.42          	15.852         	2.457
MS.43          	15.822         	2.467
MS.44          	15.79          	2.469
MS.45          	15.757         	2.463
MS.46          	15.727         	2.465
MS.47          	15.695         	2.469
MS.48          	15.665         	2.463
MS.49          	15.632         	2.463
MS.50          	15.602         	2.463
MS.51          	15.57          	2.459
MS.52          	15.54          	2.467
MS.53          	15.507         	2.457
MS.54          	15.477         	2.463
MS.55          	15.445         	2.467
MS.56          	15.415         	2.463
MS.57          	15.385         	2.459
MS.58          	15.352         	2.455
MS.59          	15.322         	2.461
MS.60          	15.292         	2.459
MS.61          	15.262         	2.465
MS.62          	15.233         	2.455
MS.63          	15.2           	2.459
MS.64          	15.17          	2.459
MS.65          	15.14          	2.457
MS.66          	15.11          	2.457
MS.67          	15.08          	2.455
MS.68          	15.05          	2.455
MS.69          	15.02          	2.455
MS.70          	14.99          	2.451
MS.71          	14.96          	2.447
MS.72          	14.93          	2.455
MS.73          	14.9           	2.453
MS.74          	14.87          	2.449
MS.75          	14.84          	2.451
MS.76          	14.81          	2.457
MS.77          	14.78          	2.449
MS.78          	14.752         	2.445
MS.79          	14.722         	2.451
MS.80          	14.693         	2.455
MS.81          	14.662         	2.457
MS.82          	14.635         	2.453
MS.83          	14.605         	2.447
MS.84          	14.575         	2.453
MS.85          	14.547         	2.439
MS.86          	14.517         	2.447
MS.87          	14.487         	2.447
MS.88          	14.46          	2.447
MS.89          	14.43          	2.443
MS.90          	14.403         	2.441
MS.91          	14.372         	2.445
MS.92          	14.345         	2.447
MS.93          	14.315         	2.443
MS.94          	14.287         	2.443
MS.95          	14.257         	2.449
MS.96          	14.23          	2.443
MS.97          	14.202         	2.445
MS.98          	14.172         	2.445
MS.99          	14.145         	2.439
MS.100         	14.117         	2.441
MS.101         	14.087         	2.445
MS.102         	14.06          	2.441
MS.103         	14.032         	2.441
MS.104         	14.005         	2.433
MS.105         	13.975         	2.431
MS.106         	13.947         	2.429
MS.107         	13.92          	2.435
MS.108         	13.892         	2.427
MS.109         	13.865         	2.425
MS.110         	13.837         	2.431
MS.111         	13.81          	2.431
MS.112         	13.782         	2.435
MS.113         	13.755         	2.427
MS.114         	13.727         	2.431
MS.115         	13.7           	2.431
MS.116         	13.672         	2.423
MS.117         	13.645         	2.429
MS.118         	13.617         	2.429
MS.119         	13.59          	2.429
MS.120         	13.562         	2.429
MS.121         	13.535         	2.429
MS.122         	13.51          	2.429
MS.123         	13.483         	2.423
MS.124         	13.455         	2.425
MS.125         	13.427         	2.417
MS.126         	13.403         	2.427
MS.127         	13.375         	2.429
MS.128         	13.347         	2.425
MS.129         	13.32          	2.427
MS.130         	13.295         	2.419
MS.131         	13.267         	2.417
MS.132         	13.242         	2.423
MS.133         	13.215         	2.419
MS.134         	13.188         	2.409
MS.135         	13.162         	2.421
MS.136         	13.135         	2.419
MS.137         	13.11          	2.409
MS.138         	13.082         	2.419
MS.139         	13.057         	2.417
MS.140         	13.032         	2.415
MS.141         	13.005         	2.411
MS.142         	12.98          	2.409
MS.143         	12.952         	2.417
MS.144         	12.927         	2.415
MS.145         	12.903         	2.409
MS.146         	12.875         	2.421
MS.147         	12.85          	2.403
MS.148         	12.825         	2.403
MS.149         	12.8           	2.409
MS.150         	12.773         	2.417
MS.151         	12.747         	2.409
MS.152         	12.722         	2.405
MS.153         	12.697         	2.407
MS.154         	12.672         	2.405
MS.155         	12.645         	2.407
MS.156         	12.62          	2.405
MS.157         	12.595         	2.401
MS.158         	12.57          	2.399
MS.159         	12.545         	2.395
MS.160         	12.52          	2.411
MS.161         	12.495         	2.403
MS.162         	12.47          	2.401
MS.163         	12.445         	2.391
MS.164         	12.42          	2.393
MS.165         	12.395         	2.399
MS.166         	12.37          	2.397
MS.167         	12.347         	2.397
MS.168         	12.322         	2.397
MS.169         	12.297         	2.383
MS.170         	12.273         	2.379
MS.171         	12.247         	2.387
MS.172         	12.222         	2.385
MS.173         	12.2           	2.383
MS.174         	12.175         	2.375
MS.175         	12.15          	2.385
MS.176         	12.125         	2.379
MS.177         	12.102         	2.377
MS.178         	12.077         	2.375
MS.179         	12.052         	2.375
MS.180         	12.03          	2.371
MS.181         	12.005         	2.375
MS.182         	11.983         	2.373
MS.183         	11.957         	2.373
MS.184         	11.932         	2.375
MS.185         	11.91          	2.373
MS.186         	11.885         	2.373
MS.187         	11.863         	2.365
MS.188         	11.837         	2.373
MS.189         	11.815         	2.371
MS.190         	11.79          	2.361
MS.191         	11.767         	2.373
MS.192         	11.745         	2.365
MS.193         	11.72          	2.361
MS.194         	11.697         	2.365
MS.195         	11.675         	2.363
MS.196         	11.65          	2.367
MS.197         	11.627         	2.363
MS.198         	11.605         	2.367
MS.199         	11.58          	2.363
MS.200         	11.557         	2.361
MS.201         	11.535         	2.371
MS.202         	11.512         	2.363
MS.203         	11.488         	2.351
MS.204         	11.465         	2.365
MS.205         	11.443         	2.363
MS.206         	11.42          	2.369
MS.207         	11.398         	2.363
MS.208         	11.375         	2.363
MS.209         	11.352         	2.363
MS.210         	11.33          	2.363
MS.211         	11.307         	2.351
MS.212         	11.282         	2.357
MS.213         	11.26          	2.357
MS.214         	11.238         	2.357
MS.215         	11.215         	2.353
MS.216         	11.195         	2.355
MS.217         	11.172         	2.355
MS.218         	11.15          	2.353
MS.219         	11.127         	2.355
MS.220         	11.105         	2.357
MS.221         	11.082         	2.338
MS.222         	11.06          	2.355
MS.223         	11.037         	2.344
MS.224         	11.015         	2.344
MS.225         	10.995         	2.344
MS.226         	10.972         	2.336
MS.227         	10.95          	2.344
MS.228         	10.927         	2.344
MS.229         	10.907         	2.344
MS.230         	10.885         	2.346
MS.231         	10.863         	2.332
MS.232         	10.84          	2.338
MS.233         	10.82          	2.328
MS.234         	10.797         	2.334
MS.235         	10.778         	2.334
MS.236         	10.755         	2.338
MS.237         	10.733         	2.34
MS.238         	10.712         	2.334
MS.239         	10.69          	2.328
MS.240         	10.67          	2.324
MS.241         	10.648         	2.326
MS.242         	10.627         	2.326
MS.243         	10.605         	2.316
MS.244         	10.585         	2.328
MS.245         	10.562         	2.324
MS.246         	10.542         	2.32
MS.247         	10.52          	2.32
MS.248         	10.5           	2.32
MS.249         	10.48          	2.314
MS.250         	10.457         	2.316
MS.251         	10.438         	2.312
MS.252         	10.415         	2.314
MS.253         	10.395         	2.306
MS.254         	10.375         	2.318
MS.255         	10.355         	2.31
MS.256         	10.332         	2.306
MS.257         	10.312         	2.31
MS.258         	10.292         	2.302
MS.259         	10.273         	2.3
MS.260         	10.25          	2.306
MS.261         	10.23          	2.318
MS.262         	10.21          	2.298
MS.263         	10.19          	2.304
MS.264         	10.17          	2.312
MS.265         	10.15          	2.31
MS.266         	10.127         	2.302
MS.267         	10.108         	2.308
MS.268         	10.087         	2.296
MS.269         	10.068         	2.3
MS.270         	10.047         	2.318
MS.271         	10.028         	2.29
MS.272         	10.007         	2.276
MS.273         	9.988          	2.292
MS.274         	9.967          	2.288
MS.275         	9.948          	2.28
MS.276         	9.927          	2.296
MS.277         	9.907          	2.258
MS.278         	9.887          	2.214
MS.279         	9.867          	2.282
MS.280         	9.85           	2.248
MS.281         	9.83           	2.228
MS.282         	9.81           	2.278
MS.283         	9.79           	2.191
MS.284         	9.77           	2.222
MS.285         	9.75           	2.254
MS.286         	9.733          	2.183
MS.287         	9.712          	2.185
MS.288         	9.693          	2.169
MS.289         	9.672          	2.181
MS.290         	9.655          	2.171
MS.291         	9.635          	2.165
MS.292         	9.615          	2.157
MS.293         	9.595          	2.149
MS.294         	9.577          	2.173
MS.295         	9.557          	2.179
MS.296         	9.537          	2.141
MS.297         	9.52           	2.133
MS.298         	9.5            	2.153
MS.299         	9.483          	2.147
MS.300         	9.462          	2.151
MS.301         	9.445          	2.123
MS.302         	9.425          	2.131
MS.303         	9.405          	2.083
MS.304         	9.387          	2.129
MS.305         	9.367          	2.109
MS.306         	9.35           	2.121
MS.307         	9.33           	2.123
MS.308         	9.312          	2.119
MS.309         	9.295          	2.089
MS.310         	9.275          	2.058
MS.311         	9.257          	2.065
MS.312         	9.238          	2.052
MS.313         	9.22           	2.062
MS.314         	9.202          	2.071
MS.315         	9.182          	2.06
MS.316         	9.165          	2.058
MS.317         	9.148          	2.067
MS.318         	9.127          	2.01
MS.319         	9.11           	2.04
MS.320         	9.092          	2.024
MS.321         	9.073          	2.014
MS.322         	9.055          	2.02
MS.323         	9.037          	1.996
MS.324         	9.02           	2.028
MS.325         	9              	2.004
MS.326         	8.983          	1.996
MS.327         	8.965          	2.032
MS.328         	8.948          	2.008
MS.329         	8.93           	2.016
MS.330         	8.912          	1.99
MS.331         	8.895          	2.004
MS.332         	8.875          	1.99
MS.333         	8.858          	1.97
MS.334         	8.84           	1.924
MS.335         	8.823          	1.903
MS.336         	8.805          	1.948
MS.337         	8.787          	1.934
MS.338         	8.77           	1.972
MS.339         	8.752          	1.93
MS.340         	8.735          	1.915
MS.341         	8.717          	1.93
MS.342         	8.7            	1.936
MS.343         	8.682          	1.899
MS.344         	8.665          	1.905
MS.345         	8.648          	1.893
MS.346         	8.63           	1.899
MS.347         	8.613          	1.855
MS.348         	8.597          	1.875
MS.349         	8.58           	1.873
MS.350         	8.562          	1.869
MS.351         	8.545          	1.875
MS.352         	8.528          	1.859
MS.353         	8.51           	1.813
MS.354         	8.495          	1.861
MS.355         	8.477          	1.817
MS.356         	8.46           	1.827
MS.357         	8.443          	1.833
MS.358         	8.427          	1.811
MS.359         	8.41           	1.793
MS.360         	8.392          	1.779
MS.361         	8.375          	1.803
MS.362         	8.36           	1.762
MS.363         	8.342          	1.76
MS.364         	8.325          	1.803
MS.365         	8.31           	1.803
MS.366         	8.292          	1.766
MS.367         	8.275          	1.785
MS.368         	8.26           	1.728
MS.369         	8.242          	1.744
MS.370         	8.227          	1.718
MS.371         	8.21           	1.724
MS.372         	8.193          	1.748
MS.373         	8.177          	1.682
MS.374         	8.16           	1.718
MS.375         	8.145          	1.73
MS.376         	8.127          	1.65
MS.377         	8.113          	1.676
MS.378         	8.095          	1.672
MS.379         	8.08           	1.666
MS.380         	8.062          	1.658
MS.381         	8.047          	1.66
MS.382         	8.033          	1.64
MS.383         	8.015          	1.67
MS.384         	8              	1.638
MS.385         	7.982          	1.638
MS.386         	7.967          	1.635
MS.387         	7.952          	1.617
MS.388         	7.935          	1.591
MS.389         	7.92           	1.605
MS.390         	7.905          	1.593
MS.391         	7.887          	1.601
MS.392         	7.872          	1.571
MS.393         	7.857          	1.583
MS.394         	7.84           	1.589
MS.395         	7.825          	1.557
MS.396         	7.81           	1.577
MS.397         	7.795          	1.509
MS.398         	7.777          	1.535
MS.399         	7.762          	1.545
MS.400         	7.747          	1.557
MS.401         	7.732          	1.505
MS.402         	7.717          	1.527
MS.403         	7.7            	1.535
MS.404         	7.685          	1.511
MS.405         	7.67           	1.513
MS.406         	7.655          	1.525
MS.407         	7.64           	1.48
MS.408         	7.625          	1.492
MS.409         	7.61           	1.492
MS.410         	7.595          	1.458
MS.411         	7.58           	1.486
MS.412         	7.562          	1.462
MS.413         	7.547          	1.426
MS.414         	7.532          	1.474
MS.415         	7.517          	1.466
MS.416         	7.503          	1.4
MS.417         	7.487          	1.392
MS.418         	7.472          	1.4
MS.419         	7.457          	1.398
MS.420         	7.442          	1.372
MS.421         	7.427          	1.396
MS.422         	7.415          	1.356
MS.423         	7.4            	1.374
MS.424         	7.385          	1.364
MS.425         	7.37           	1.364
MS.426         	7.355          	1.341
MS.427         	7.34           	1.313
MS.428         	7.325          	1.331
MS.429         	7.31           	1.339
MS.430         	7.295          	1.301
MS.431         	7.282          	1.329
MS.432         	7.267          	1.313
MS.433         	7.253          	1.311
MS.434         	7.237          	1.287
MS.435         	7.222          	1.281
MS.436         	7.21           	1.287
MS.437         	7.195          	1.277
MS.438         	7.18           	1.269
MS.439         	7.165          	1.243
MS.440         	7.152          	1.265
MS.441         	7.137          	1.247
MS.442         	7.122          	1.285
MS.443         	7.11           	1.253
MS.444         	7.095          	1.237
MS.445         	7.08           	1.204
MS.446         	7.067          	1.233
MS.447         	7.052          	1.206
MS.448         	7.037          	1.19
MS.449         	7.025          	1.184
MS.450         	7.01           	1.204
MS.451         	6.995          	1.211
MS.452         	6.983          	1.182
MS.453         	6.967          	1.102
MS.454         	6.955          	1.172
MS.455         	6.94           	1.18
MS.456         	6.927          	1.138
MS.457         	6.912          	1.126
MS.458         	6.9            	1.162
MS.459         	6.885          	1.174
MS.460         	6.872          	1.136
MS.461         	6.858          	1.132
MS.462         	6.845          	1.11
MS.463         	6.83           	1.084
MS.464         	6.817          	1.098
MS.465         	6.802          	1.061
MS.466         	6.79           	1.084
MS.467         	6.775          	1.049
MS.468         	6.762          	0.985
MS.469         	6.747          	0.979
MS.470         	6.735          	1.029
MS.471         	6.722          	0.967
MS.472         	6.707          	0.997
MS.473         	6.695          	0.971
MS.474         	6.682          	0.991
MS.475         	6.668          	0.975
MS.476         	6.655          	0.918
MS.477         	6.642          	0.953
MS.478         	6.628          	0.947
MS.479         	6.615          	0.904
MS.480         	6.602          	0.927
MS.481         	6.587          	0.868
MS.482         	6.575          	0.914
MS.483         	6.562          	0.866
MS.484         	6.55           	0.86
MS.485         	6.535          	0.834
MS.486         	6.523          	0.874
MS.487         	6.51           	0.806
MS.488         	6.497          	0.838
MS.489         	6.485          	0.784
MS.490         	6.47           	0.796
MS.491         	6.457          	0.775
MS.492         	6.445          	0.753
MS.493         	6.432          	0.743
MS.494         	6.42           	0.765
MS.495         	6.407          	0.733
MS.496         	6.395          	0.693
MS.497         	6.38           	0.705
MS.498         	6.367          	0.671
MS.499         	6.355          	0.687
MS.500         	6.342          	0.667
MS.501         	6.33           	0.653
MS.502         	6.317          	0.653
MS.503         	6.305          	0.707
MS.504         	6.293          	0.683
MS.505         	6.28           	0.665
MS.506         	6.267          	0.661
MS.507         	6.255          	0.638
MS.508         	6.242          	0.671
MS.509         	6.23           	0.636
MS.510         	6.217          	0.576
MS.511         	6.205          	0.592
MS.512         	6.192          	0.594
MS.513         	6.18           	0.598
MS.514         	6.168          	0.55
MS.515         	6.155          	0.582
MS.516         	6.142          	0.582
MS.517         	6.13           	0.592
MS.518         	6.117          	0.574
MS.519         	6.108          	0.566
MS.520         	6.095          	0.524
MS.521         	6.082          	0.6
MS.522         	6.07           	0.485
MS.523         	6.057          	0.536
MS.524         	6.045          	0.514
MS.525         	6.032          	0.483
MS.526         	6.023          	0.467
MS.527         	6.01           	0.493
MS.528         	5.997          	0.502
MS.529         	5.985          	0.471
MS.530         	5.972          	0.453
MS.531         	5.963          	0.445
MS.532         	5.95           	0.461
MS.533         	5.938          	0.457
MS.534         	5.925          	0.413
MS.535         	5.915          	0.403
MS.536         	5.902          	0.417
MS.537         	5.89           	0.405
MS.538         	5.88           	0.395
MS.539         	5.867          	0.401
MS.540         	5.855          	0.379
MS.541         	5.842          	0.365
MS.542         	5.832          	0.373
MS.543         	5.82           	0.373
MS.544         	5.807          	0.35
MS.545         	5.797          	0.33
MS.546         	5.785          	0.322
MS.547         	5.775          	0.3
MS.548         	5.762          	0.34
MS.549         	5.75           	0.361
MS.550         	5.74           	0.344
MS.551         	5.727          	0.338
MS.552         	5.717          	0.346
MS.553         	5.705          	0.284
MS.554         	5.692          	0.302
MS.555         	5.682          	0.314
MS.556         	5.67           	0.354
MS.557         	5.66           	0.314
MS.558         	5.648          	0.27
MS.559         	5.637          	0.258
MS.560         	5.625          	0.314
MS.561         	5.615          	0.286
MS.562         	5.602          	0.238
MS.563         	5.592          	0.244
MS.564         	5.58           	0.304
MS.565         	5.57           	0.258
MS.566         	5.557          	0.254
MS.567         	5.547          	0.232
MS.568         	5.537          	0.211
MS.569         	5.525          	0.258
MS.570         	5.515          	0.197
MS.571         	5.503          	0.282
MS.572         	5.492          	0.246
MS.573         	5.483          	0.226
MS.574         	5.47           	0.282
MS.575         	5.46           	0.226
MS.576         	5.447          	0.226
MS.577         	5.438          	0.224
MS.578         	5.427          	0.234
MS.579         	5.415          	0.187
MS.580         	5.405          	0.205
MS.581         	5.395          	0.228
MS.582         	5.382          	0.139
MS.583         	5.372          	0.185
MS.584         	5.362          	0.197
MS.585         	5.352          	0.199
MS.586         	5.34           	0.216
MS.587         	5.33           	0.205
MS.588         	5.32           	0.161
MS.589         	5.307          	0.149
MS.590         	5.297          	0.139
MS.591         	5.287          	0.125
MS.592         	5.277          	0.169
MS.593         	5.267          	0.125
MS.594         	5.255          	0.115
MS.595         	5.245          	0.153
MS.596         	5.235          	0.111
MS.597         	5.225          	0.119
MS.598         	5.215          	0.115
MS.599         	5.202          	0.111
MS.600         	5.193          	0.111
MS.601         	5.182          	0.107
MS.602         	5.172          	0.079
MS.603         	5.162          	0.109
MS.604         	5.152          	0.113
MS.605         	5.142          	0.107
MS.606         	5.132          	0.068
MS.607         	5.12           	0.095
MS.608         	5.11           	0.091
MS.609         	5.1            	0.064
MS.610         	5.09           	0.091
MS.611         	5.08           	0.058
MS.612         	5.07           	0.062
MS.613         	5.06           	0.062
MS.614         	5.05           	0.058
MS.615         	5.04           	0.091
MS.616         	5.03           	0.048
MS.617         	5.02           	0.075
MS.618         	5.01           	0.046
MS.619         	5              	0.052
MS.620         	4.99           	0.056
MS.621         	4.98           	0.056
MS.622         	4.97           	0.05
MS.623         	4.96           	0.064
MS.624         	4.95           	0.042
MS.625         	4.94           	0.07
MS.626         	4.93           	0.054
MS.627         	4.92           	0.052
MS.628         	4.91           	0.036
MS.629         	4.9            	0.044
MS.630         	4.89           	0.03
MS.631         	4.88           	0.032
MS.632         	4.872          	0.032
MS.633         	4.862          	0.032
MS.634         	4.852          	0.03
MS.635         	4.842          	0.034
MS.636         	4.832          	0.036
MS.637         	4.822          	0.03
MS.638         	4.812          	0.032
MS.639         	4.802          	0.05
MS.640         	4.795          	0.066
MS.641         	4.785          	0.028
MS.642         	4.775          	0.052
MS.643         	4.765          	0.054
MS.644         	4.755          	0.03
MS.645         	4.747          	0.028
MS.646         	4.737          	0.032
MS.647         	4.727          	0.036
MS.648         	4.717          	0.056
MS.649         	4.707          	0.032
MS.650         	4.7            	0.046
MS.651         	4.69           	0.032
MS.652         	4.68           	0.042
MS.653         	4.67           	0.03
MS.654         	4.662          	0.034
MS.655         	4.652          	0.032
MS.656         	4.642          	0.032
MS.657         	4.632          	0.034
MS.658         	4.625          	0.036
MS.659         	4.615          	0.04
MS.660         	4.605          	0.034
MS.661         	4.597          	0.024
MS.662         	4.588          	0.02
MS.663         	4.577          	0.026
MS.664         	4.57           	0.036
MS.665         	4.56           	0.026
MS.666         	4.55           	0.018
MS.667         	4.543          	0.02
MS.668         	4.532          	0.028
MS.669         	4.525          	0.032
MS.670         	4.515          	0.034
MS.671         	4.505          	0.024
MS.672         	4.497          	0.018
MS.673         	4.487          	0.02
MS.674         	4.48           	0.024
MS.675         	4.47           	0.02
MS.676         	4.46           	0.018
MS.677         	4.452          	0.02
MS.678         	4.443          	0.024
MS.679         	4.435          	0.022
MS.680         	4.425          	0.032
MS.681         	4.418          	0.016
MS.682         	4.407          	0.022
MS.683         	4.4            	0.012
MS.684         	4.39           	0.024
MS.685         	4.382          	0.022
MS.686         	4.372          	0.022
MS.687         	4.365          	0.018
MS.688         	4.355          	0.014
MS.689         	4.347          	0.016
MS.690         	4.338          	0.014
MS.691         	4.33           	0.02
MS.692         	4.32           	0.004
MS.693         	4.312          	0.018
MS.694         	4.302          	0.014
MS.695         	4.295          	0.018
MS.696         	4.285          	0.02
MS.697         	4.277          	0.026
MS.698         	4.27           	0.014
MS.699         	4.26           	0.016
MS.700         	4.253          	0.016
MS.701         	4.242          	0.022
MS.702         	4.235          	0.012
MS.703         	4.227          	0.018
MS.704         	4.217          	0.022
MS.705         	4.21           	0.024
MS.706         	4.2            	0.018
MS.707         	4.193          	0.012
MS.708         	4.185          	0.022
MS.709         	4.175          	0.028
MS.710         	4.168          	0.004
MS.711         	4.16           	0.004
MS.712         	4.15           	0.004
MS.713         	4.142          	0.004
MS.714         	4.135          	0.008
MS.715         	4.125          	0.014
MS.716         	4.117          	0.004
MS.717         	4.11           	0.000
MS.718         	4.102          	0.016
MS.719         	4.092          	0.004
MS.720         	4.085          	0.022
MS.721         	4.077          	0.004
MS.722         	4.07           	0.004
MS.723         	4.06           	0.004
MS.724         	4.052          	0.006
MS.725         	4.045          	0.006
MS.726         	4.037          	0.006
MS.727         	4.027          	0.01
MS.728         	4.02           	0.006
MS.729         	4.012          	0.004
MS.730         	4.005          	0.006
MS.731         	3.995          	0.008
MS.732         	3.987          	0.01
MS.733         	3.98           	0.008
MS.734         	3.972          	0.024
MS.735         	3.965          	0.012
MS.736         	3.957          	0.026
MS.737         	3.947          	0.024
MS.738         	3.94           	0.012
MS.739         	3.932          	0.008
MS.740         	3.925          	0.018
MS.741         	3.918          	0.018
MS.742         	3.91           	0.000
MS.743         	3.902          	0.01
MS.744         	3.892          	0.014
MS.745         	3.885          	0.008
MS.746         	3.877          	0.008
MS.747         	3.87           	0.008
MS.748         	3.862          	0.01
MS.749         	3.855          	0.018
MS.750         	3.847          	0.016
MS.751         	3.84           	0.006
MS.752         	3.832          	0.01
MS.753         	3.825          	0.008
MS.754         	3.817          	0.02
DERIVED EXCITABILITY VARIABLES
Program = QTracP 3/4/2020
Threshold method = 6 (optimised for CAP, using data for present condition only)
SR method = 1 (using actual data values)
6.                 	0.000               	Peak response\(mV)
9.                 	35.7                	Temperature ( C)
17.                	35                  	Age (years)
18.                	2                   	Sex (M=1, F=2)

EXTRA VARIABLES

MScPeak(mV) = 2.47
MScS5(mA) = 5.25
MScS50(mA) = 7.09
MScS95(mA) = 11
MScNSteps = 0
MScSteps(%) = 0.0
MScStepMax(%) = 0.0
MScD50 = 77
MScSlope = 3.11
MSFPeakAmp(mV) = 2.46
MSFNUnits = 160
MSFMeanUnitAmp(uV) = 15.4
MSFHuntTime(m) = 3.49
MSFError(%) = 0.535
MSFNLarge = 46.4
MSFMedianAmp(%) = 0.521
MSFMedianAmp(mV) = 0.0128
MSFHalfAmpAmp(%) = 0.678
MSFHalfAmpAmp(mV) = 0.0167
MSFLargestAmp(%) = 2.98
MSFLargestAmp(mV) = 0.0734
MSFMeanRS(%) = 2
MSFOpts = 10106121
MScDuration(min) = 7.1
MSFTraces = 704
MSFSizeLimit(uV) = 6.2
MSFLimitType = 1
MSFSmallestAmp(uV) = 6.22

EXTRA WAVEFORMS


!MScan Model
!160
	1	4.45	0.68	2
	2	4.63	0.36	2
	3	4.89	0.28	2
	4	4.95	0.51	2
	5	5.08	0.82	2
	6	5.14	0.75	2
	7	5.18	0.58	2
	8	5.24	0.79	2
	9	5.27	0.52	2
	10	5.3	1.62	2
	11	5.43	1.57	2
	12	5.6	2.98	2
	13	5.71	1.75	2
	14	5.79	0.8	2
	15	5.82	0.69	2
	16	5.84	0.45	2
	17	5.86	0.45	2
	18	5.88	0.4	2
	19	5.89	0.3	2
	20	5.9	0.4	2
	21	5.92	0.57	2
	22	5.93	0.34	2
	23	5.95	0.46	2
	24	5.97	0.44	2
	25	6	0.89	2
	26	6.04	1.13	2
	27	6.09	1.45	2
	28	6.15	1.34	2
	29	6.18	0.52	2
	30	6.19	0.37	2
	31	6.21	0.38	2
	32	6.24	1.08	2
	33	6.31	1.42	2
	34	6.34	0.85	2
	35	6.36	0.31	2
	36	6.38	0.34	2
	37	6.4	0.55	2
	38	6.41	0.29	2
	39	6.41	0.29	2
	40	6.42	0.3	2
	41	6.43	0.37	2
	42	6.44	0.45	2
	43	6.45	0.48	2
	44	6.46	0.44	2
	45	6.47	0.38	2
	46	6.49	0.54	2
	47	6.5	0.55	2
	48	6.52	0.56	2
	49	6.53	0.54	2
	50	6.54	0.51	2
	51	6.56	0.45	2
	52	6.57	0.39	2
	53	6.58	0.41	2
	54	6.58	0.39	2
	55	6.59	0.42	2
	56	6.61	0.61	2
	57	6.65	1.25	2
	58	6.68	0.96	2
	59	6.71	0.77	2
	60	6.73	0.8	2
	61	6.74	0.47	2
	62	6.76	0.39	2
	63	6.77	0.41	2
	64	6.78	0.41	2
	65	6.79	0.41	2
	66	6.8	0.54	2
	67	6.82	0.54	2
	68	6.83	0.85	2
	69	6.88	1.05	2
	70	6.99	1.58	2
	71	7.03	0.71	2
	72	7.05	0.55	2
	73	7.08	0.56	2
	74	7.11	0.6	2
	75	7.14	0.67	2
	76	7.16	0.27	2
	77	7.18	0.36	2
	78	7.21	0.5	2
	79	7.24	0.62	2
	80	7.26	0.31	2
	81	7.28	0.25	2
	82	7.3	0.3	2
	83	7.31	0.3	2
	84	7.33	0.29	1.6
	85	7.36	0.53	2
	86	7.38	0.35	2
	87	7.4	0.45	2
	88	7.43	0.59	2
	89	7.45	0.57	2
	90	7.47	0.53	2
	91	7.49	0.35	2
	92	7.51	0.44	2
	93	7.54	0.7	2
	94	7.6	1.43	2
	95	7.62	0.4	2
	96	7.65	0.37	2
	97	7.67	0.43	2
	98	7.72	0.67	2
	99	7.77	0.69	2
	100	7.81	0.64	2
	101	7.84	0.56	2
	102	7.87	0.56	2
	103	7.91	0.57	2
	104	7.94	0.47	2
	105	7.96	0.43	2
	106	7.99	0.48	2
	107	8.01	0.42	2
	108	8.06	0.74	2
	109	8.1	0.61	2
	110	8.13	0.53	2
	111	8.18	0.81	2
	112	8.23	1.25	2
	113	8.32	1.25	2
	114	8.39	1.2	2
	115	8.42	0.32	2
	116	8.44	0.29	2
	117	8.46	0.26	2
	118	8.48	0.44	2
	119	8.51	0.54	2
	120	8.55	0.45	2
	121	8.57	0.39	2
	122	8.59	0.29	2
	123	8.61	0.29	2
	124	8.63	0.28	2
	125	8.65	0.29	2
	126	8.74	1.12	2
	127	8.8	0.82	2
	128	8.85	1.01	2
	129	8.9	0.38	2
	130	9.03	1.7	2
	131	9.12	0.79	2
	132	9.2	0.75	2
	133	9.23	0.31	2
	134	9.25	0.45	2
	135	9.28	0.5	2
	136	9.36	0.85	2
	137	9.42	0.64	2
	138	9.48	0.59	2
	139	9.6	0.98	2
	140	9.66	0.77	2
	141	9.71	0.52	2
	142	9.75	0.65	2
	143	9.86	1.72	2
	144	9.95	0.91	2
	145	10.02	0.85	2
	146	10.49	0.69	2
	147	10.63	0.3	2
	148	10.72	0.35	2
	149	11.06	0.55	2
	150	11.31	0.43	2
	151	11.83	0.43	2
	152	12.18	0.49	2
	153	12.32	0.33	2
	154	12.51	0.42	2
	155	12.9	0.46	2
	156	13.3	0.39	2
	157	14.09	0.79	2
	158	14.55	0.31	2
	159	15.08	0.32	2
	160	15.61	0.31	2

