File:              	C:\Qtrac\Data\Daniel M Sørensen\MScan multicentre study\Data from centres\Bucharest\Processed data\TDLC00831C.QZD
Name:              	RO.BU.NC.7.1
Protocol:          	MSCAN-R2
Date:              	31/8/20
Start time:        	12:52:54
Age:               	48
Sex:               	F
Temperature:       	36.2
S/R sites:         	TA
NC/disease:        	NC
Operator:          	TL
Comments:          	RONC7.1.
M-SCAN DATA (6.6-1.3m)
Scanpts: 67, 72, 564, 568
Stim. (mA)     	Amp. (mV)
MS.1           	20             	4.439
MS.2           	20             	4.445
MS.3           	20             	4.449
MS.4           	20             	4.439
MS.5           	20             	4.425
MS.6           	20             	4.435
MS.7           	20             	4.433
MS.8           	20             	4.431
MS.9           	20             	4.435
MS.10          	20             	4.427
MS.11          	20             	4.435
MS.12          	20             	4.445
MS.13          	20             	4.435
MS.14          	20             	4.437
MS.15          	20             	4.435
MS.16          	20             	4.439
MS.17          	20             	4.435
MS.18          	20             	4.437
MS.19          	20             	4.445
MS.20          	20             	4.451
MS.21          	20             	4.443
MS.22          	20             	4.447
MS.23          	20             	4.451
MS.24          	19.92          	4.445
MS.25          	19.88          	4.449
MS.26          	19.84          	4.461
MS.27          	19.8           	4.453
MS.28          	19.762         	4.457
MS.29          	19.722         	4.449
MS.30          	19.682         	4.457
MS.31          	19.642         	4.465
MS.32          	19.605         	4.453
MS.33          	19.565         	4.465
MS.34          	19.525         	4.469
MS.35          	19.487         	4.467
MS.36          	19.448         	4.471
MS.37          	19.41          	4.471
MS.38          	19.37          	4.459
MS.39          	19.333         	4.463
MS.40          	19.292         	4.475
MS.41          	19.255         	4.461
MS.42          	19.215         	4.473
MS.43          	19.177         	4.463
MS.44          	19.14          	4.473
MS.45          	19.1           	4.461
MS.46          	19.062         	4.471
MS.47          	19.025         	4.473
MS.48          	18.987         	4.467
MS.49          	18.948         	4.469
MS.50          	18.91          	4.457
MS.51          	18.872         	4.453
MS.52          	18.835         	4.463
MS.53          	18.797         	4.453
MS.54          	18.76          	4.461
MS.55          	18.722         	4.459
MS.56          	18.685         	4.463
MS.57          	18.647         	4.467
MS.58          	18.61          	4.469
MS.59          	18.573         	4.467
MS.60          	18.535         	4.469
MS.61          	18.5           	4.475
MS.62          	18.462         	4.463
MS.63          	18.425         	4.465
MS.64          	18.387         	4.467
MS.65          	18.352         	4.475
MS.66          	18.315         	4.471
MS.67          	18.278         	4.479
MS.68          	18.243         	4.471
MS.69          	18.205         	4.471
MS.70          	18.17          	4.479
MS.71          	18.132         	4.471
MS.72          	18.097         	4.473
MS.73          	18.06          	4.473
MS.74          	18.025         	4.465
MS.75          	17.987         	4.471
MS.76          	17.952         	4.455
MS.77          	17.917         	4.469
MS.78          	17.88          	4.471
MS.79          	17.845         	4.469
MS.80          	17.81          	4.471
MS.81          	17.775         	4.463
MS.82          	17.737         	4.465
MS.83          	17.702         	4.471
MS.84          	17.667         	4.473
MS.85          	17.632         	4.465
MS.86          	17.597         	4.455
MS.87          	17.562         	4.477
MS.88          	17.528         	4.469
MS.89          	17.493         	4.475
MS.90          	17.458         	4.467
MS.91          	17.422         	4.455
MS.92          	17.387         	4.475
MS.93          	17.352         	4.465
MS.94          	17.317         	4.463
MS.95          	17.282         	4.451
MS.96          	17.247         	4.473
MS.97          	17.215         	4.463
MS.98          	17.18          	4.445
MS.99          	17.145         	4.459
MS.100         	17.11          	4.465
MS.101         	17.077         	4.459
MS.102         	17.042         	4.467
MS.103         	17.01          	4.455
MS.104         	16.975         	4.455
MS.105         	16.94          	4.445
MS.106         	16.907         	4.449
MS.107         	16.872         	4.457
MS.108         	16.84          	4.453
MS.109         	16.805         	4.453
MS.110         	16.772         	4.449
MS.111         	16.74          	4.447
MS.112         	16.705         	4.469
MS.113         	16.672         	4.439
MS.114         	16.637         	4.451
MS.115         	16.605         	4.473
MS.116         	16.573         	4.439
MS.117         	16.54          	4.461
MS.118         	16.505         	4.453
MS.119         	16.472         	4.453
MS.120         	16.44          	4.443
MS.121         	16.407         	4.447
MS.122         	16.375         	4.449
MS.123         	16.342         	4.445
MS.124         	16.31          	4.449
MS.125         	16.278         	4.439
MS.126         	16.245         	4.445
MS.127         	16.212         	4.413
MS.128         	16.18          	4.403
MS.129         	16.147         	4.443
MS.130         	16.115         	4.431
MS.131         	16.083         	4.425
MS.132         	16.05          	4.443
MS.133         	16.017         	4.431
MS.134         	15.985         	4.403
MS.135         	15.955         	4.405
MS.136         	15.922         	4.395
MS.137         	15.89          	4.401
MS.138         	15.86          	4.409
MS.139         	15.827         	4.393
MS.140         	15.795         	4.397
MS.141         	15.765         	4.419
MS.142         	15.733         	4.393
MS.143         	15.7           	4.387
MS.144         	15.67          	4.393
MS.145         	15.637         	4.385
MS.146         	15.608         	4.397
MS.147         	15.575         	4.395
MS.148         	15.545         	4.393
MS.149         	15.515         	4.389
MS.150         	15.483         	4.383
MS.151         	15.452         	4.383
MS.152         	15.42          	4.385
MS.153         	15.39          	4.365
MS.154         	15.36          	4.365
MS.155         	15.327         	4.359
MS.156         	15.297         	4.326
MS.157         	15.267         	4.359
MS.158         	15.237         	4.339
MS.159         	15.207         	4.306
MS.160         	15.175         	4.328
MS.161         	15.145         	4.353
MS.162         	15.115         	4.336
MS.163         	15.085         	4.306
MS.164         	15.055         	4.332
MS.165         	15.025         	4.334
MS.166         	14.995         	4.304
MS.167         	14.965         	4.324
MS.168         	14.935         	4.302
MS.169         	14.905         	4.296
MS.170         	14.875         	4.27
MS.171         	14.845         	4.318
MS.172         	14.818         	4.268
MS.173         	14.787         	4.284
MS.174         	14.757         	4.284
MS.175         	14.727         	4.26
MS.176         	14.697         	4.324
MS.177         	14.67          	4.282
MS.178         	14.64          	4.258
MS.179         	14.61          	4.254
MS.180         	14.58          	4.25
MS.181         	14.552         	4.226
MS.182         	14.523         	4.23
MS.183         	14.495         	4.238
MS.184         	14.465         	4.222
MS.185         	14.435         	4.167
MS.186         	14.407         	4.226
MS.187         	14.377         	4.216
MS.188         	14.35          	4.187
MS.189         	14.32          	4.163
MS.190         	14.292         	4.216
MS.191         	14.265         	4.163
MS.192         	14.235         	4.139
MS.193         	14.207         	4.147
MS.194         	14.177         	4.139
MS.195         	14.15          	4.075
MS.196         	14.122         	4.125
MS.197         	14.092         	4.101
MS.198         	14.065         	4.099
MS.199         	14.037         	4.052
MS.200         	14.01          	4.057
MS.201         	13.983         	4.109
MS.202         	13.952         	4.073
MS.203         	13.925         	4.061
MS.204         	13.898         	4.063
MS.205         	13.87          	4.067
MS.206         	13.842         	4.067
MS.207         	13.815         	4.059
MS.208         	13.787         	4
MS.209         	13.76          	4.03
MS.210         	13.733         	4.036
MS.211         	13.705         	4.02
MS.212         	13.677         	3.942
MS.213         	13.65          	3.956
MS.214         	13.622         	3.986
MS.215         	13.595         	4.028
MS.216         	13.568         	4
MS.217         	13.54          	3.946
MS.218         	13.515         	3.934
MS.219         	13.487         	3.974
MS.220         	13.46          	3.95
MS.221         	13.432         	3.946
MS.222         	13.407         	3.972
MS.223         	13.38          	3.95
MS.224         	13.352         	3.97
MS.225         	13.325         	3.932
MS.226         	13.3           	3.97
MS.227         	13.273         	3.899
MS.228         	13.247         	3.911
MS.229         	13.22          	3.918
MS.230         	13.193         	3.94
MS.231         	13.167         	3.881
MS.232         	13.14          	3.903
MS.233         	13.115         	3.855
MS.234         	13.087         	3.859
MS.235         	13.062         	3.867
MS.236         	13.035         	3.817
MS.237         	13.01          	3.857
MS.238         	12.985         	3.887
MS.239         	12.957         	3.873
MS.240         	12.932         	3.829
MS.241         	12.907         	3.797
MS.242         	12.88          	3.851
MS.243         	12.855         	3.819
MS.244         	12.83          	3.781
MS.245         	12.802         	3.789
MS.246         	12.778         	3.783
MS.247         	12.752         	3.752
MS.248         	12.727         	3.75
MS.249         	12.702         	3.694
MS.250         	12.675         	3.738
MS.251         	12.65          	3.724
MS.252         	12.625         	3.73
MS.253         	12.6           	3.734
MS.254         	12.575         	3.662
MS.255         	12.55          	3.67
MS.256         	12.525         	3.652
MS.257         	12.5           	3.638
MS.258         	12.475         	3.599
MS.259         	12.45          	3.615
MS.260         	12.425         	3.603
MS.261         	12.4           	3.583
MS.262         	12.375         	3.593
MS.263         	12.35          	3.593
MS.264         	12.325         	3.543
MS.265         	12.302         	3.577
MS.266         	12.278         	3.569
MS.267         	12.252         	3.549
MS.268         	12.227         	3.557
MS.269         	12.202         	3.495
MS.270         	12.18          	3.476
MS.271         	12.155         	3.495
MS.272         	12.13          	3.466
MS.273         	12.108         	3.458
MS.274         	12.082         	3.454
MS.275         	12.057         	3.38
MS.276         	12.035         	3.412
MS.277         	12.01          	3.386
MS.278         	11.985         	3.38
MS.279         	11.962         	3.35
MS.280         	11.938         	3.331
MS.281         	11.915         	3.358
MS.282         	11.89          	3.311
MS.283         	11.867         	3.277
MS.284         	11.842         	3.247
MS.285         	11.82          	3.265
MS.286         	11.795         	3.225
MS.287         	11.773         	3.19
MS.288         	11.747         	3.198
MS.289         	11.725         	3.134
MS.290         	11.702         	3.205
MS.291         	11.677         	3.152
MS.292         	11.655         	3.14
MS.293         	11.632         	3.11
MS.294         	11.608         	3.128
MS.295         	11.585         	3.098
MS.296         	11.562         	3.086
MS.297         	11.54          	3.07
MS.298         	11.515         	3.088
MS.299         	11.492         	3.017
MS.300         	11.47          	3.043
MS.301         	11.447         	3.021
MS.302         	11.425         	2.977
MS.303         	11.403         	2.955
MS.304         	11.377         	2.951
MS.305         	11.355         	2.902
MS.306         	11.332         	2.933
MS.307         	11.31          	2.967
MS.308         	11.287         	2.844
MS.309         	11.265         	2.84
MS.310         	11.242         	2.822
MS.311         	11.22          	2.814
MS.312         	11.197         	2.83
MS.313         	11.175         	2.776
MS.314         	11.153         	2.773
MS.315         	11.13          	2.661
MS.316         	11.108         	2.711
MS.317         	11.087         	2.755
MS.318         	11.065         	2.717
MS.319         	11.042         	2.671
MS.320         	11.02          	2.689
MS.321         	10.997         	2.671
MS.322         	10.975         	2.653
MS.323         	10.955         	2.667
MS.324         	10.932         	2.558
MS.325         	10.91          	2.584
MS.326         	10.887         	2.526
MS.327         	10.867         	2.564
MS.328         	10.845         	2.53
MS.329         	10.823         	2.552
MS.330         	10.802         	2.477
MS.331         	10.78          	2.516
MS.332         	10.76          	2.475
MS.333         	10.738         	2.492
MS.334         	10.715         	2.512
MS.335         	10.695         	2.455
MS.336         	10.672         	2.457
MS.337         	10.653         	2.429
MS.338         	10.63          	2.445
MS.339         	10.61          	2.365
MS.340         	10.587         	2.351
MS.341         	10.568         	2.371
MS.342         	10.545         	2.361
MS.343         	10.525         	2.28
MS.344         	10.502         	2.32
MS.345         	10.483         	2.292
MS.346         	10.462         	2.266
MS.347         	10.44          	2.21
MS.348         	10.42          	2.264
MS.349         	10.4           	2.216
MS.350         	10.377         	2.228
MS.351         	10.358         	2.109
MS.352         	10.337         	2.185
MS.353         	10.318         	2.161
MS.354         	10.295         	2.125
MS.355         	10.275         	2.091
MS.356         	10.255         	2.087
MS.357         	10.235         	2.004
MS.358         	10.212         	2.014
MS.359         	10.193         	2.016
MS.360         	10.172         	1.94
MS.361         	10.153         	2.012
MS.362         	10.132         	2.01
MS.363         	10.113         	1.97
MS.364         	10.092         	1.907
MS.365         	10.073         	1.895
MS.366         	10.052         	1.885
MS.367         	10.032         	1.847
MS.368         	10.012         	1.895
MS.369         	9.992          	1.805
MS.370         	9.972          	1.799
MS.371         	9.952          	1.801
MS.372         	9.932          	1.718
MS.373         	9.912          	1.752
MS.374         	9.892          	1.708
MS.375         	9.872          	1.664
MS.376         	9.852          	1.674
MS.377         	9.832          	1.603
MS.378         	9.812          	1.573
MS.379         	9.792          	1.561
MS.380         	9.775          	1.577
MS.381         	9.755          	1.537
MS.382         	9.735          	1.571
MS.383         	9.715          	1.507
MS.384         	9.695          	1.525
MS.385         	9.677          	1.527
MS.386         	9.657          	1.511
MS.387         	9.637          	1.482
MS.388         	9.62           	1.422
MS.389         	9.6            	1.442
MS.390         	9.58           	1.428
MS.391         	9.562          	1.452
MS.392         	9.542          	1.398
MS.393         	9.523          	1.388
MS.394         	9.505          	1.374
MS.395         	9.485          	1.354
MS.396         	9.465          	1.374
MS.397         	9.448          	1.313
MS.398         	9.427          	1.378
MS.399         	9.41           	1.329
MS.400         	9.39           	1.299
MS.401         	9.372          	1.267
MS.402         	9.352          	1.273
MS.403         	9.335          	1.215
MS.404         	9.315          	1.293
MS.405         	9.297          	1.229
MS.406         	9.28           	1.227
MS.407         	9.26           	1.263
MS.408         	9.242          	1.219
MS.409         	9.222          	1.164
MS.410         	9.205          	1.18
MS.411         	9.188          	1.148
MS.412         	9.167          	1.168
MS.413         	9.15           	1.152
MS.414         	9.132          	1.08
MS.415         	9.113          	1.082
MS.416         	9.095          	1.112
MS.417         	9.077          	1.023
MS.418         	9.057          	1.049
MS.419         	9.04           	1.009
MS.420         	9.023          	1.035
MS.421         	9.005          	0.995
MS.422         	8.988          	1.005
MS.423         	8.967          	0.945
MS.424         	8.95           	0.953
MS.425         	8.932          	0.961
MS.426         	8.915          	0.898
MS.427         	8.898          	0.894
MS.428         	8.88           	0.935
MS.429         	8.863          	0.89
MS.430         	8.845          	0.884
MS.431         	8.825          	0.882
MS.432         	8.807          	0.854
MS.433         	8.79           	0.81
MS.434         	8.773          	0.796
MS.435         	8.755          	0.788
MS.436         	8.738          	0.796
MS.437         	8.72           	0.769
MS.438         	8.702          	0.804
MS.439         	8.685          	0.796
MS.440         	8.67           	0.763
MS.441         	8.653          	0.709
MS.442         	8.635          	0.697
MS.443         	8.617          	0.707
MS.444         	8.6            	0.653
MS.445         	8.582          	0.665
MS.446         	8.565          	0.653
MS.447         	8.547          	0.604
MS.448         	8.53           	0.638
MS.449         	8.515          	0.632
MS.450         	8.497          	0.562
MS.451         	8.48           	0.624
MS.452         	8.462          	0.588
MS.453         	8.448          	0.554
MS.454         	8.43           	0.616
MS.455         	8.412          	0.566
MS.456         	8.395          	0.548
MS.457         	8.38           	0.566
MS.458         	8.363          	0.554
MS.459         	8.345          	0.514
MS.460         	8.33           	0.489
MS.461         	8.312          	0.5
MS.462         	8.295          	0.483
MS.463         	8.28           	0.441
MS.464         	8.262          	0.467
MS.465         	8.245          	0.463
MS.466         	8.23           	0.409
MS.467         	8.212          	0.443
MS.468         	8.198          	0.403
MS.469         	8.18           	0.385
MS.470         	8.165          	0.413
MS.471         	8.148          	0.377
MS.472         	8.132          	0.363
MS.473         	8.115          	0.344
MS.474         	8.1            	0.377
MS.475         	8.082          	0.324
MS.476         	8.068          	0.361
MS.477         	8.05           	0.383
MS.478         	8.035          	0.292
MS.479         	8.017          	0.298
MS.480         	8.002          	0.304
MS.481         	7.987          	0.256
MS.482         	7.97           	0.306
MS.483         	7.955          	0.29
MS.484         	7.938          	0.276
MS.485         	7.922          	0.298
MS.486         	7.907          	0.286
MS.487         	7.89           	0.282
MS.488         	7.875          	0.258
MS.489         	7.86           	0.262
MS.490         	7.845          	0.226
MS.491         	7.827          	0.234
MS.492         	7.812          	0.23
MS.493         	7.797          	0.234
MS.494         	7.782          	0.201
MS.495         	7.765          	0.185
MS.496         	7.75           	0.185
MS.497         	7.735          	0.228
MS.498         	7.72           	0.175
MS.499         	7.705          	0.195
MS.500         	7.688          	0.147
MS.501         	7.672          	0.185
MS.502         	7.657          	0.169
MS.503         	7.642          	0.137
MS.504         	7.628          	0.133
MS.505         	7.612          	0.127
MS.506         	7.597          	0.143
MS.507         	7.582          	0.103
MS.508         	7.567          	0.107
MS.509         	7.552          	0.133
MS.510         	7.537          	0.121
MS.511         	7.52           	0.141
MS.512         	7.505          	0.079
MS.513         	7.49           	0.115
MS.514         	7.475          	0.093
MS.515         	7.462          	0.109
MS.516         	7.447          	0.091
MS.517         	7.432          	0.085
MS.518         	7.418          	0.099
MS.519         	7.402          	0.056
MS.520         	7.387          	0.068
MS.521         	7.372          	0.085
MS.522         	7.357          	0.081
MS.523         	7.342          	0.068
MS.524         	7.327          	0.036
MS.525         	7.312          	0.032
MS.526         	7.3            	0.046
MS.527         	7.285          	0.062
MS.528         	7.27           	0.044
MS.529         	7.255          	0.038
MS.530         	7.24           	0.042
MS.531         	7.227          	0.038
MS.532         	7.212          	0.032
MS.533         	7.197          	0.04
MS.534         	7.182          	0.032
MS.535         	7.168          	0.036
MS.536         	7.155          	0.012
MS.537         	7.14           	0.024
MS.538         	7.125          	0.026
MS.539         	7.112          	0.022
MS.540         	7.097          	0.01
MS.541         	7.082          	0.018
MS.542         	7.07           	0.04
MS.543         	7.055          	0.024
MS.544         	7.04           	0.028
MS.545         	7.027          	0.016
MS.546         	7.012          	0.002
MS.547         	6.997          	-0.002
MS.548         	6.985          	0.004
MS.549         	6.97           	0.004
MS.550         	6.957          	0.000
MS.551         	6.942          	-0.006
MS.552         	6.93           	-0.002
MS.553         	6.915          	-0.01
MS.554         	6.902          	-0.01
MS.555         	6.887          	0.016
MS.556         	6.875          	0.014
MS.557         	6.86           	-0.008
MS.558         	6.847          	-0.01
MS.559         	6.832          	-0.018
MS.560         	6.82           	-0.008
MS.561         	6.805          	-0.016
MS.562         	6.793          	-0.012
MS.563         	6.777          	-0.016
MS.564         	6.765          	-0.016
MS.565         	6.753          	-0.016
MS.566         	6.737          	-0.016
MS.567         	6.725          	-0.018
MS.568         	6.71           	-0.01
MS.569         	6.697          	-0.008
MS.570         	6.685          	-0.014
MS.571         	6.67           	-0.018
MS.572         	6.657          	-0.014
MS.573         	6.645          	-0.014
MS.574         	6.63           	-0.016
MS.575         	6.617          	-0.016
MS.576         	6.605          	-0.014
MS.577         	6.59           	-0.012
MS.578         	6.577          	-0.012
DERIVED EXCITABILITY VARIABLES
Program = QTracP 3/4/2020
Threshold method = 6 (optimised for CAP, using data for present condition only)
SR method = 1 (using actual data values)
6.                 	0.000               	Peak response\(mV)
9.                 	36.2                	Temperature ( C)
17.                	48                  	Age (years)
18.                	2                   	Sex (M=1, F=2)

EXTRA VARIABLES

MScPeak(mV) = 4.45
MScS5(mA) = 7.75
MScS50(mA) = 10.41
MScS95(mA) = 14.52
MScNSteps = 0
MScSteps(%) = 0.0
MScStepMax(%) = 0.0
MScD50 = 70
MScSlope = 3.73
MSFPeakAmp(mV) = 4.49
MSFNUnits = 200
MSFMeanUnitAmp(uV) = 22.4
MSFHuntTime(m) = 3.36
MSFError(%) = 0.614
MSFNLarge = 77.95
MSFMedianAmp(%) = 0.483
MSFMedianAmp(mV) = 0.0217
MSFHalfAmpAmp(%) = 0.531
MSFHalfAmpAmp(mV) = 0.0238
MSFLargestAmp(%) = 1.38
MSFLargestAmp(mV) = 0.0621
MSFMeanRS(%) = 2
MSFOpts = 10106121
MScDuration(min) = 5.3
MSFTraces = 502
MSFSizeLimit(uV) = 11.2
MSFLimitType = 1
MSFSmallestAmp(uV) = 12.7

EXTRA WAVEFORMS


!MScan Model
!200
	1	7	0.55	2
	2	7.12	0.35	2
	3	7.26	0.51	2
	4	7.36	0.49	2
	5	7.46	0.56	2
	6	7.55	0.66	2
	7	7.62	0.52	2
	8	7.66	0.4	2
	9	7.71	0.46	2
	10	7.76	0.42	2
	11	7.83	0.65	2
	12	7.89	0.64	2
	13	7.96	0.64	2
	14	8.02	0.68	2
	15	8.07	0.57	2
	16	8.11	0.46	2
	17	8.14	0.42	2
	18	8.18	0.49	2
	19	8.21	0.46	2
	20	8.24	0.48	2
	21	8.28	0.48	2
	22	8.31	0.44	2
	23	8.35	0.47	2
	24	8.38	0.55	2
	25	8.42	0.53	2
	26	8.45	0.53	2
	27	8.49	0.59	2
	28	8.52	0.58	2
	29	8.56	0.56	2
	30	8.59	0.51	2
	31	8.62	0.38	2
	32	8.64	0.39	2
	33	8.67	0.42	2
	34	8.69	0.42	2
	35	8.71	0.37	2
	36	8.74	0.38	2
	37	8.76	0.38	2
	38	8.78	0.39	2
	39	8.8	0.41	2
	40	8.82	0.4	2
	41	8.84	0.39	2
	42	8.87	0.37	2
	43	8.89	0.33	2
	44	8.9	0.34	2
	45	8.92	0.34	2
	46	8.94	0.35	2
	47	8.96	0.35	2
	48	8.98	0.35	2
	49	9	0.36	2
	50	9.02	0.37	2
	51	9.04	0.36	2
	52	9.06	0.44	2
	53	9.09	0.44	2
	54	9.12	0.43	2
	55	9.14	0.5	2
	56	9.17	0.5	2
	57	9.2	0.49	2
	58	9.23	0.5	2
	59	9.26	0.54	2
	60	9.29	0.51	2
	61	9.32	0.54	2
	62	9.35	0.58	2
	63	9.39	0.54	2
	64	9.42	0.52	2
	65	9.46	0.54	2
	66	9.49	0.54	2
	67	9.53	0.51	2
	68	9.56	0.52	2
	69	9.6	0.56	2
	70	9.63	0.42	2
	71	9.66	0.67	2
	72	9.68	0.53	2
	73	9.73	0.39	2
	74	9.75	0.43	2
	75	9.77	0.46	2
	76	9.79	0.45	2
	77	9.81	0.4	2
	78	9.83	0.41	2
	79	9.85	0.44	2
	80	9.87	0.46	2
	81	9.89	0.52	2
	82	9.91	0.47	2
	83	9.94	0.46	2
	84	9.96	0.46	2
	85	9.98	0.49	2
	86	10	0.54	2
	87	10.03	0.55	2
	88	10.05	0.54	2
	89	10.07	0.53	2
	90	10.09	0.38	2
	91	10.1	0.57	2
	92	10.12	0.59	2
	93	10.15	0.57	2
	94	10.17	0.56	2
	95	10.2	0.54	2
	96	10.22	0.58	2
	97	10.25	0.57	2
	98	10.28	0.56	2
	99	10.3	0.56	2
	100	10.33	0.56	2
	101	10.36	0.55	2
	102	10.38	0.54	2
	103	10.41	0.5	2
	104	10.43	0.45	2
	105	10.46	0.45	2
	106	10.48	0.44	2
	107	10.52	0.67	2
	108	10.55	0.66	2
	109	10.59	0.58	2
	110	10.62	0.6	2
	111	10.66	0.61	2
	112	10.69	0.59	2
	113	10.73	0.57	2
	114	10.76	0.58	2
	115	10.8	0.58	2
	116	10.84	0.64	2
	117	10.89	0.78	2
	118	10.93	0.64	2
	119	10.97	0.55	2
	120	11.01	0.62	2
	121	11.05	0.63	2
	122	11.08	0.59	2
	123	11.12	0.59	2
	124	11.15	0.58	2
	125	11.19	0.59	2
	126	11.22	0.6	2
	127	11.25	0.48	2
	128	11.27	0.45	2
	129	11.3	0.45	2
	130	11.33	0.45	2
	131	11.36	0.48	2
	132	11.38	0.46	2
	133	11.41	0.43	2
	134	11.44	0.41	2
	135	11.46	0.43	2
	136	11.49	0.47	2
	137	11.52	0.46	2
	138	11.55	0.45	2
	139	11.58	0.44	2
	140	11.6	0.34	2
	141	11.62	0.3	2
	142	11.64	0.3	2
	143	11.66	0.3	2
	144	11.67	0.31	2
	145	11.69	0.29	2
	146	11.71	0.29	2
	147	11.73	0.28	2
	148	11.75	0.28	2
	149	11.77	0.29	2
	150	11.79	0.29	2
	151	11.81	0.29	2
	152	11.83	0.29	2
	153	11.85	0.29	2
	154	11.87	0.29	2
	155	11.89	0.3	2
	156	11.9	0.3	2
	157	11.93	0.32	2
	158	11.95	0.33	2
	159	11.97	0.32	2
	160	11.99	0.32	2
	161	12.02	0.31	2
	162	12.04	0.31	2
	163	12.06	0.34	2
	164	12.09	0.39	2
	165	12.11	0.39	2
	166	12.14	0.29	2
	167	12.17	0.34	2
	168	12.2	0.43	2
	169	12.23	0.42	2
	170	12.27	0.4	2
	171	12.3	0.39	2
	172	12.34	0.51	2
	173	12.38	0.48	2
	174	12.43	0.47	2
	175	12.48	0.51	2
	176	12.52	0.51	2
	177	12.57	0.44	2
	178	12.61	0.4	2
	179	12.66	0.44	2
	180	12.72	0.64	2
	181	12.79	0.53	2
	182	12.86	1.14	2
	183	12.88	0.82	2
	184	12.99	0.81	2
	185	13.43	1.38	2
	186	13.66	1.15	2
	187	13.86	0.92	2
	188	13.99	0.8	2
	189	14.1	0.7	2
	190	14.19	0.58	2
	191	14.28	0.55	2
	192	14.4	0.66	2
	193	14.53	0.81	2
	194	14.69	0.76	1.8
	195	14.94	0.96	2
	196	15.16	0.64	2
	197	15.33	0.49	2
	198	15.58	0.57	2
	199	15.99	0.77	2
	200	16.83	0.86	2

