File:              	C:\Qtrac\Data\Daniel M Sørensen\MScan multicentre study\Data from centres\Bucharest\TDLC00127C.QZD
Name:              	RO.BU.NC.1.1
Protocol:          	MSCAN-R2
Date:              	27/1/20
Start time:        	15:25:18
Age:               	30
Sex:               	M
Temperature:       	36.4
S/R sites:         	TA
NC/disease:        	RONC1.1
Operator:          	TL
Comments:
M-SCAN DATA (13.7-2.3m)
Scanpts: 166, 172, 820, 840
Stim. (mA)     	Amp. (mV)
MS.1           	25             	6.49
MS.2           	25             	6.516
MS.3           	25             	6.52
MS.4           	25             	6.467
MS.5           	25             	6.431
MS.6           	25             	6.451
MS.7           	25             	6.397
MS.8           	25             	6.453
MS.9           	25             	6.429
MS.10          	25             	6.399
MS.11          	25             	6.403
MS.12          	25             	6.427
MS.13          	25             	6.405
MS.14          	25             	6.401
MS.15          	25             	6.409
MS.16          	25             	6.419
MS.17          	25             	6.415
MS.18          	25             	6.425
MS.19          	25             	6.411
MS.20          	25             	6.437
MS.21          	25             	6.431
MS.22          	25             	6.439
MS.23          	25             	6.419
MS.24          	24.9           	6.425
MS.25          	24.85          	6.463
MS.26          	24.8           	6.457
MS.27          	24.75          	6.441
MS.28          	24.702         	6.453
MS.29          	24.653         	6.421
MS.30          	24.602         	6.443
MS.31          	24.555         	6.433
MS.32          	24.505         	6.451
MS.33          	24.455         	6.465
MS.34          	24.407         	6.431
MS.35          	24.358         	6.439
MS.36          	24.31          	6.459
MS.37          	24.26          	6.435
MS.38          	24.212         	6.453
MS.39          	24.165         	6.417
MS.40          	24.115         	6.433
MS.41          	24.067         	6.411
MS.42          	24.02          	6.459
MS.43          	23.972         	6.457
MS.44          	23.925         	6.474
MS.45          	23.875         	6.437
MS.46          	23.827         	6.415
MS.47          	23.78          	6.449
MS.48          	23.733         	6.443
MS.49          	23.685         	6.445
MS.50          	23.637         	6.459
MS.51          	23.59          	6.435
MS.52          	23.545         	6.375
MS.53          	23.497         	6.439
MS.54          	23.45          	6.461
MS.55          	23.403         	6.455
MS.56          	23.358         	6.463
MS.57          	23.31          	6.405
MS.58          	23.262         	6.451
MS.59          	23.217         	6.48
MS.60          	23.17          	6.476
MS.61          	23.125         	6.453
MS.62          	23.077         	6.425
MS.63          	23.032         	6.429
MS.64          	22.985         	6.443
MS.65          	22.94          	6.471
MS.66          	22.895         	6.435
MS.67          	22.847         	6.451
MS.68          	22.802         	6.435
MS.69          	22.757         	6.447
MS.70          	22.712         	6.498
MS.71          	22.665         	6.494
MS.72          	22.62          	6.484
MS.73          	22.575         	6.494
MS.74          	22.53          	6.439
MS.75          	22.485         	6.469
MS.76          	22.44          	6.488
MS.77          	22.395         	6.445
MS.78          	22.35          	6.455
MS.79          	22.307         	6.453
MS.80          	22.262         	6.457
MS.81          	22.217         	6.476
MS.82          	22.172         	6.465
MS.83          	22.127         	6.476
MS.84          	22.085         	6.488
MS.85          	22.04          	6.486
MS.86          	21.995         	6.469
MS.87          	21.952         	6.476
MS.88          	21.907         	6.474
MS.89          	21.865         	6.488
MS.90          	21.82          	6.488
MS.91          	21.778         	6.474
MS.92          	21.735         	6.478
MS.93          	21.69          	6.52
MS.94          	21.647         	6.49
MS.95          	21.605         	6.48
MS.96          	21.56          	6.51
MS.97          	21.517         	6.467
MS.98          	21.475         	6.49
MS.99          	21.432         	6.488
MS.100         	21.39          	6.494
MS.101         	21.345         	6.486
MS.102         	21.302         	6.49
MS.103         	21.26          	6.502
MS.104         	21.217         	6.508
MS.105         	21.175         	6.494
MS.106         	21.135         	6.508
MS.107         	21.092         	6.498
MS.108         	21.05          	6.504
MS.109         	21.007         	6.53
MS.110         	20.965         	6.518
MS.111         	20.922         	6.508
MS.112         	20.882         	6.524
MS.113         	20.84          	6.506
MS.114         	20.797         	6.526
MS.115         	20.757         	6.504
MS.116         	20.715         	6.51
MS.117         	20.675         	6.518
MS.118         	20.632         	6.524
MS.119         	20.592         	6.514
MS.120         	20.55          	6.518
MS.121         	20.51          	6.514
MS.122         	20.467         	6.542
MS.123         	20.427         	6.536
MS.124         	20.387         	6.522
MS.125         	20.345         	6.53
MS.126         	20.305         	6.534
MS.127         	20.265         	6.536
MS.128         	20.225         	6.518
MS.129         	20.182         	6.544
MS.130         	20.142         	6.548
MS.131         	20.102         	6.512
MS.132         	20.062         	6.512
MS.133         	20.022         	6.564
MS.134         	19.983         	6.56
MS.135         	19.942         	6.544
MS.136         	19.903         	6.536
MS.137         	19.862         	6.538
MS.138         	19.823         	6.534
MS.139         	19.785         	6.532
MS.140         	19.745         	6.54
MS.141         	19.705         	6.53
MS.142         	19.665         	6.536
MS.143         	19.627         	6.562
MS.144         	19.587         	6.57
MS.145         	19.547         	6.546
MS.146         	19.51          	6.57
MS.147         	19.47          	6.56
MS.148         	19.43          	6.53
MS.149         	19.392         	6.59
MS.150         	19.352         	6.54
MS.151         	19.315         	6.514
MS.152         	19.275         	6.546
MS.153         	19.237         	6.5
MS.154         	19.2           	6.588
MS.155         	19.16          	6.51
MS.156         	19.122         	6.56
MS.157         	19.085         	6.544
MS.158         	19.047         	6.514
MS.159         	19.007         	6.55
MS.160         	18.97          	6.52
MS.161         	18.932         	6.542
MS.162         	18.895         	6.532
MS.163         	18.858         	6.54
MS.164         	18.82          	6.558
MS.165         	18.782         	6.574
MS.166         	18.745         	6.528
MS.167         	18.708         	6.542
MS.168         	18.67          	6.546
MS.169         	18.632         	6.55
MS.170         	18.595         	6.562
MS.171         	18.557         	6.56
MS.172         	18.52          	6.568
MS.173         	18.483         	6.544
MS.174         	18.448         	6.562
MS.175         	18.41          	6.532
MS.176         	18.372         	6.546
MS.177         	18.335         	6.552
MS.178         	18.3           	6.544
MS.179         	18.262         	6.55
MS.180         	18.227         	6.532
MS.181         	18.19          	6.554
MS.182         	18.153         	6.562
MS.183         	18.118         	6.532
MS.184         	18.08          	6.564
MS.185         	18.045         	6.568
MS.186         	18.01          	6.546
MS.187         	17.972         	6.59
MS.188         	17.938         	6.574
MS.189         	17.903         	6.568
MS.190         	17.865         	6.542
MS.191         	17.83          	6.588
MS.192         	17.795         	6.58
MS.193         	17.757         	6.625
MS.194         	17.722         	6.598
MS.195         	17.688         	6.606
MS.196         	17.653         	6.594
MS.197         	17.618         	6.604
MS.198         	17.583         	6.627
MS.199         	17.547         	6.592
MS.200         	17.512         	6.534
MS.201         	17.477         	6.594
MS.202         	17.442         	6.619
MS.203         	17.407         	6.608
MS.204         	17.372         	6.526
MS.205         	17.337         	6.602
MS.206         	17.302         	6.54
MS.207         	17.267         	6.623
MS.208         	17.235         	6.617
MS.209         	17.2           	6.536
MS.210         	17.165         	6.526
MS.211         	17.13          	6.637
MS.212         	17.097         	6.592
MS.213         	17.062         	6.562
MS.214         	17.028         	6.566
MS.215         	16.995         	6.568
MS.216         	16.96          	6.542
MS.217         	16.927         	6.48
MS.218         	16.892         	6.534
MS.219         	16.86          	6.554
MS.220         	16.825         	6.536
MS.221         	16.792         	6.56
MS.222         	16.757         	6.562
MS.223         	16.725         	6.548
MS.224         	16.69          	6.524
MS.225         	16.657         	6.5
MS.226         	16.625         	6.506
MS.227         	16.59          	6.429
MS.228         	16.557         	6.48
MS.229         	16.525         	6.451
MS.230         	16.493         	6.546
MS.231         	16.46          	6.306
MS.232         	16.425         	6.417
MS.233         	16.392         	6.409
MS.234         	16.36          	6.427
MS.235         	16.327         	6.508
MS.236         	16.295         	6.48
MS.237         	16.262         	6.427
MS.238         	16.23          	6.355
MS.239         	16.198         	6.409
MS.240         	16.165         	6.502
MS.241         	16.132         	6.395
MS.242         	16.1           	6.403
MS.243         	16.067         	6.397
MS.244         	16.038         	6.343
MS.245         	16.005         	6.522
MS.246         	15.972         	6.316
MS.247         	15.94          	6.248
MS.248         	15.91          	6.284
MS.249         	15.877         	6.333
MS.250         	15.845         	6.425
MS.251         	15.812         	6.337
MS.252         	15.782         	6.371
MS.253         	15.75          	6.298
MS.254         	15.72          	6.359
MS.255         	15.688         	6.361
MS.256         	15.657         	6.333
MS.257         	15.625         	6.26
MS.258         	15.595         	6.341
MS.259         	15.562         	6.27
MS.260         	15.532         	6.26
MS.261         	15.5           	6.369
MS.262         	15.47          	6.258
MS.263         	15.438         	6.161
MS.264         	15.407         	6.179
MS.265         	15.377         	6.397
MS.266         	15.347         	6.147
MS.267         	15.315         	6.258
MS.268         	15.285         	6.244
MS.269         	15.255         	6.117
MS.270         	15.225         	6.192
MS.271         	15.193         	6.169
MS.272         	15.162         	6.087
MS.273         	15.132         	6.034
MS.274         	15.102         	6.173
MS.275         	15.072         	6.089
MS.276         	15.042         	5.994
MS.277         	15.012         	6.024
MS.278         	14.983         	5.986
MS.279         	14.952         	6.111
MS.280         	14.922         	6.012
MS.281         	14.892         	5.932
MS.282         	14.862         	6.099
MS.283         	14.832         	5.916
MS.284         	14.802         	5.99
MS.285         	14.775         	5.962
MS.286         	14.745         	5.966
MS.287         	14.715         	5.956
MS.288         	14.685         	5.924
MS.289         	14.657         	5.966
MS.290         	14.627         	6.087
MS.291         	14.597         	6.026
MS.292         	14.568         	6.071
MS.293         	14.54          	6.061
MS.294         	14.51          	5.998
MS.295         	14.483         	6.018
MS.296         	14.452         	6.022
MS.297         	14.422         	6.049
MS.298         	14.395         	5.976
MS.299         	14.365         	6.002
MS.300         	14.337         	5.829
MS.301         	14.31          	6.038
MS.302         	14.28          	5.899
MS.303         	14.252         	5.817
MS.304         	14.222         	5.94
MS.305         	14.195         	5.877
MS.306         	14.167         	5.845
MS.307         	14.137         	5.974
MS.308         	14.11          	5.912
MS.309         	14.082         	5.962
MS.310         	14.052         	5.855
MS.311         	14.025         	5.789
MS.312         	13.997         	5.914
MS.313         	13.97          	5.916
MS.314         	13.943         	5.831
MS.315         	13.912         	5.98
MS.316         	13.885         	5.825
MS.317         	13.858         	5.821
MS.318         	13.83          	5.742
MS.319         	13.802         	5.877
MS.320         	13.775         	6.02
MS.321         	13.747         	5.793
MS.322         	13.72          	5.841
MS.323         	13.693         	5.692
MS.324         	13.665         	5.722
MS.325         	13.637         	5.819
MS.326         	13.61          	5.833
MS.327         	13.582         	5.708
MS.328         	13.557         	5.704
MS.329         	13.53          	5.74
MS.330         	13.502         	5.795
MS.331         	13.475         	5.696
MS.332         	13.447         	5.773
MS.333         	13.422         	5.658
MS.334         	13.395         	5.71
MS.335         	13.367         	5.895
MS.336         	13.342         	5.843
MS.337         	13.315         	5.74
MS.338         	13.287         	6.022
MS.339         	13.262         	5.839
MS.340         	13.235         	5.775
MS.341         	13.207         	5.869
MS.342         	13.182         	5.922
MS.343         	13.155         	5.609
MS.344         	13.13          	5.775
MS.345         	13.102         	5.775
MS.346         	13.077         	5.742
MS.347         	13.05          	5.628
MS.348         	13.025         	5.853
MS.349         	13             	5.585
MS.350         	12.972         	5.734
MS.351         	12.947         	5.605
MS.352         	12.92          	5.756
MS.353         	12.895         	5.797
MS.354         	12.87          	5.734
MS.355         	12.845         	5.793
MS.356         	12.818         	5.628
MS.357         	12.792         	5.7
MS.358         	12.767         	5.712
MS.359         	12.742         	5.758
MS.360         	12.715         	5.686
MS.361         	12.69          	5.662
MS.362         	12.665         	5.811
MS.363         	12.64          	5.732
MS.364         	12.615         	5.728
MS.365         	12.59          	5.533
MS.366         	12.565         	5.624
MS.367         	12.54          	5.495
MS.368         	12.515         	5.517
MS.369         	12.49          	5.493
MS.370         	12.465         	5.593
MS.371         	12.44          	5.583
MS.372         	12.415         	5.575
MS.373         	12.39          	5.513
MS.374         	12.365         	5.394
MS.375         	12.34          	5.374
MS.376         	12.315         	5.477
MS.377         	12.29          	5.416
MS.378         	12.267         	5.331
MS.379         	12.242         	5.513
MS.380         	12.217         	5.479
MS.381         	12.193         	5.354
MS.382         	12.17          	5.434
MS.383         	12.145         	5.348
MS.384         	12.12          	5.293
MS.385         	12.095         	5.275
MS.386         	12.072         	5.366
MS.387         	12.047         	5.297
MS.388         	12.023         	5.19
MS.389         	12             	5.195
MS.390         	11.975         	5.247
MS.391         	11.952         	5.128
MS.392         	11.927         	5.098
MS.393         	11.905         	5.144
MS.394         	11.88          	5.066
MS.395         	11.858         	5.13
MS.396         	11.832         	5.108
MS.397         	11.81          	5.023
MS.398         	11.785         	4.973
MS.399         	11.762         	4.852
MS.400         	11.738         	5.08
MS.401         	11.715         	4.955
MS.402         	11.693         	4.878
MS.403         	11.667         	4.935
MS.404         	11.645         	5.029
MS.405         	11.622         	4.818
MS.406         	11.597         	4.808
MS.407         	11.575         	4.711
MS.408         	11.552         	4.618
MS.409         	11.53          	4.749
MS.410         	11.505         	4.814
MS.411         	11.483         	4.578
MS.412         	11.46          	4.661
MS.413         	11.438         	4.592
MS.414         	11.415         	4.711
MS.415         	11.392         	4.534
MS.416         	11.37          	4.451
MS.417         	11.345         	4.57
MS.418         	11.322         	4.451
MS.419         	11.3           	4.401
MS.420         	11.278         	4.371
MS.421         	11.255         	4.451
MS.422         	11.233         	4.163
MS.423         	11.21          	4.105
MS.424         	11.188         	4.27
MS.425         	11.165         	4.191
MS.426         	11.142         	4.246
MS.427         	11.122         	4.159
MS.428         	11.1           	4.228
MS.429         	11.077         	4.173
MS.430         	11.055         	4.133
MS.431         	11.032         	4.018
MS.432         	11.01          	4.159
MS.433         	10.988         	4.02
MS.434         	10.967         	3.988
MS.435         	10.945         	4.079
MS.436         	10.922         	4.014
MS.437         	10.9           	3.851
MS.438         	10.88          	3.93
MS.439         	10.858         	3.865
MS.440         	10.835         	3.887
MS.441         	10.815         	3.958
MS.442         	10.792         	3.897
MS.443         	10.77          	3.722
MS.444         	10.75          	3.905
MS.445         	10.727         	3.815
MS.446         	10.707         	3.922
MS.447         	10.685         	3.895
MS.448         	10.665         	3.696
MS.449         	10.642         	3.791
MS.450         	10.622         	3.815
MS.451         	10.6           	3.682
MS.452         	10.58          	3.656
MS.453         	10.557         	3.625
MS.454         	10.537         	3.603
MS.455         	10.515         	3.662
MS.456         	10.495         	3.698
MS.457         	10.472         	3.611
MS.458         	10.452         	3.382
MS.459         	10.432         	3.613
MS.460         	10.41          	3.529
MS.461         	10.39          	3.545
MS.462         	10.37          	3.267
MS.463         	10.35          	3.203
MS.464         	10.327         	3.257
MS.465         	10.307         	3.233
MS.466         	10.287         	3.454
MS.467         	10.267         	3.239
MS.468         	10.245         	3.176
MS.469         	10.225         	3.271
MS.470         	10.205         	3.142
MS.471         	10.185         	3.19
MS.472         	10.165         	3.162
MS.473         	10.145         	3.116
MS.474         	10.122         	2.997
MS.475         	10.102         	3.037
MS.476         	10.082         	2.973
MS.477         	10.062         	2.87
MS.478         	10.042         	2.971
MS.479         	10.023         	2.933
MS.480         	10.002         	3.029
MS.481         	9.983          	2.943
MS.482         	9.962          	2.959
MS.483         	9.943          	2.991
MS.484         	9.922          	2.888
MS.485         	9.903          	2.908
MS.486         	9.882          	2.852
MS.487         	9.865          	2.757
MS.488         	9.845          	2.782
MS.489         	9.825          	2.822
MS.490         	9.805          	2.677
MS.491         	9.785          	2.814
MS.492         	9.765          	2.84
MS.493         	9.745          	2.671
MS.494         	9.727          	2.725
MS.495         	9.707          	2.755
MS.496         	9.688          	2.757
MS.497         	9.667          	2.721
MS.498         	9.65           	2.671
MS.499         	9.63           	2.665
MS.500         	9.61           	2.59
MS.501         	9.592          	2.635
MS.502         	9.573          	2.624
MS.503         	9.552          	2.562
MS.504         	9.535          	2.554
MS.505         	9.515          	2.62
MS.506         	9.495          	2.584
MS.507         	9.477          	2.564
MS.508         	9.457          	2.475
MS.509         	9.44           	2.691
MS.510         	9.42           	2.564
MS.511         	9.403          	2.457
MS.512         	9.382          	2.635
MS.513         	9.365          	2.502
MS.514         	9.345          	2.433
MS.515         	9.327          	2.26
MS.516         	9.307          	2.479
MS.517         	9.29           	2.389
MS.518         	9.27           	2.3
MS.519         	9.252          	2.334
MS.520         	9.235          	2.338
MS.521         	9.215          	2.32
MS.522         	9.198          	2.175
MS.523         	9.177          	2.212
MS.524         	9.16           	2.312
MS.525         	9.142          	2.298
MS.526         	9.122          	2.212
MS.527         	9.105          	2.105
MS.528         	9.087          	2.189
MS.529         	9.07           	2.131
MS.530         	9.05           	2.052
MS.531         	9.033          	2.067
MS.532         	9.015          	1.972
MS.533         	8.997          	2.193
MS.534         	8.98           	1.881
MS.535         	8.96           	1.825
MS.536         	8.943          	1.891
MS.537         	8.925          	1.899
MS.538         	8.908          	1.998
MS.539         	8.89           	1.891
MS.540         	8.872          	1.853
MS.541         	8.855          	1.772
MS.542         	8.837          	1.776
MS.543         	8.818          	1.72
MS.544         	8.8            	1.772
MS.545         	8.783          	1.756
MS.546         	8.765          	1.635
MS.547         	8.747          	1.68
MS.548         	8.73           	1.746
MS.549         	8.712          	1.635
MS.550         	8.695          	1.631
MS.551         	8.677          	1.619
MS.552         	8.662          	1.579
MS.553         	8.645          	1.589
MS.554         	8.627          	1.555
MS.555         	8.61           	1.559
MS.556         	8.592          	1.519
MS.557         	8.575          	1.49
MS.558         	8.557          	1.523
MS.559         	8.54           	1.545
MS.560         	8.525          	1.519
MS.561         	8.507          	1.456
MS.562         	8.49           	1.503
MS.563         	8.472          	1.458
MS.564         	8.455          	1.436
MS.565         	8.44           	1.412
MS.566         	8.422          	1.426
MS.567         	8.405          	1.408
MS.568         	8.387          	1.422
MS.569         	8.372          	1.396
MS.570         	8.355          	1.349
MS.571         	8.337          	1.349
MS.572         	8.323          	1.358
MS.573         	8.305          	1.414
MS.574         	8.287          	1.311
MS.575         	8.273          	1.333
MS.576         	8.255          	1.311
MS.577         	8.24           	1.301
MS.578         	8.222          	1.275
MS.579         	8.205          	1.275
MS.580         	8.19           	1.307
MS.581         	8.172          	1.356
MS.582         	8.158          	1.196
MS.583         	8.14           	1.245
MS.584         	8.125          	1.178
MS.585         	8.108          	1.178
MS.586         	8.092          	1.172
MS.587         	8.075          	1.156
MS.588         	8.06           	1.08
MS.589         	8.042          	1.092
MS.590         	8.028          	1.08
MS.591         	8.012          	1.019
MS.592         	7.995          	1.094
MS.593         	7.98           	1.033
MS.594         	7.962          	1.055
MS.595         	7.947          	1.104
MS.596         	7.932          	1.076
MS.597         	7.915          	1.013
MS.598         	7.9            	1.055
MS.599         	7.885          	1.074
MS.600         	7.867          	1.023
MS.601         	7.852          	0.965
MS.602         	7.837          	1.013
MS.603         	7.822          	0.967
MS.604         	7.805          	0.965
MS.605         	7.79           	0.912
MS.606         	7.775          	0.904
MS.607         	7.76           	1.003
MS.608         	7.742          	0.902
MS.609         	7.727          	0.939
MS.610         	7.712          	0.945
MS.611         	7.697          	0.935
MS.612         	7.682          	0.858
MS.613         	7.668          	0.878
MS.614         	7.652          	0.904
MS.615         	7.635          	0.848
MS.616         	7.62           	0.844
MS.617         	7.605          	0.87
MS.618         	7.59           	0.844
MS.619         	7.575          	0.838
MS.620         	7.56           	0.804
MS.621         	7.545          	0.818
MS.622         	7.53           	0.781
MS.623         	7.515          	0.802
MS.624         	7.5            	0.786
MS.625         	7.485          	0.739
MS.626         	7.47           	0.743
MS.627         	7.455          	0.709
MS.628         	7.44           	0.763
MS.629         	7.425          	0.713
MS.630         	7.41           	0.697
MS.631         	7.395          	0.651
MS.632         	7.38           	0.659
MS.633         	7.365          	0.657
MS.634         	7.352          	0.693
MS.635         	7.337          	0.636
MS.636         	7.322          	0.645
MS.637         	7.307          	0.667
MS.638         	7.293          	0.596
MS.639         	7.277          	0.604
MS.640         	7.262          	0.612
MS.641         	7.25           	0.596
MS.642         	7.235          	0.582
MS.643         	7.22           	0.544
MS.644         	7.205          	0.536
MS.645         	7.192          	0.512
MS.646         	7.177          	0.562
MS.647         	7.162          	0.518
MS.648         	7.148          	0.524
MS.649         	7.135          	0.487
MS.650         	7.12           	0.55
MS.651         	7.105          	0.516
MS.652         	7.092          	0.546
MS.653         	7.077          	0.471
MS.654         	7.062          	0.469
MS.655         	7.05           	0.479
MS.656         	7.035          	0.449
MS.657         	7.02           	0.481
MS.658         	7.007          	0.471
MS.659         	6.992          	0.403
MS.660         	6.98           	0.481
MS.661         	6.965          	0.361
MS.662         	6.95           	0.419
MS.663         	6.938          	0.387
MS.664         	6.922          	0.383
MS.665         	6.91           	0.403
MS.666         	6.895          	0.373
MS.667         	6.882          	0.336
MS.668         	6.867          	0.314
MS.669         	6.855          	0.393
MS.670         	6.84           	0.348
MS.671         	6.827          	0.308
MS.672         	6.812          	0.338
MS.673         	6.8            	0.322
MS.674         	6.785          	0.294
MS.675         	6.773          	0.308
MS.676         	6.76           	0.25
MS.677         	6.745          	0.254
MS.678         	6.733          	0.258
MS.679         	6.717          	0.282
MS.680         	6.705          	0.254
MS.681         	6.692          	0.248
MS.682         	6.677          	0.232
MS.683         	6.665          	0.205
MS.684         	6.652          	0.224
MS.685         	6.637          	0.197
MS.686         	6.625          	0.185
MS.687         	6.612          	0.195
MS.688         	6.597          	0.169
MS.689         	6.585          	0.187
MS.690         	6.572          	0.153
MS.691         	6.56           	0.161
MS.692         	6.545          	0.165
MS.693         	6.532          	0.183
MS.694         	6.52           	0.173
MS.695         	6.507          	0.163
MS.696         	6.495          	0.149
MS.697         	6.48           	0.179
MS.698         	6.467          	0.139
MS.699         	6.455          	0.169
MS.700         	6.442          	0.149
MS.701         	6.43           	0.161
MS.702         	6.418          	0.125
MS.703         	6.402          	0.153
MS.704         	6.39           	0.125
MS.705         	6.378          	0.127
MS.706         	6.365          	0.127
MS.707         	6.352          	0.121
MS.708         	6.34           	0.125
MS.709         	6.327          	0.127
MS.710         	6.315          	0.109
MS.711         	6.302          	0.117
MS.712         	6.29           	0.099
MS.713         	6.277          	0.123
MS.714         	6.265          	0.105
MS.715         	6.253          	0.089
MS.716         	6.24           	0.119
MS.717         	6.227          	0.087
MS.718         	6.215          	0.103
MS.719         	6.202          	0.105
MS.720         	6.19           	0.089
MS.721         	6.177          	0.085
MS.722         	6.165          	0.085
MS.723         	6.152          	0.093
MS.724         	6.14           	0.105
MS.725         	6.128          	0.085
MS.726         	6.115          	0.087
MS.727         	6.102          	0.087
MS.728         	6.092          	0.091
MS.729         	6.08           	0.064
MS.730         	6.067          	0.079
MS.731         	6.055          	0.085
MS.732         	6.043          	0.066
MS.733         	6.03           	0.066
MS.734         	6.017          	0.087
MS.735         	6.007          	0.062
MS.736         	5.995          	0.075
MS.737         	5.983          	0.054
MS.738         	5.97           	0.066
MS.739         	5.96           	0.064
MS.740         	5.947          	0.07
MS.741         	5.935          	0.062
MS.742         	5.922          	0.046
MS.743         	5.912          	0.075
MS.744         	5.9            	0.05
MS.745         	5.887          	0.036
MS.746         	5.875          	0.04
MS.747         	5.865          	0.048
MS.748         	5.852          	0.036
MS.749         	5.84           	0.054
MS.750         	5.83           	0.048
MS.751         	5.817          	0.028
MS.752         	5.805          	0.042
MS.753         	5.795          	0.044
MS.754         	5.782          	0.044
MS.755         	5.77           	0.032
MS.756         	5.76           	0.046
MS.757         	5.747          	0.046
MS.758         	5.737          	0.03
MS.759         	5.725          	0.052
MS.760         	5.713          	0.042
MS.761         	5.702          	0.028
MS.762         	5.69           	0.032
MS.763         	5.68           	0.056
MS.764         	5.668          	0.048
MS.765         	5.657          	0.046
MS.766         	5.645          	0.044
MS.767         	5.635          	0.046
MS.768         	5.622          	0.038
MS.769         	5.612          	0.032
MS.770         	5.6            	0.03
MS.771         	5.59           	0.034
MS.772         	5.577          	0.028
MS.773         	5.567          	0.04
MS.774         	5.555          	0.028
MS.775         	5.545          	0.032
MS.776         	5.535          	0.012
MS.777         	5.523          	0.04
MS.778         	5.512          	0.014
MS.779         	5.5            	0.018
MS.780         	5.49           	0.028
MS.781         	5.477          	0.03
MS.782         	5.467          	0.028
MS.783         	5.457          	0.018
MS.784         	5.445          	0.026
MS.785         	5.435          	0.014
MS.786         	5.425          	0.014
MS.787         	5.412          	0.018
MS.788         	5.402          	0.014
MS.789         	5.392          	0.022
MS.790         	5.38           	0.014
MS.791         	5.37           	0.014
MS.792         	5.36           	0.01
MS.793         	5.35           	0.016
MS.794         	5.338          	0.008
MS.795         	5.327          	0.004
MS.796         	5.318          	0.006
MS.797         	5.305          	0.03
MS.798         	5.295          	0.006
MS.799         	5.285          	0.012
MS.800         	5.275          	0.01
MS.801         	5.265          	0.004
MS.802         	5.253          	0.006
MS.803         	5.242          	0.008
MS.804         	5.233          	0.008
MS.805         	5.222          	0.02
MS.806         	5.213          	0.008
MS.807         	5.2            	0.008
MS.808         	5.19           	0.006
MS.809         	5.18           	0.01
MS.810         	5.17           	0.008
MS.811         	5.16           	0.01
MS.812         	5.15           	0.01
MS.813         	5.14           	0.022
MS.814         	5.13           	0.01
MS.815         	5.117          	0.012
MS.816         	5.108          	0.012
MS.817         	5.097          	0.008
MS.818         	5.088          	0.012
MS.819         	5.077          	0.012
MS.820         	5.068          	0.01
MS.821         	5.057          	0.01
MS.822         	5.047          	0.014
MS.823         	5.037          	0.012
MS.824         	5.027          	0.02
MS.825         	5.017          	0.01
MS.826         	5.007          	0.01
MS.827         	4.997          	0.014
MS.828         	4.987          	0.012
MS.829         	4.977          	0.008
MS.830         	4.967          	0.01
MS.831         	4.957          	0.012
MS.832         	4.947          	0.01
MS.833         	4.938          	0.01
MS.834         	4.927          	0.014
MS.835         	4.918          	0.014
MS.836         	4.907          	0.014
MS.837         	4.898          	0.014
MS.838         	4.887          	0.016
MS.839         	4.878          	0.012
MS.840         	4.87           	0.012
MS.841         	4.86           	0.012
MS.842         	4.85           	0.016
MS.843         	4.84           	0.012
MS.844         	4.83           	0.016
MS.845         	4.82           	0.014
MS.846         	4.81           	0.012
MS.847         	4.8            	0.014
MS.848         	4.793          	0.012
MS.849         	4.782          	0.014
MS.850         	4.773          	0.016
MS.851         	4.762          	0.014
MS.852         	4.753          	0.016
MS.853         	4.745          	0.014
MS.854         	4.735          	0.014
MS.855         	4.725          	0.012
MS.856         	4.715          	0.014
MS.857         	4.705          	0.014
MS.858         	4.697          	0.014
MS.859         	4.688          	0.014
MS.860         	4.677          	0.012
MS.861         	4.668          	0.012
MS.862         	4.66           	0.014
MS.863         	4.65           	0.01
MS.864         	4.64           	0.016
MS.865         	4.632          	0.014
MS.866         	4.622          	0.01
MS.867         	4.612          	0.014
MS.868         	4.605          	0.008
MS.869         	4.595          	0.018
MS.870         	4.585          	0.026
MS.871         	4.575          	0.024
MS.872         	4.568          	0.016
MS.873         	4.557          	0.012
MS.874         	4.55           	0.012
MS.875         	4.54           	0.02
MS.876         	4.53           	0.022
MS.877         	4.523          	0.022
MS.878         	4.512          	0.016
MS.879         	4.503          	0.014
MS.880         	4.495          	0.012
MS.881         	4.485          	0.014
MS.882         	4.477          	0.016
MS.883         	4.467          	0.02
MS.884         	4.46           	0.016
MS.885         	4.45           	0.014
MS.886         	4.44           	0.016
MS.887         	4.432          	0.018
MS.888         	4.423          	0.012
MS.889         	4.415          	0.018
MS.890         	4.405          	0.01
MS.891         	4.398          	0.014
MS.892         	4.387          	0.014
MS.893         	4.38           	0.018
MS.894         	4.37           	0.016
MS.895         	4.362          	0.016
MS.896         	4.352          	0.018
MS.897         	4.345          	0.02
MS.898         	4.335          	0.016
MS.899         	4.327          	0.018
MS.900         	4.318          	0.016
MS.901         	4.31           	0.014
MS.902         	4.3            	0.018
MS.903         	4.293          	0.018
MS.904         	4.285          	0.01
MS.905         	4.275          	0.014
MS.906         	4.267          	0.016
MS.907         	4.257          	0.014
MS.908         	4.25           	0.012
MS.909         	4.242          	0.018
MS.910         	4.233          	0.018
MS.911         	4.225          	0.018
MS.912         	4.215          	0.02
MS.913         	4.207          	0.014
MS.914         	4.2            	0.028
MS.915         	4.19           	0.016
MS.916         	4.182          	0.016
MS.917         	4.175          	0.012
MS.918         	4.165          	0.022
MS.919         	4.157          	0.016
MS.920         	4.15           	0.018
MS.921         	4.14           	0.016
MS.922         	4.132          	0.018
MS.923         	4.125          	0.018
MS.924         	4.115          	0.026
MS.925         	4.108          	0.016
MS.926         	4.1            	0.016
MS.927         	4.092          	0.014
MS.928         	4.082          	0.022
MS.929         	4.075          	0.016
MS.930         	4.068          	0.012
MS.931         	4.057          	0.014
MS.932         	4.05           	0.014
MS.933         	4.043          	0.018
MS.934         	4.035          	0.022
MS.935         	4.027          	0.016
MS.936         	4.017          	0.018
MS.937         	4.01           	0.016
MS.938         	4.003          	0.02
MS.939         	3.995          	0.016
MS.940         	3.987          	0.014
MS.941         	3.977          	0.016
MS.942         	3.97           	0.016
MS.943         	3.962          	0.016
MS.944         	3.955          	0.016
MS.945         	3.947          	0.016
MS.946         	3.94           	0.018
MS.947         	3.93           	0.016
MS.948         	3.922          	0.016
MS.949         	3.915          	0.016
MS.950         	3.908          	0.022
MS.951         	3.9            	0.02
MS.952         	3.892          	0.014
MS.953         	3.885          	0.014
MS.954         	3.877          	0.026
MS.955         	3.867          	0.016
MS.956         	3.86           	0.016
MS.957         	3.852          	0.022
MS.958         	3.845          	0.018
MS.959         	3.837          	0.02
MS.960         	3.83           	0.018
MS.961         	3.822          	0.02
MS.962         	3.815          	0.014
MS.963         	3.807          	0.016
MS.964         	3.8            	0.014
MS.965         	3.793          	0.016
MS.966         	3.785          	0.016
MS.967         	3.777          	0.018
MS.968         	3.77           	0.018
MS.969         	3.762          	0.018
MS.970         	3.755          	0.016
MS.971         	3.747          	0.014
MS.972         	3.74           	0.018
MS.973         	3.732          	0.016
MS.974         	3.725          	0.016
MS.975         	3.717          	0.022
MS.976         	3.71           	0.016
MS.977         	3.702          	0.022
MS.978         	3.695          	0.016
MS.979         	3.688          	0.02
MS.980         	3.68           	0.016
MS.981         	3.672          	0.018
MS.982         	3.665          	0.018
MS.983         	3.658          	0.018
MS.984         	3.65           	0.02
MS.985         	3.642          	0.022
MS.986         	3.635          	0.02
MS.987         	3.627          	0.018
MS.988         	3.622          	0.016
MS.989         	3.615          	0.018
MS.990         	3.607          	0.018
MS.991         	3.6            	0.016
MS.992         	3.592          	0.02
MS.993         	3.585          	0.022
MS.994         	3.577          	0.018
MS.995         	3.57           	0.018
MS.996         	3.565          	0.016
MS.997         	3.557          	0.018
MS.998         	3.55           	0.022
MS.999         	3.543          	0.018
MS.1000        	3.535          	0.018
MS.1001        	3.527          	0.022
MS.1002        	3.523          	0.02
MS.1003        	3.515          	0.016
MS.1004        	3.507          	0.02
MS.1005        	3.5            	0.02
MS.1006        	3.492          	0.022
MS.1007        	3.487          	0.016
MS.1008        	3.48           	0.022
MS.1009        	3.472          	0.018
MS.1010        	3.465          	0.024
MS.1011        	3.457          	0.024
MS.1012        	3.452          	0.024
MS.1013        	3.445          	0.018
MS.1014        	3.438          	0.02
MS.1015        	3.43           	0.018
MS.1016        	3.425          	0.018
MS.1017        	3.418          	0.024
MS.1018        	3.41           	0.018
MS.1019        	3.402          	0.02
MS.1020        	3.398          	0.022
MS.1021        	3.39           	0.022
MS.1022        	3.382          	0.022
MS.1023        	3.377          	0.018
MS.1024        	3.37           	0.018
MS.1025        	3.362          	0.022
MS.1026        	3.357          	0.02
MS.1027        	3.35           	0.016
MS.1028        	3.342          	0.022
MS.1029        	3.337          	0.018
MS.1030        	3.33           	0.02
MS.1031        	3.322          	0.018
MS.1032        	3.317          	0.018
MS.1033        	3.31           	0.016
MS.1034        	3.303          	0.016
MS.1035        	3.297          	0.022
MS.1036        	3.29           	0.022
MS.1037        	3.283          	0.018
MS.1038        	3.277          	0.02
MS.1039        	3.27           	0.022
MS.1040        	3.262          	0.022
MS.1041        	3.257          	0.02
MS.1042        	3.25           	0.022
MS.1043        	3.245          	0.02
MS.1044        	3.237          	0.018
MS.1045        	3.232          	0.028
MS.1046        	3.225          	0.018
MS.1047        	3.217          	0.022
MS.1048        	3.212          	0.018
MS.1049        	3.205          	0.026
MS.1050        	3.2            	0.02
MS.1051        	3.192          	0.024
MS.1052        	3.188          	0.024
MS.1053        	3.18           	0.018
MS.1054        	3.172          	0.02
MS.1055        	3.168          	0.024
MS.1056        	3.16           	0.022
MS.1057        	3.155          	0.026
MS.1058        	3.148          	0.026
MS.1059        	3.142          	0.022
MS.1060        	3.135          	0.022
MS.1061        	3.13           	0.024
MS.1062        	3.122          	0.024
MS.1063        	3.117          	0.02
MS.1064        	3.11           	0.022
MS.1065        	3.105          	0.02
MS.1066        	3.097          	0.022
MS.1067        	3.092          	0.024
MS.1068        	3.085          	0.02
MS.1069        	3.08           	0.028
MS.1070        	3.072          	0.022
MS.1071        	3.067          	0.022
MS.1072        	3.062          	0.032
MS.1073        	3.055          	0.024
MS.1074        	3.05           	0.024
MS.1075        	3.043          	0.022
MS.1076        	3.037          	0.026
MS.1077        	3.03           	0.028
MS.1078        	3.025          	0.024
MS.1079        	3.02           	0.022
MS.1080        	3.013          	0.026
MS.1081        	3.007          	0.02
MS.1082        	3              	0.026
MS.1083        	2.995          	0.024
MS.1084        	2.99           	0.022
MS.1085        	2.982          	0.026
MS.1086        	2.977          	0.026
MS.1087        	2.97           	0.026
MS.1088        	2.965          	0.02
MS.1089        	2.96           	0.022
MS.1090        	2.952          	0.022
MS.1091        	2.947          	0.022
MS.1092        	2.942          	0.026
MS.1093        	2.935          	0.024
MS.1094        	2.93           	0.03
MS.1095        	2.925          	0.026
MS.1096        	2.918          	0.032
MS.1097        	2.912          	0.022
MS.1098        	2.908          	0.02
MS.1099        	2.9            	0.03
MS.1100        	2.895          	0.024
MS.1101        	2.89           	0.02
MS.1102        	2.882          	0.022
MS.1103        	2.877          	0.042
MS.1104        	2.872          	0.024
MS.1105        	2.865          	0.016
MS.1106        	2.86           	0.028
MS.1107        	2.855          	0.024
MS.1108        	2.847          	0.022
MS.1109        	2.842          	0.024
MS.1110        	2.837          	0.028
MS.1111        	2.832          	0.022
MS.1112        	2.825          	0.03
MS.1113        	2.82           	0.006
MS.1114        	2.815          	0.026
MS.1115        	2.81           	0.006
MS.1116        	2.803          	0.03
MS.1117        	2.797          	0.024
MS.1118        	2.793          	0.028
MS.1119        	2.787          	0.026
MS.1120        	2.78           	0.01
MS.1121        	2.775          	0.026
MS.1122        	2.77           	0.02
MS.1123        	2.765          	0.01
MS.1124        	2.76           	0.022
MS.1125        	2.753          	0.04
MS.1126        	2.747          	0.026
MS.1127        	2.742          	0.034
MS.1128        	2.737          	0.014
MS.1129        	2.732          	0.018
MS.1130        	2.725          	0.012
MS.1131        	2.72           	0.022
MS.1132        	2.715          	0.004
MS.1133        	2.71           	0.01
MS.1134        	2.705          	0.032
MS.1135        	2.7            	0.01
MS.1136        	2.692          	0.018
MS.1137        	2.688          	0.016
MS.1138        	2.682          	0.006
MS.1139        	2.678          	0.006
MS.1140        	2.672          	0.006
MS.1141        	2.668          	0.004
MS.1142        	2.662          	0.01
MS.1143        	2.655          	0.02
MS.1144        	2.65           	0.006
MS.1145        	2.645          	0.022
MS.1146        	2.64           	0.042
MS.1147        	2.635          	-0.008
MS.1148        	2.63           	0.004
MS.1149        	2.625          	0.016
MS.1150        	2.62           	0.002
MS.1151        	2.615          	0.006
MS.1152        	2.607          	0.002
MS.1153        	2.602          	0.014
MS.1154        	2.597          	0.016
MS.1155        	2.592          	0.032
MS.1156        	2.587          	0.002
MS.1157        	2.582          	0.016
MS.1158        	2.577          	0.006
MS.1159        	2.572          	0.012
MS.1160        	2.567          	0.012
MS.1161        	2.562          	0.004
MS.1162        	2.557          	0.008
MS.1163        	2.553          	0.012
MS.1164        	2.547          	0.018
MS.1165        	2.543          	0.012
MS.1166        	2.537          	0.006
MS.1167        	2.533          	0.016
MS.1168        	2.527          	0.006
MS.1169        	2.523          	0.004
MS.1170        	2.517          	0.008
MS.1171        	2.513          	0.01
MS.1172        	2.507          	0.01
MS.1173        	2.503          	0.008
MS.1174        	2.497          	0.006
MS.1175        	2.492          	0.01
MS.1176        	2.487          	0.014
MS.1177        	2.482          	0.01
MS.1178        	2.477          	0.004
DERIVED EXCITABILITY VARIABLES
Program = QTracP 3/4/2020
Threshold method = 6 (optimised for CAP, using data for present condition only)
SR method = 1 (using actual data values)
6.                 	0.000               	Peak response\(mV)
9.                 	36.4                	Temperature ( C)
17.                	30                  	Age (years)
18.                	1                   	Sex (M=1, F=2)

EXTRA VARIABLES

MScPeak(mV) = 6.43
MScS5(mA) = 6.84
MScS50(mA) = 10.28
MScS95(mA) = 15.05
MScNSteps = 0
MScSteps(%) = 0.0
MScStepMax(%) = 0.0
MScD50 = 82
MScSlope = 3.49
MSFPeakAmp(mV) = 6.54
MSFNUnits = 139
MSFMeanUnitAmp(uV) = 47
MSFHuntTime(m) = 3.45
MSFError(%) = 2.86
MSFNLarge = 40.1
MSFMedianAmp(%) = 0.613
MSFMedianAmp(mV) = 0.0401
MSFHalfAmpAmp(%) = 0.877
MSFHalfAmpAmp(mV) = 0.0574
MSFLargestAmp(%) = 2.39
MSFLargestAmp(mV) = 0.157
MSFMeanRS(%) = 2
MSFOpts = 10106121
MScDuration(min) = 11.4
MSFTraces = 675
MSFSizeLimit(uV) = 16.3
MSFLimitType = 1
MSFSmallestAmp(uV) = 17

EXTRA WAVEFORMS


!MScan Model
!139
	1	5.58	0.32	2
	2	5.93	0.37	2
	3	6.14	0.49	2
	4	6.31	0.4	2
	5	6.42	0.56	2
	6	6.59	0.54	2
	7	6.63	0.33	2
	8	6.68	0.31	2
	9	6.71	0.28	2
	10	6.74	0.49	2
	11	6.81	0.63	2
	12	6.86	0.44	2
	13	6.89	0.34	2
	14	6.92	0.33	2
	15	6.96	0.3	2
	16	6.99	0.39	2
	17	7.03	0.27	2
	18	7.07	0.4	2
	19	7.11	0.46	2
	20	7.17	0.59	2
	21	7.24	0.43	2
	22	7.27	0.36	2
	23	7.32	0.61	2
	24	7.37	0.43	2
	25	7.4	0.45	2
	26	7.44	0.45	2
	27	7.47	0.37	2
	28	7.5	0.29	2
	29	7.54	0.44	2
	30	7.58	0.31	2
	31	7.59	0.33	2
	32	7.63	0.43	2
	33	7.67	0.35	2
	34	7.71	0.32	2
	35	7.75	0.44	2
	36	7.8	0.39	2
	37	7.83	0.34	2
	38	7.9	0.61	2
	39	7.96	0.5	2
	40	8.01	0.71	2
	41	8.07	0.52	2
	42	8.09	0.31	2
	43	8.11	0.34	2
	44	8.13	0.35	2
	45	8.15	0.29	2
	46	8.18	0.37	2
	47	8.22	0.64	2
	48	8.26	0.45	2
	49	8.31	0.48	2
	50	8.35	0.45	2
	51	8.39	0.39	2
	52	8.44	0.49	2
	53	8.48	0.37	2
	54	8.51	0.36	2
	55	8.55	0.34	2
	56	8.56	0.26	2
	57	8.6	0.54	2
	58	8.65	0.58	2
	59	8.67	0.27	2
	60	8.71	0.62	2
	61	8.74	0.46	2
	62	8.76	0.32	2
	63	8.77	0.28	2
	64	8.8	0.53	2
	65	8.85	0.77	2
	66	8.89	0.71	2
	67	8.92	0.72	2
	68	8.96	0.73	2
	69	9	1.04	2
	70	9.05	0.96	2
	71	9.09	0.93	2
	72	9.14	0.82	2
	73	9.18	1.01	2
	74	9.24	1.04	2
	75	9.3	0.89	2
	76	9.37	1.66	2
	77	9.52	1.54	2
	78	9.61	0.98	2
	79	9.68	0.47	2
	80	9.74	0.8	2
	81	9.81	0.89	2
	82	9.88	0.74	2
	83	9.95	0.83	2
	84	10	0.75	2
	85	10.05	0.88	2
	86	10.1	0.74	2
	87	10.17	0.79	2
	88	10.23	0.92	2
	89	10.28	1.76	2
	90	10.34	1.13	2
	91	10.39	1.67	2
	92	10.44	0.82	2
	93	10.48	0.58	2
	94	10.53	1.35	2
	95	10.61	1.55	2
	96	10.71	1.18	2
	97	10.8	1.49	2
	98	10.86	0.73	2
	99	10.9	0.35	2
	100	10.95	0.78	2
	101	11.03	1.01	2
	102	11.08	0.59	2
	103	11.13	1.35	2
	104	11.17	0.68	2
	105	11.21	0.66	2
	106	11.25	0.78	2
	107	11.29	1	2
	108	11.33	0.51	2
	109	11.38	0.94	2
	110	11.42	0.95	2
	111	11.46	1.11	2
	112	11.51	1.02	2
	113	11.58	1.27	2
	114	11.64	0.97	2
	115	11.68	0.7	2
	116	11.74	0.86	2
	117	11.8	1.33	2
	118	11.86	0.73	2
	119	11.91	0.47	2
	120	11.93	0.28	2
	121	11.95	0.37	2
	122	11.99	0.61	2
	123	12.02	0.55	2
	124	12.06	0.42	2
	125	12.1	0.63	2
	126	12.19	0.96	2
	127	12.35	1.51	2
	128	12.45	1.1	2
	129	12.55	0.89	2
	130	12.68	1.61	2
	131	13.88	2.39	2
	132	14.31	1.4	2
	133	15.06	0.9	2
	134	15.17	0.75	2
	135	15.3	1.05	2
	136	15.43	2.26	2
	137	15.51	1.05	2
	138	16.46	1.85	2
	139	16.72	0.66	2

