File:              	C:\Qtrac\Data\Daniel M Sørensen\MScan multicentre study\Data from centres\Bucharest\Processed data\TDLC00210C.QZD
Name:              	RO.BU.NC.3.2
Protocol:          	MSCAN-R2
Date:              	10/2/20
Start time:        	14:15:09
Age:               	31
Sex:               	M
Temperature:       	36.8
S/R sites:         	TA
NC/disease:        	RONC3.2
Operator:          	TL
Comments:
M-SCAN DATA (8.9-2.3m)
Scanpts: 139, 145, 686, 699
Stim. (mA)     	Amp. (mV)
MS.1           	20             	4.953
MS.2           	20             	4.945
MS.3           	20             	4.953
MS.4           	20             	4.935
MS.5           	20             	4.961
MS.6           	20             	4.937
MS.7           	20             	4.947
MS.8           	20             	4.945
MS.9           	20             	4.947
MS.10          	20             	4.941
MS.11          	20             	4.949
MS.12          	20             	4.955
MS.13          	20             	4.939
MS.14          	20             	4.943
MS.15          	20             	4.937
MS.16          	20             	4.951
MS.17          	20             	4.927
MS.18          	20             	4.939
MS.19          	20             	4.939
MS.20          	20             	4.947
MS.21          	20             	4.941
MS.22          	20             	4.919
MS.23          	20             	4.931
MS.24          	19.92          	4.939
MS.25          	19.88          	4.947
MS.26          	19.84          	4.943
MS.27          	19.8           	4.937
MS.28          	19.762         	4.941
MS.29          	19.722         	4.917
MS.30          	19.682         	4.929
MS.31          	19.642         	4.927
MS.32          	19.605         	4.923
MS.33          	19.565         	4.919
MS.34          	19.525         	4.931
MS.35          	19.487         	4.921
MS.36          	19.448         	4.925
MS.37          	19.41          	4.929
MS.38          	19.37          	4.943
MS.39          	19.333         	4.931
MS.40          	19.292         	4.933
MS.41          	19.255         	4.941
MS.42          	19.215         	4.915
MS.43          	19.177         	4.925
MS.44          	19.14          	4.933
MS.45          	19.1           	4.931
MS.46          	19.062         	4.931
MS.47          	19.025         	4.937
MS.48          	18.987         	4.925
MS.49          	18.948         	4.925
MS.50          	18.91          	4.929
MS.51          	18.872         	4.937
MS.52          	18.835         	4.933
MS.53          	18.797         	4.923
MS.54          	18.76          	4.919
MS.55          	18.722         	4.925
MS.56          	18.685         	4.921
MS.57          	18.647         	4.911
MS.58          	18.61          	4.913
MS.59          	18.573         	4.913
MS.60          	18.535         	4.927
MS.61          	18.5           	4.921
MS.62          	18.462         	4.921
MS.63          	18.425         	4.902
MS.64          	18.387         	4.913
MS.65          	18.352         	4.917
MS.66          	18.315         	4.909
MS.67          	18.278         	4.913
MS.68          	18.243         	4.913
MS.69          	18.205         	4.915
MS.70          	18.17          	4.923
MS.71          	18.132         	4.929
MS.72          	18.097         	4.902
MS.73          	18.06          	4.909
MS.74          	18.025         	4.911
MS.75          	17.987         	4.909
MS.76          	17.952         	4.909
MS.77          	17.917         	4.919
MS.78          	17.88          	4.904
MS.79          	17.845         	4.915
MS.80          	17.81          	4.911
MS.81          	17.775         	4.902
MS.82          	17.737         	4.909
MS.83          	17.702         	4.906
MS.84          	17.667         	4.904
MS.85          	17.632         	4.902
MS.86          	17.597         	4.909
MS.87          	17.562         	4.892
MS.88          	17.528         	4.906
MS.89          	17.493         	4.898
MS.90          	17.458         	4.909
MS.91          	17.422         	4.911
MS.92          	17.387         	4.909
MS.93          	17.352         	4.915
MS.94          	17.317         	4.913
MS.95          	17.282         	4.9
MS.96          	17.247         	4.911
MS.97          	17.215         	4.898
MS.98          	17.18          	4.909
MS.99          	17.145         	4.913
MS.100         	17.11          	4.89
MS.101         	17.077         	4.909
MS.102         	17.042         	4.892
MS.103         	17.01          	4.894
MS.104         	16.975         	4.904
MS.105         	16.94          	4.876
MS.106         	16.907         	4.915
MS.107         	16.872         	4.898
MS.108         	16.84          	4.888
MS.109         	16.805         	4.896
MS.110         	16.772         	4.917
MS.111         	16.74          	4.909
MS.112         	16.705         	4.894
MS.113         	16.672         	4.894
MS.114         	16.637         	4.896
MS.115         	16.605         	4.898
MS.116         	16.573         	4.892
MS.117         	16.54          	4.892
MS.118         	16.505         	4.894
MS.119         	16.472         	4.909
MS.120         	16.44          	4.894
MS.121         	16.407         	4.894
MS.122         	16.375         	4.925
MS.123         	16.342         	4.898
MS.124         	16.31          	4.919
MS.125         	16.278         	4.911
MS.126         	16.245         	4.904
MS.127         	16.212         	4.911
MS.128         	16.18          	4.915
MS.129         	16.147         	4.911
MS.130         	16.115         	4.896
MS.131         	16.083         	4.904
MS.132         	16.05          	4.915
MS.133         	16.017         	4.917
MS.134         	15.985         	4.902
MS.135         	15.955         	4.906
MS.136         	15.922         	4.909
MS.137         	15.89          	4.898
MS.138         	15.86          	4.898
MS.139         	15.827         	4.898
MS.140         	15.795         	4.898
MS.141         	15.765         	4.906
MS.142         	15.733         	4.902
MS.143         	15.7           	4.904
MS.144         	15.67          	4.909
MS.145         	15.637         	4.906
MS.146         	15.608         	4.896
MS.147         	15.575         	4.904
MS.148         	15.545         	4.911
MS.149         	15.515         	4.919
MS.150         	15.483         	4.909
MS.151         	15.452         	4.909
MS.152         	15.42          	4.921
MS.153         	15.39          	4.919
MS.154         	15.36          	4.919
MS.155         	15.327         	4.917
MS.156         	15.297         	4.915
MS.157         	15.267         	4.909
MS.158         	15.237         	4.923
MS.159         	15.207         	4.917
MS.160         	15.175         	4.925
MS.161         	15.145         	4.909
MS.162         	15.115         	4.915
MS.163         	15.085         	4.915
MS.164         	15.055         	4.909
MS.165         	15.025         	4.884
MS.166         	14.995         	4.927
MS.167         	14.965         	4.874
MS.168         	14.935         	4.911
MS.169         	14.905         	4.919
MS.170         	14.875         	4.911
MS.171         	14.845         	4.88
MS.172         	14.818         	4.864
MS.173         	14.787         	4.866
MS.174         	14.757         	4.906
MS.175         	14.727         	4.874
MS.176         	14.697         	4.882
MS.177         	14.67          	4.915
MS.178         	14.64          	4.913
MS.179         	14.61          	4.913
MS.180         	14.58          	4.876
MS.181         	14.552         	4.88
MS.182         	14.523         	4.862
MS.183         	14.495         	4.906
MS.184         	14.465         	4.911
MS.185         	14.435         	4.921
MS.186         	14.407         	4.86
MS.187         	14.377         	4.868
MS.188         	14.35          	4.868
MS.189         	14.32          	4.862
MS.190         	14.292         	4.874
MS.191         	14.265         	4.828
MS.192         	14.235         	4.89
MS.193         	14.207         	4.862
MS.194         	14.177         	4.85
MS.195         	14.15          	4.854
MS.196         	14.122         	4.84
MS.197         	14.092         	4.86
MS.198         	14.065         	4.862
MS.199         	14.037         	4.846
MS.200         	14.01          	4.834
MS.201         	13.983         	4.818
MS.202         	13.952         	4.802
MS.203         	13.925         	4.85
MS.204         	13.898         	4.82
MS.205         	13.87          	4.8
MS.206         	13.842         	4.782
MS.207         	13.815         	4.806
MS.208         	13.787         	4.81
MS.209         	13.76          	4.796
MS.210         	13.733         	4.798
MS.211         	13.705         	4.776
MS.212         	13.677         	4.766
MS.213         	13.65          	4.816
MS.214         	13.622         	4.774
MS.215         	13.595         	4.727
MS.216         	13.568         	4.759
MS.217         	13.54          	4.729
MS.218         	13.515         	4.759
MS.219         	13.487         	4.788
MS.220         	13.46          	4.731
MS.221         	13.432         	4.709
MS.222         	13.407         	4.691
MS.223         	13.38          	4.689
MS.224         	13.352         	4.727
MS.225         	13.325         	4.701
MS.226         	13.3           	4.719
MS.227         	13.273         	4.685
MS.228         	13.247         	4.695
MS.229         	13.22          	4.683
MS.230         	13.193         	4.643
MS.231         	13.167         	4.709
MS.232         	13.14          	4.681
MS.233         	13.115         	4.681
MS.234         	13.087         	4.655
MS.235         	13.062         	4.657
MS.236         	13.035         	4.649
MS.237         	13.01          	4.627
MS.238         	12.985         	4.62
MS.239         	12.957         	4.61
MS.240         	12.932         	4.594
MS.241         	12.907         	4.622
MS.242         	12.88          	4.616
MS.243         	12.855         	4.582
MS.244         	12.83          	4.578
MS.245         	12.802         	4.576
MS.246         	12.778         	4.566
MS.247         	12.752         	4.562
MS.248         	12.727         	4.586
MS.249         	12.702         	4.556
MS.250         	12.675         	4.53
MS.251         	12.65          	4.536
MS.252         	12.625         	4.544
MS.253         	12.6           	4.564
MS.254         	12.575         	4.49
MS.255         	12.55          	4.477
MS.256         	12.525         	4.516
MS.257         	12.5           	4.455
MS.258         	12.475         	4.459
MS.259         	12.45          	4.482
MS.260         	12.425         	4.429
MS.261         	12.4           	4.461
MS.262         	12.375         	4.514
MS.263         	12.35          	4.453
MS.264         	12.325         	4.417
MS.265         	12.302         	4.419
MS.266         	12.278         	4.492
MS.267         	12.252         	4.377
MS.268         	12.227         	4.375
MS.269         	12.202         	4.379
MS.270         	12.18          	4.387
MS.271         	12.155         	4.421
MS.272         	12.13          	4.355
MS.273         	12.108         	4.363
MS.274         	12.082         	4.393
MS.275         	12.057         	4.328
MS.276         	12.035         	4.314
MS.277         	12.01          	4.304
MS.278         	11.985         	4.292
MS.279         	11.962         	4.347
MS.280         	11.938         	4.33
MS.281         	11.915         	4.29
MS.282         	11.89          	4.296
MS.283         	11.867         	4.212
MS.284         	11.842         	4.252
MS.285         	11.82          	4.268
MS.286         	11.795         	4.292
MS.287         	11.773         	4.21
MS.288         	11.747         	4.234
MS.289         	11.725         	4.226
MS.290         	11.702         	4.25
MS.291         	11.677         	4.131
MS.292         	11.655         	4.185
MS.293         	11.632         	4.163
MS.294         	11.608         	4.167
MS.295         	11.585         	4.135
MS.296         	11.562         	4.117
MS.297         	11.54          	4.095
MS.298         	11.515         	4.143
MS.299         	11.492         	4.077
MS.300         	11.47          	4.139
MS.301         	11.447         	4.028
MS.302         	11.425         	3.994
MS.303         	11.403         	3.922
MS.304         	11.377         	4.04
MS.305         	11.355         	4.038
MS.306         	11.332         	4.018
MS.307         	11.31          	3.944
MS.308         	11.287         	3.974
MS.309         	11.265         	3.944
MS.310         	11.242         	3.946
MS.311         	11.22          	3.893
MS.312         	11.197         	3.839
MS.313         	11.175         	3.905
MS.314         	11.153         	3.839
MS.315         	11.13          	3.807
MS.316         	11.108         	3.855
MS.317         	11.087         	3.839
MS.318         	11.065         	3.754
MS.319         	11.042         	3.811
MS.320         	11.02          	3.809
MS.321         	10.997         	3.738
MS.322         	10.975         	3.696
MS.323         	10.955         	3.764
MS.324         	10.932         	3.801
MS.325         	10.91          	3.714
MS.326         	10.887         	3.648
MS.327         	10.867         	3.63
MS.328         	10.845         	3.722
MS.329         	10.823         	3.615
MS.330         	10.802         	3.603
MS.331         	10.78          	3.68
MS.332         	10.76          	3.581
MS.333         	10.738         	3.621
MS.334         	10.715         	3.541
MS.335         	10.695         	3.603
MS.336         	10.672         	3.567
MS.337         	10.653         	3.585
MS.338         	10.63          	3.555
MS.339         	10.61          	3.537
MS.340         	10.587         	3.553
MS.341         	10.568         	3.541
MS.342         	10.545         	3.466
MS.343         	10.525         	3.452
MS.344         	10.502         	3.468
MS.345         	10.483         	3.464
MS.346         	10.462         	3.44
MS.347         	10.44          	3.346
MS.348         	10.42          	3.428
MS.349         	10.4           	3.398
MS.350         	10.377         	3.36
MS.351         	10.358         	3.402
MS.352         	10.337         	3.283
MS.353         	10.318         	3.311
MS.354         	10.295         	3.269
MS.355         	10.275         	3.257
MS.356         	10.255         	3.366
MS.357         	10.235         	3.333
MS.358         	10.212         	3.237
MS.359         	10.193         	3.327
MS.360         	10.172         	3.249
MS.361         	10.153         	3.225
MS.362         	10.132         	3.178
MS.363         	10.113         	3.231
MS.364         	10.092         	3.213
MS.365         	10.073         	3.162
MS.366         	10.052         	3.168
MS.367         	10.032         	3.102
MS.368         	10.012         	3.11
MS.369         	9.992          	3.096
MS.370         	9.972          	3.072
MS.371         	9.952          	3.11
MS.372         	9.932          	3.114
MS.373         	9.912          	2.997
MS.374         	9.892          	2.983
MS.375         	9.872          	2.957
MS.376         	9.852          	2.935
MS.377         	9.832          	2.949
MS.378         	9.812          	2.866
MS.379         	9.792          	2.921
MS.380         	9.775          	2.902
MS.381         	9.755          	2.822
MS.382         	9.735          	2.786
MS.383         	9.715          	2.745
MS.384         	9.695          	2.917
MS.385         	9.677          	2.755
MS.386         	9.657          	2.671
MS.387         	9.637          	2.641
MS.388         	9.62           	2.657
MS.389         	9.6            	2.58
MS.390         	9.58           	2.6
MS.391         	9.562          	2.624
MS.392         	9.542          	2.5
MS.393         	9.523          	2.494
MS.394         	9.505          	2.524
MS.395         	9.485          	2.471
MS.396         	9.465          	2.504
MS.397         	9.448          	2.544
MS.398         	9.427          	2.407
MS.399         	9.41           	2.381
MS.400         	9.39           	2.473
MS.401         	9.372          	2.346
MS.402         	9.352          	2.288
MS.403         	9.335          	2.363
MS.404         	9.315          	2.298
MS.405         	9.297          	2.328
MS.406         	9.28           	2.242
MS.407         	9.26           	2.298
MS.408         	9.242          	2.268
MS.409         	9.222          	2.193
MS.410         	9.205          	2.228
MS.411         	9.188          	2.195
MS.412         	9.167          	2.179
MS.413         	9.15           	2.179
MS.414         	9.132          	2.197
MS.415         	9.113          	2.077
MS.416         	9.095          	2.067
MS.417         	9.077          	2.087
MS.418         	9.057          	2.073
MS.419         	9.04           	1.962
MS.420         	9.023          	2.024
MS.421         	9.005          	1.907
MS.422         	8.988          	1.932
MS.423         	8.967          	1.924
MS.424         	8.95           	1.917
MS.425         	8.932          	1.958
MS.426         	8.915          	1.903
MS.427         	8.898          	1.825
MS.428         	8.88           	1.756
MS.429         	8.863          	1.74
MS.430         	8.845          	1.77
MS.431         	8.825          	1.795
MS.432         	8.807          	1.772
MS.433         	8.79           	1.754
MS.434         	8.773          	1.728
MS.435         	8.755          	1.69
MS.436         	8.738          	1.664
MS.437         	8.72           	1.613
MS.438         	8.702          	1.573
MS.439         	8.685          	1.605
MS.440         	8.67           	1.585
MS.441         	8.653          	1.549
MS.442         	8.635          	1.541
MS.443         	8.617          	1.513
MS.444         	8.6            	1.503
MS.445         	8.582          	1.446
MS.446         	8.565          	1.464
MS.447         	8.547          	1.37
MS.448         	8.53           	1.412
MS.449         	8.515          	1.39
MS.450         	8.497          	1.376
MS.451         	8.48           	1.378
MS.452         	8.462          	1.356
MS.453         	8.448          	1.249
MS.454         	8.43           	1.325
MS.455         	8.412          	1.285
MS.456         	8.395          	1.239
MS.457         	8.38           	1.259
MS.458         	8.363          	1.18
MS.459         	8.345          	1.174
MS.460         	8.33           	1.196
MS.461         	8.312          	1.217
MS.462         	8.295          	1.174
MS.463         	8.28           	1.176
MS.464         	8.262          	1.178
MS.465         	8.245          	1.092
MS.466         	8.23           	1.098
MS.467         	8.212          	1.086
MS.468         	8.198          	1.094
MS.469         	8.18           	1.16
MS.470         	8.165          	1.1
MS.471         	8.148          	1.039
MS.472         	8.132          	1.074
MS.473         	8.115          	1.009
MS.474         	8.1            	0.999
MS.475         	8.082          	0.997
MS.476         	8.068          	0.977
MS.477         	8.05           	0.965
MS.478         	8.035          	0.973
MS.479         	8.017          	0.987
MS.480         	8.002          	0.892
MS.481         	7.987          	0.979
MS.482         	7.97           	0.937
MS.483         	7.955          	0.818
MS.484         	7.938          	0.884
MS.485         	7.922          	0.88
MS.486         	7.907          	0.85
MS.487         	7.89           	0.858
MS.488         	7.875          	0.806
MS.489         	7.86           	0.788
MS.490         	7.845          	0.826
MS.491         	7.827          	0.846
MS.492         	7.812          	0.818
MS.493         	7.797          	0.777
MS.494         	7.782          	0.779
MS.495         	7.765          	0.705
MS.496         	7.75           	0.739
MS.497         	7.735          	0.671
MS.498         	7.72           	0.671
MS.499         	7.705          	0.608
MS.500         	7.688          	0.622
MS.501         	7.672          	0.632
MS.502         	7.657          	0.56
MS.503         	7.642          	0.59
MS.504         	7.628          	0.588
MS.505         	7.612          	0.634
MS.506         	7.597          	0.548
MS.507         	7.582          	0.659
MS.508         	7.567          	0.463
MS.509         	7.552          	0.532
MS.510         	7.537          	0.61
MS.511         	7.52           	0.465
MS.512         	7.505          	0.485
MS.513         	7.49           	0.469
MS.514         	7.475          	0.475
MS.515         	7.462          	0.554
MS.516         	7.447          	0.393
MS.517         	7.432          	0.433
MS.518         	7.418          	0.502
MS.519         	7.402          	0.429
MS.520         	7.387          	0.459
MS.521         	7.372          	0.447
MS.522         	7.357          	0.51
MS.523         	7.342          	0.427
MS.524         	7.327          	0.371
MS.525         	7.312          	0.367
MS.526         	7.3            	0.371
MS.527         	7.285          	0.369
MS.528         	7.27           	0.367
MS.529         	7.255          	0.373
MS.530         	7.24           	0.352
MS.531         	7.227          	0.421
MS.532         	7.212          	0.34
MS.533         	7.197          	0.302
MS.534         	7.182          	0.322
MS.535         	7.168          	0.312
MS.536         	7.155          	0.31
MS.537         	7.14           	0.288
MS.538         	7.125          	0.32
MS.539         	7.112          	0.334
MS.540         	7.097          	0.286
MS.541         	7.082          	0.274
MS.542         	7.07           	0.304
MS.543         	7.055          	0.262
MS.544         	7.04           	0.248
MS.545         	7.027          	0.256
MS.546         	7.012          	0.272
MS.547         	6.997          	0.24
MS.548         	6.985          	0.298
MS.549         	6.97           	0.224
MS.550         	6.957          	0.22
MS.551         	6.942          	0.238
MS.552         	6.93           	0.228
MS.553         	6.915          	0.185
MS.554         	6.902          	0.232
MS.555         	6.887          	0.214
MS.556         	6.875          	0.236
MS.557         	6.86           	0.191
MS.558         	6.847          	0.197
MS.559         	6.832          	0.207
MS.560         	6.82           	0.183
MS.561         	6.805          	0.153
MS.562         	6.793          	0.135
MS.563         	6.777          	0.149
MS.564         	6.765          	0.157
MS.565         	6.753          	0.137
MS.566         	6.737          	0.117
MS.567         	6.725          	0.121
MS.568         	6.71           	0.151
MS.569         	6.697          	0.115
MS.570         	6.685          	0.121
MS.571         	6.67           	0.131
MS.572         	6.657          	0.101
MS.573         	6.645          	0.109
MS.574         	6.63           	0.129
MS.575         	6.617          	0.087
MS.576         	6.605          	0.105
MS.577         	6.59           	0.079
MS.578         	6.577          	0.103
MS.579         	6.565          	0.097
MS.580         	6.552          	0.085
MS.581         	6.537          	0.095
MS.582         	6.525          	0.097
MS.583         	6.512          	0.07
MS.584         	6.5            	0.093
MS.585         	6.487          	0.077
MS.586         	6.472          	0.079
MS.587         	6.46           	0.077
MS.588         	6.447          	0.085
MS.589         	6.435          	0.089
MS.590         	6.422          	0.062
MS.591         	6.41           	0.079
MS.592         	6.398          	0.073
MS.593         	6.382          	0.075
MS.594         	6.37           	0.066
MS.595         	6.358          	0.066
MS.596         	6.345          	0.054
MS.597         	6.332          	0.048
MS.598         	6.32           	0.058
MS.599         	6.307          	0.066
MS.600         	6.295          	0.052
MS.601         	6.282          	0.062
MS.602         	6.27           	0.068
MS.603         	6.257          	0.032
MS.604         	6.245          	0.038
MS.605         	6.233          	0.022
MS.606         	6.22           	0.032
MS.607         	6.207          	0.048
MS.608         	6.195          	0.06
MS.609         	6.182          	0.056
MS.610         	6.17           	0.026
MS.611         	6.157          	0.038
MS.612         	6.145          	0.03
MS.613         	6.132          	0.034
MS.614         	6.12           	0.028
MS.615         	6.11           	0.042
MS.616         	6.097          	0.034
MS.617         	6.085          	0.034
MS.618         	6.072          	0.032
MS.619         	6.06           	0.036
MS.620         	6.047          	0.03
MS.621         	6.035          	0.036
MS.622         	6.025          	0.05
MS.623         	6.012          	0.034
MS.624         	6              	0.044
MS.625         	5.987          	0.028
MS.626         	5.975          	0.032
MS.627         	5.965          	0.026
MS.628         	5.952          	0.03
MS.629         	5.94           	0.014
MS.630         	5.927          	0.032
MS.631         	5.918          	0.03
MS.632         	5.905          	0.016
MS.633         	5.892          	0.032
MS.634         	5.88           	0.026
MS.635         	5.87           	0.034
MS.636         	5.858          	0.02
MS.637         	5.845          	0.032
MS.638         	5.835          	0.032
MS.639         	5.822          	0.03
MS.640         	5.81           	0.02
MS.641         	5.8            	0.028
MS.642         	5.787          	0.028
MS.643         	5.775          	0.018
MS.644         	5.765          	0.022
MS.645         	5.753          	0.018
MS.646         	5.742          	0.03
MS.647         	5.73           	0.016
MS.648         	5.717          	0.008
MS.649         	5.707          	0.012
MS.650         	5.695          	0.022
MS.651         	5.685          	0.022
MS.652         	5.672          	0.028
MS.653         	5.662          	0.016
MS.654         	5.65           	0.014
MS.655         	5.64           	0.02
MS.656         	5.628          	0.016
MS.657         	5.617          	0.026
MS.658         	5.605          	0.016
MS.659         	5.595          	0.018
MS.660         	5.582          	0.012
MS.661         	5.572          	0.034
MS.662         	5.56           	0.016
MS.663         	5.55           	0.014
MS.664         	5.537          	0.022
MS.665         	5.527          	0.016
MS.666         	5.517          	0.014
MS.667         	5.505          	0.014
MS.668         	5.495          	0.018
MS.669         	5.483          	0.014
MS.670         	5.472          	0.014
MS.671         	5.463          	0.012
MS.672         	5.45           	0.008
MS.673         	5.44           	0.008
MS.674         	5.43           	0.01
MS.675         	5.418          	0.014
MS.676         	5.407          	0.014
MS.677         	5.398          	0.014
MS.678         	5.385          	0.014
MS.679         	5.375          	0.016
MS.680         	5.365          	0.014
MS.681         	5.352          	0.016
MS.682         	5.342          	0.018
MS.683         	5.332          	0.008
MS.684         	5.322          	0.012
MS.685         	5.31           	0.02
MS.686         	5.3            	0.014
MS.687         	5.29           	0.018
MS.688         	5.28           	0.016
MS.689         	5.267          	0.016
MS.690         	5.257          	0.014
MS.691         	5.247          	0.012
MS.692         	5.237          	0.016
MS.693         	5.227          	0.018
MS.694         	5.215          	0.012
MS.695         	5.205          	0.02
MS.696         	5.195          	0.022
MS.697         	5.185          	0.012
MS.698         	5.175          	0.018
MS.699         	5.165          	0.012
MS.700         	5.155          	0.01
MS.701         	5.142          	0.016
MS.702         	5.132          	0.01
MS.703         	5.122          	0.016
MS.704         	5.112          	0.016
MS.705         	5.102          	0.014
MS.706         	5.092          	0.012
MS.707         	5.082          	0.01
DERIVED EXCITABILITY VARIABLES
Program = QTracP 3/4/2020
Threshold method = 6 (optimised for CAP, using data for present condition only)
SR method = 1 (using actual data values)
6.                 	0.000               	Peak response\(mV)
9.                 	36.8                	Temperature ( C)
17.                	31                  	Age (years)
18.                	1                   	Sex (M=1, F=2)

EXTRA VARIABLES

MScPeak(mV) = 4.93
MScS5(mA) = 6.99
MScS50(mA) = 9.41
MScS95(mA) = 13.18
MScNSteps = 0
MScSteps(%) = 0.0
MScStepMax(%) = 0.0
MScD50 = 72
MScSlope = 3.71
MSFPeakAmp(mV) = 4.89
MSFNUnits = 170
MSFMeanUnitAmp(uV) = 28.8
MSFHuntTime(m) = 3.29
MSFError(%) = 0.677
MSFNLarge = 59.18
MSFMedianAmp(%) = 0.537
MSFMedianAmp(mV) = 0.0263
MSFHalfAmpAmp(%) = 0.623
MSFHalfAmpAmp(mV) = 0.0305
MSFLargestAmp(%) = 1.72
MSFLargestAmp(mV) = 0.084
MSFMeanRS(%) = 1.99
MSFOpts = 10106121
MScDuration(min) = 6.6
MSFTraces = 561
MSFSizeLimit(uV) = 12.2
MSFLimitType = 1
MSFSmallestAmp(uV) = 12.3

EXTRA WAVEFORMS


!MScan Model
!170
	1	6.16	0.57	2
	2	6.4	0.56	2
	3	6.51	0.35	2
	4	6.59	0.28	2
	5	6.7	0.54	2
	6	6.74	0.44	2
	7	6.81	0.48	2
	8	6.85	0.43	2
	9	6.93	0.76	2
	10	6.99	0.44	2
	11	7.08	0.84	2
	12	7.14	0.54	2
	13	7.23	1.01	2
	14	7.3	0.68	2
	15	7.46	1.72	2
	16	7.56	1.33	2
	17	7.63	0.88	2
	18	7.67	0.95	2
	19	7.69	0.37	2
	20	7.73	0.61	2
	21	7.75	0.46	2
	22	7.77	0.69	2
	23	7.83	1.56	1.6
	24	7.9	0.97	2
	25	7.93	0.64	2
	26	7.99	0.64	2
	27	8.02	0.54	2
	28	8.05	0.64	2
	29	8.08	0.57	2
	30	8.11	0.47	2
	31	8.14	0.45	2
	32	8.18	0.61	2
	33	8.22	0.64	2
	34	8.26	0.6	2
	35	8.31	0.68	2
	36	8.34	0.69	2
	37	8.36	0.58	2
	38	8.38	0.31	2
	39	8.39	0.33	2
	40	8.41	0.25	2
	41	8.42	0.28	2
	42	8.46	0.59	2
	43	8.47	0.32	2
	44	8.48	0.41	2
	45	8.51	0.61	2
	46	8.52	0.28	2
	47	8.53	0.26	2
	48	8.55	0.6	2
	49	8.58	0.41	2.1
	50	8.59	0.3	2
	51	8.6	0.3	2
	52	8.62	0.44	2
	53	8.64	0.49	2
	54	8.65	0.33	2
	55	8.67	0.37	2
	56	8.68	0.43	2
	57	8.7	0.38	2
	58	8.71	0.37	2
	59	8.73	0.37	2
	60	8.75	0.38	2
	61	8.77	0.38	2
	62	8.78	0.53	2
	63	8.8	0.5	2
	64	8.82	0.43	2
	65	8.84	0.62	2
	66	8.87	0.7	2
	67	8.9	0.66	2
	68	8.92	0.53	2
	69	8.94	0.45	2
	70	8.96	0.35	2
	71	8.98	0.48	2
	72	9	0.54	2
	73	9.02	0.51	2
	74	9.04	0.52	2
	75	9.05	0.45	2
	76	9.07	0.44	2
	77	9.09	0.41	2
	78	9.11	0.39	2
	79	9.12	0.43	2
	80	9.14	0.42	2
	81	9.16	0.36	2
	82	9.18	0.46	2
	83	9.21	0.65	2
	84	9.24	0.7	2
	85	9.27	0.56	2
	86	9.29	0.5	2
	87	9.32	0.62	2
	88	9.35	0.57	2
	89	9.38	0.75	2
	90	9.42	0.63	2
	91	9.45	0.77	2
	92	9.49	0.92	2
	93	9.53	1.15	2
	94	9.56	0.67	2
	95	9.58	0.68	2
	96	9.62	0.77	2
	97	9.65	0.7	2
	98	9.67	0.77	2
	99	9.7	0.39	2
	100	9.72	0.71	2
	101	9.75	0.81	2
	102	9.79	1.02	2
	103	9.83	1.09	2
	104	9.85	0.45	2
	105	9.86	0.39	2
	106	9.88	0.29	2
	107	9.9	0.35	2
	108	9.92	0.37	2
	109	9.94	0.37	2
	110	9.96	0.44	2
	111	9.98	0.43	2
	112	10	0.41	2
	113	10.02	0.41	2
	114	10.03	0.62	2
	115	10.05	0.56	2
	116	10.09	0.55	2
	117	10.21	0.96	2
	118	10.29	1.4	2
	119	10.35	0.71	2
	120	10.41	0.5	2
	121	10.44	0.54	2
	122	10.47	0.53	2
	123	10.5	0.46	2
	124	10.53	0.44	2
	125	10.57	0.6	2
	126	10.63	0.73	2
	127	10.7	0.8	2
	128	10.78	1.03	2
	129	10.84	0.68	2
	130	10.91	0.9	2
	131	10.97	0.62	2
	132	11.03	0.92	2
	133	11.09	0.8	2
	134	11.12	0.34	2
	135	11.15	0.46	2
	136	11.18	0.42	2
	137	11.22	0.58	2
	138	11.27	0.46	2
	139	11.33	0.9	2
	140	11.4	1.02	2
	141	11.46	0.82	2
	142	11.53	0.73	2
	143	11.59	0.75	2
	144	11.65	0.8	2
	145	11.7	0.57	2
	146	11.76	0.48	2
	147	11.86	0.92	2
	148	11.94	0.56	2
	149	12	0.44	2
	150	12.11	0.86	2
	151	12.24	0.92	2
	152	12.39	0.82	2
	153	12.48	0.69	2
	154	12.59	0.56	2
	155	12.64	0.38	2
	156	12.7	0.43	2
	157	12.76	0.32	2
	158	12.81	0.28	2
	159	12.88	0.43	2
	160	12.97	0.49	2
	161	13.02	0.26	2
	162	13.12	0.51	2
	163	13.24	0.6	2
	164	13.37	0.4	2
	165	13.48	0.54	2
	166	13.64	0.77	2
	167	13.79	0.49	2
	168	13.9	0.41	2
	169	14.06	0.47	2
	170	14.47	0.9	2

