File:              	C:\Qtrac\Data\Daniel M Sørensen\MScan multicentre study\Data from centres\Bucharest\Processed data\TDLC00828C.QZD
Name:              	RO.BU.NC.5.1
Protocol:          	MSCAN-R2
Date:              	28/8/20
Start time:        	12:54:03
Age:               	53
Sex:               	F
Temperature:       	36.2
S/R sites:         	TA
NC/disease:        	NC
Operator:          	TL
Comments:          	RONC5.1.
M-SCAN DATA (6.9-1.7m)
Scanpts: 5, 10, 550, 553
Stim. (mA)     	Amp. (mV)
MS.1           	17.5           	5.765
MS.2           	17.5           	5.771
MS.3           	17.5           	5.756
MS.4           	17.5           	5.748
MS.5           	17.5           	5.754
MS.6           	17.5           	5.758
MS.7           	17.5           	5.756
MS.8           	17.5           	5.771
MS.9           	17.5           	5.756
MS.10          	17.5           	5.754
MS.11          	17.5           	5.748
MS.12          	17.5           	5.763
MS.13          	17.5           	5.75
MS.14          	17.5           	5.756
MS.15          	17.5           	5.758
MS.16          	17.5           	5.763
MS.17          	17.5           	5.75
MS.18          	17.5           	5.752
MS.19          	17.5           	5.756
MS.20          	17.5           	5.752
MS.21          	17.5           	5.726
MS.22          	17.5           	5.752
MS.23          	17.5           	5.724
MS.24          	17.43          	5.752
MS.25          	17.395         	5.746
MS.26          	17.36          	5.75
MS.27          	17.325         	5.754
MS.28          	17.29          	5.75
MS.29          	17.257         	5.76
MS.30          	17.222         	5.748
MS.31          	17.188         	5.744
MS.32          	17.153         	5.756
MS.33          	17.12          	5.726
MS.34          	17.085         	5.76
MS.35          	17.05          	5.75
MS.36          	17.017         	5.758
MS.37          	16.983         	5.746
MS.38          	16.95          	5.724
MS.39          	16.915         	5.716
MS.40          	16.88          	5.724
MS.41          	16.847         	5.72
MS.42          	16.812         	5.732
MS.43          	16.78          	5.682
MS.44          	16.747         	5.738
MS.45          	16.712         	5.69
MS.46          	16.68          	5.694
MS.47          	16.647         	5.728
MS.48          	16.612         	5.688
MS.49          	16.58          	5.688
MS.50          	16.547         	5.68
MS.51          	16.515         	5.698
MS.52          	16.48          	5.684
MS.53          	16.448         	5.688
MS.54          	16.415         	5.666
MS.55          	16.382         	5.575
MS.56          	16.35          	5.69
MS.57          	16.317         	5.682
MS.58          	16.285         	5.68
MS.59          	16.253         	5.674
MS.60          	16.22          	5.632
MS.61          	16.188         	5.664
MS.62          	16.155         	5.559
MS.63          	16.122         	5.656
MS.64          	16.09          	5.555
MS.65          	16.057         	5.507
MS.66          	16.025         	5.529
MS.67          	15.992         	5.678
MS.68          	15.962         	5.545
MS.69          	15.93          	5.626
MS.70          	15.898         	5.541
MS.71          	15.867         	5.481
MS.72          	15.835         	5.493
MS.73          	15.802         	5.497
MS.74          	15.773         	5.501
MS.75          	15.74          	5.531
MS.76          	15.707         	5.491
MS.77          	15.677         	5.458
MS.78          	15.645         	5.472
MS.79          	15.615         	5.464
MS.80          	15.582         	5.569
MS.81          	15.552         	5.456
MS.82          	15.52          	5.468
MS.83          	15.49          	5.47
MS.84          	15.46          	5.466
MS.85          	15.427         	5.432
MS.86          	15.398         	5.426
MS.87          	15.367         	5.458
MS.88          	15.335         	5.414
MS.89          	15.305         	5.426
MS.90          	15.275         	5.432
MS.91          	15.245         	5.394
MS.92          	15.212         	5.43
MS.93          	15.182         	5.384
MS.94          	15.152         	5.285
MS.95          	15.122         	5.418
MS.96          	15.092         	5.39
MS.97          	15.062         	5.277
MS.98          	15.032         	5.231
MS.99          	15.002         	5.321
MS.100         	14.972         	5.329
MS.101         	14.943         	5.243
MS.102         	14.912         	5.245
MS.103         	14.882         	5.239
MS.104         	14.852         	5.255
MS.105         	14.822         	5.19
MS.106         	14.792         	5.249
MS.107         	14.765         	5.233
MS.108         	14.735         	5.19
MS.109         	14.705         	5.229
MS.110         	14.675         	5.215
MS.111         	14.648         	5.178
MS.112         	14.617         	5.144
MS.113         	14.587         	5.162
MS.114         	14.56          	5.144
MS.115         	14.53          	5.162
MS.116         	14.5           	5.108
MS.117         	14.472         	5.12
MS.118         	14.443         	5.118
MS.119         	14.415         	5.148
MS.120         	14.385         	5.058
MS.121         	14.358         	5.047
MS.122         	14.327         	5.011
MS.123         	14.3           	5.027
MS.124         	14.27          	5.058
MS.125         	14.242         	5.07
MS.126         	14.212         	5.041
MS.127         	14.185         	4.997
MS.128         	14.157         	4.979
MS.129         	14.127         	4.997
MS.130         	14.1           	4.985
MS.131         	14.072         	4.951
MS.132         	14.045         	4.987
MS.133         	14.015         	4.929
MS.134         	13.987         	4.983
MS.135         	13.96          	4.963
MS.136         	13.932         	4.872
MS.137         	13.905         	4.989
MS.138         	13.877         	4.965
MS.139         	13.85          	4.929
MS.140         	13.82          	4.89
MS.141         	13.792         	4.854
MS.142         	13.765         	4.828
MS.143         	13.737         	4.921
MS.144         	13.71          	4.878
MS.145         	13.682         	4.866
MS.146         	13.655         	4.864
MS.147         	13.63          	4.919
MS.148         	13.602         	4.868
MS.149         	13.575         	4.788
MS.150         	13.547         	4.772
MS.151         	13.52          	4.757
MS.152         	13.492         	4.794
MS.153         	13.467         	4.854
MS.154         	13.44          	4.735
MS.155         	13.412         	4.768
MS.156         	13.385         	4.757
MS.157         	13.36          	4.675
MS.158         	13.332         	4.578
MS.159         	13.305         	4.659
MS.160         	13.28          	4.687
MS.161         	13.252         	4.618
MS.162         	13.225         	4.55
MS.163         	13.2           	4.655
MS.164         	13.172         	4.447
MS.165         	13.148         	4.514
MS.166         	13.12          	4.564
MS.167         	13.095         	4.516
MS.168         	13.068         	4.508
MS.169         	13.042         	4.518
MS.170         	13.015         	4.548
MS.171         	12.99          	4.526
MS.172         	12.965         	4.425
MS.173         	12.938         	4.494
MS.174         	12.912         	4.353
MS.175         	12.887         	4.477
MS.176         	12.86          	4.475
MS.177         	12.835         	4.407
MS.178         	12.81          	4.332
MS.179         	12.785         	4.379
MS.180         	12.757         	4.349
MS.181         	12.733         	4.32
MS.182         	12.707         	4.361
MS.183         	12.682         	4.314
MS.184         	12.657         	4.294
MS.185         	12.632         	4.274
MS.186         	12.608         	4.29
MS.187         	12.58          	4.264
MS.188         	12.555         	4.242
MS.189         	12.53          	4.216
MS.190         	12.505         	4.236
MS.191         	12.48          	4.318
MS.192         	12.455         	4.121
MS.193         	12.43          	4.238
MS.194         	12.405         	4.115
MS.195         	12.382         	4.185
MS.196         	12.358         	4.147
MS.197         	12.332         	4.105
MS.198         	12.307         	4.093
MS.199         	12.282         	4.079
MS.200         	12.257         	3.984
MS.201         	12.233         	3.986
MS.202         	12.21          	3.99
MS.203         	12.185         	3.845
MS.204         	12.16          	3.922
MS.205         	12.135         	3.942
MS.206         	12.113         	3.98
MS.207         	12.087         	3.805
MS.208         	12.062         	3.962
MS.209         	12.04          	3.928
MS.210         	12.015         	3.873
MS.211         	11.992         	3.805
MS.212         	11.967         	3.853
MS.213         	11.943         	3.855
MS.214         	11.92          	3.773
MS.215         	11.895         	3.736
MS.216         	11.872         	3.791
MS.217         	11.847         	3.694
MS.218         	11.825         	3.579
MS.219         	11.8           	3.619
MS.220         	11.778         	3.517
MS.221         	11.755         	3.515
MS.222         	11.73          	3.569
MS.223         	11.707         	3.549
MS.224         	11.682         	3.474
MS.225         	11.66          	3.493
MS.226         	11.637         	3.491
MS.227         	11.615         	3.37
MS.228         	11.59          	3.414
MS.229         	11.568         	3.301
MS.230         	11.545         	3.309
MS.231         	11.523         	3.331
MS.232         	11.497         	3.237
MS.233         	11.475         	3.209
MS.234         	11.452         	3.148
MS.235         	11.43          	3.162
MS.236         	11.407         	3.207
MS.237         	11.385         	3.233
MS.238         	11.36          	3.112
MS.239         	11.337         	3.211
MS.240         	11.315         	3.086
MS.241         	11.292         	3.011
MS.242         	11.27          	2.967
MS.243         	11.247         	2.961
MS.244         	11.225         	2.834
MS.245         	11.202         	2.784
MS.246         	11.18          	2.872
MS.247         	11.157         	2.981
MS.248         	11.135         	2.828
MS.249         	11.115         	2.701
MS.250         	11.092         	2.892
MS.251         	11.07          	2.858
MS.252         	11.047         	2.633
MS.253         	11.025         	2.882
MS.254         	11.002         	2.725
MS.255         	10.983         	2.665
MS.256         	10.96          	2.731
MS.257         	10.938         	2.705
MS.258         	10.915         	2.751
MS.259         	10.895         	2.697
MS.260         	10.872         	2.459
MS.261         	10.85          	2.538
MS.262         	10.827         	2.405
MS.263         	10.807         	2.522
MS.264         	10.785         	2.403
MS.265         	10.765         	2.502
MS.266         	10.742         	2.395
MS.267         	10.72          	2.381
MS.268         	10.7           	2.367
MS.269         	10.677         	2.357
MS.270         	10.657         	2.322
MS.271         	10.635         	2.212
MS.272         	10.615         	2.216
MS.273         	10.592         	2.254
MS.274         	10.573         	2.169
MS.275         	10.55          	2.157
MS.276         	10.53          	2.075
MS.277         	10.507         	2.018
MS.278         	10.488         	2.056
MS.279         	10.467         	1.998
MS.280         	10.445         	2.087
MS.281         	10.425         	2.097
MS.282         	10.405         	2.079
MS.283         	10.382         	1.946
MS.284         	10.363         	1.903
MS.285         	10.342         	1.962
MS.286         	10.32          	1.795
MS.287         	10.3           	1.797
MS.288         	10.28          	1.793
MS.289         	10.26          	1.68
MS.290         	10.24          	1.67
MS.291         	10.217         	1.694
MS.292         	10.198         	1.551
MS.293         	10.177         	1.658
MS.294         	10.157         	1.601
MS.295         	10.137         	1.684
MS.296         	10.117         	1.486
MS.297         	10.097         	1.442
MS.298         	10.077         	1.484
MS.299         	10.057         	1.47
MS.300         	10.035         	1.376
MS.301         	10.015         	1.386
MS.302         	9.995          	1.488
MS.303         	9.975          	1.446
MS.304         	9.955          	1.329
MS.305         	9.938          	1.321
MS.306         	9.917          	1.386
MS.307         	9.898          	1.301
MS.308         	9.877          	1.283
MS.309         	9.858          	1.249
MS.310         	9.837          	1.132
MS.311         	9.818          	1.213
MS.312         	9.797          	1.235
MS.313         	9.778          	1.198
MS.314         	9.76           	1.156
MS.315         	9.74           	1.078
MS.316         	9.72           	1.112
MS.317         	9.7            	1.102
MS.318         	9.682          	1.092
MS.319         	9.662          	1.045
MS.320         	9.642          	0.981
MS.321         	9.622          	0.995
MS.322         	9.605          	0.991
MS.323         	9.585          	1.029
MS.324         	9.565          	1.027
MS.325         	9.547          	0.904
MS.326         	9.528          	0.914
MS.327         	9.507          	0.943
MS.328         	9.49           	0.937
MS.329         	9.47           	0.912
MS.330         	9.452          	0.846
MS.331         	9.432          	0.92
MS.332         	9.415          	0.858
MS.333         	9.395          	0.92
MS.334         	9.377          	0.842
MS.335         	9.358          	0.85
MS.336         	9.34           	0.854
MS.337         	9.32           	0.798
MS.338         	9.302          	0.808
MS.339         	9.283          	0.777
MS.340         	9.265          	0.836
MS.341         	9.245          	0.701
MS.342         	9.227          	0.721
MS.343         	9.21           	0.759
MS.344         	9.19           	0.709
MS.345         	9.172          	0.745
MS.346         	9.155          	0.743
MS.347         	9.135          	0.709
MS.348         	9.117          	0.731
MS.349         	9.1            	0.677
MS.350         	9.08           	0.681
MS.351         	9.062          	0.677
MS.352         	9.045          	0.626
MS.353         	9.028          	0.592
MS.354         	9.01           	0.628
MS.355         	8.99           	0.572
MS.356         	8.972          	0.542
MS.357         	8.955          	0.582
MS.358         	8.938          	0.584
MS.359         	8.92           	0.487
MS.360         	8.903          	0.612
MS.361         	8.882          	0.649
MS.362         	8.865          	0.508
MS.363         	8.847          	0.463
MS.364         	8.83           	0.491
MS.365         	8.812          	0.493
MS.366         	8.795          	0.487
MS.367         	8.778          	0.495
MS.368         	8.76           	0.506
MS.369         	8.742          	0.447
MS.370         	8.725          	0.463
MS.371         	8.707          	0.399
MS.372         	8.69           	0.473
MS.373         	8.672          	0.449
MS.374         	8.655          	0.415
MS.375         	8.637          	0.385
MS.376         	8.62           	0.427
MS.377         	8.602          	0.383
MS.378         	8.587          	0.389
MS.379         	8.57           	0.393
MS.380         	8.552          	0.387
MS.381         	8.535          	0.371
MS.382         	8.517          	0.373
MS.383         	8.5            	0.373
MS.384         	8.485          	0.395
MS.385         	8.467          	0.359
MS.386         	8.45           	0.363
MS.387         	8.432          	0.326
MS.388         	8.417          	0.344
MS.389         	8.4            	0.413
MS.390         	8.382          	0.312
MS.391         	8.365          	0.246
MS.392         	8.35           	0.334
MS.393         	8.332          	0.262
MS.394         	8.315          	0.24
MS.395         	8.3            	0.318
MS.396         	8.283          	0.199
MS.397         	8.267          	0.232
MS.398         	8.25           	0.256
MS.399         	8.233          	0.218
MS.400         	8.217          	0.207
MS.401         	8.2            	0.226
MS.402         	8.185          	0.203
MS.403         	8.167          	0.175
MS.404         	8.153          	0.167
MS.405         	8.135          	0.209
MS.406         	8.12           	0.151
MS.407         	8.102          	0.175
MS.408         	8.087          	0.22
MS.409         	8.07           	0.169
MS.410         	8.055          	0.211
MS.411         	8.037          	0.151
MS.412         	8.023          	0.163
MS.413         	8.005          	0.173
MS.414         	7.99           	0.129
MS.415         	7.975          	0.195
MS.416         	7.957          	0.163
MS.417         	7.942          	0.119
MS.418         	7.927          	0.135
MS.419         	7.91           	0.139
MS.420         	7.895          	0.141
MS.421         	7.88           	0.117
MS.422         	7.862          	0.097
MS.423         	7.847          	0.117
MS.424         	7.832          	0.131
MS.425         	7.815          	0.107
MS.426         	7.8            	0.087
MS.427         	7.785          	0.105
MS.428         	7.77           	0.073
MS.429         	7.755          	0.091
MS.430         	7.737          	0.075
MS.431         	7.722          	0.087
MS.432         	7.707          	0.091
MS.433         	7.692          	0.087
MS.434         	7.677          	0.079
MS.435         	7.662          	0.113
MS.436         	7.645          	0.119
MS.437         	7.63           	0.113
MS.438         	7.615          	0.077
MS.439         	7.6            	0.081
MS.440         	7.585          	0.083
MS.441         	7.57           	0.081
MS.442         	7.555          	0.073
MS.443         	7.54           	0.075
MS.444         	7.525          	0.07
MS.445         	7.51           	0.07
MS.446         	7.495          	0.077
MS.447         	7.48           	0.077
MS.448         	7.465          	0.085
MS.449         	7.45           	0.077
MS.450         	7.435          	0.068
MS.451         	7.42           	0.077
MS.452         	7.405          	0.073
MS.453         	7.39           	0.081
MS.454         	7.375          	0.079
MS.455         	7.36           	0.064
MS.456         	7.347          	0.06
MS.457         	7.332          	0.054
MS.458         	7.317          	0.064
MS.459         	7.302          	0.066
MS.460         	7.287          	0.064
MS.461         	7.273          	0.06
MS.462         	7.257          	0.056
MS.463         	7.245          	0.064
MS.464         	7.23           	0.064
MS.465         	7.215          	0.064
MS.466         	7.2            	0.056
MS.467         	7.188          	0.064
MS.468         	7.172          	0.066
MS.469         	7.157          	0.062
MS.470         	7.142          	0.056
MS.471         	7.13           	0.056
MS.472         	7.115          	0.046
MS.473         	7.1            	0.052
MS.474         	7.087          	0.066
MS.475         	7.072          	0.058
MS.476         	7.057          	0.054
MS.477         	7.045          	0.046
MS.478         	7.03           	0.056
MS.479         	7.015          	0.052
MS.480         	7.003          	0.046
MS.481         	6.987          	0.042
MS.482         	6.975          	0.056
MS.483         	6.96           	0.048
MS.484         	6.945          	0.058
MS.485         	6.932          	0.048
MS.486         	6.918          	0.044
MS.487         	6.905          	0.046
MS.488         	6.89           	0.048
MS.489         	6.878          	0.048
MS.490         	6.862          	0.038
MS.491         	6.85           	0.046
MS.492         	6.835          	0.05
MS.493         	6.822          	0.052
MS.494         	6.807          	0.042
MS.495         	6.795          	0.05
MS.496         	6.782          	0.048
MS.497         	6.767          	0.044
MS.498         	6.755          	0.048
MS.499         	6.74           	0.046
MS.500         	6.727          	0.048
MS.501         	6.715          	0.05
MS.502         	6.7            	0.042
MS.503         	6.688          	0.034
MS.504         	6.675          	0.042
MS.505         	6.66           	0.042
MS.506         	6.648          	0.04
MS.507         	6.635          	0.038
MS.508         	6.62           	0.05
MS.509         	6.608          	0.038
MS.510         	6.595          	0.048
MS.511         	6.58           	0.044
MS.512         	6.567          	0.036
MS.513         	6.555          	0.036
MS.514         	6.543          	0.048
MS.515         	6.527          	0.042
MS.516         	6.515          	0.044
MS.517         	6.503          	0.038
MS.518         	6.49           	0.034
MS.519         	6.477          	0.036
MS.520         	6.462          	0.048
MS.521         	6.45           	0.036
MS.522         	6.438          	0.046
MS.523         	6.425          	0.036
MS.524         	6.412          	0.044
MS.525         	6.4            	0.034
MS.526         	6.387          	0.038
MS.527         	6.375          	0.036
MS.528         	6.36           	0.036
MS.529         	6.347          	0.034
MS.530         	6.335          	0.034
MS.531         	6.322          	0.038
MS.532         	6.31           	0.038
MS.533         	6.297          	0.038
MS.534         	6.285          	0.04
MS.535         	6.273          	0.036
MS.536         	6.26           	0.028
MS.537         	6.247          	0.024
MS.538         	6.235          	0.04
MS.539         	6.222          	0.036
MS.540         	6.21           	0.038
MS.541         	6.197          	0.026
MS.542         	6.185          	0.042
MS.543         	6.172          	0.036
MS.544         	6.16           	0.026
MS.545         	6.148          	0.038
MS.546         	6.135          	0.03
MS.547         	6.125          	0.026
MS.548         	6.112          	0.028
MS.549         	6.1            	0.026
MS.550         	6.088          	0.026
MS.551         	6.075          	0.028
MS.552         	6.062          	0.026
MS.553         	6.05           	0.028
MS.554         	6.037          	0.026
MS.555         	6.027          	0.028
MS.556         	6.015          	0.042
MS.557         	6.003          	0.028
MS.558         	5.99           	0.028
MS.559         	5.977          	0.026
DERIVED EXCITABILITY VARIABLES
Program = QTracP 3/4/2020
Threshold method = 6 (optimised for CAP, using data for present condition only)
SR method = 1 (using actual data values)
6.                 	0.000               	Peak response\(mV)
9.                 	36.2                	Temperature ( C)
17.                	53                  	Age (years)
18.                	2                   	Sex (M=1, F=2)

EXTRA VARIABLES

MScPeak(mV) = 5.72
MScS5(mA) = 8.33
MScS50(mA) = 11.11
MScS95(mA) = 15.39
MScNSteps = 0
MScSteps(%) = 0.0
MScStepMax(%) = 0.0
MScD50 = 62
MScSlope = 4.39
MSFPeakAmp(mV) = 5.73
MSFNUnits = 183
MSFMeanUnitAmp(uV) = 31.3
MSFHuntTime(m) = 3.22
MSFError(%) = 1.33
MSFNLarge = 64.19
MSFMedianAmp(%) = 0.503
MSFMedianAmp(mV) = 0.0288
MSFHalfAmpAmp(%) = 0.578
MSFHalfAmpAmp(mV) = 0.0331
MSFLargestAmp(%) = 1.53
MSFLargestAmp(mV) = 0.0879
MSFMeanRS(%) = 2.01
MSFOpts = 10106121
MScDuration(min) = 5.2
MSFTraces = 549
MSFSizeLimit(uV) = 14.3
MSFLimitType = 1
MSFSmallestAmp(uV) = 14.6

EXTRA WAVEFORMS


!MScan Model
!183
	1	6.6	0.35	2
	2	7.08	0.39	2
	3	7.74	0.5	2
	4	7.84	0.25	2
	5	7.89	0.26	2
	6	7.99	0.5	2
	7	8.16	0.76	2
	8	8.24	0.51	2
	9	8.28	0.47	2
	10	8.33	0.57	2
	11	8.38	0.41	2
	12	8.46	0.67	2.4
	13	8.52	0.55	2
	14	8.62	0.62	2
	15	8.69	0.5	2
	16	8.76	0.66	2
	17	8.86	0.86	2
	18	8.93	0.67	2
	19	8.98	0.67	2
	20	9.03	0.52	2
	21	9.06	0.26	2
	22	9.1	0.39	2
	23	9.13	0.44	2
	24	9.17	0.49	2
	25	9.2	0.38	2
	26	9.24	0.48	2
	27	9.28	0.41	2
	28	9.35	0.58	2
	29	9.38	0.45	2
	30	9.42	0.44	2
	31	9.45	0.42	2
	32	9.48	0.33	2
	33	9.51	0.38	2
	34	9.54	0.39	2
	35	9.57	0.32	2
	36	9.6	0.5	2
	37	9.63	0.37	2
	38	9.65	0.26	2
	39	9.66	0.29	2
	40	9.68	0.35	2
	41	9.71	0.38	2
	42	9.73	0.31	2
	43	9.75	0.33	2
	44	9.77	0.34	2
	45	9.79	0.37	2
	46	9.81	0.39	2
	47	9.83	0.4	2
	48	9.86	0.57	2
	49	9.89	0.7	2
	50	9.93	0.53	2
	51	9.97	0.63	2
	52	10	0.8	2
	53	10.04	0.75	2
	54	10.06	0.55	2
	55	10.09	0.58	2
	56	10.12	0.67	2
	57	10.15	0.58	2
	58	10.17	0.38	2
	59	10.19	0.38	2
	60	10.2	0.45	2
	61	10.22	0.54	2
	62	10.24	0.5	2
	63	10.26	0.57	2
	64	10.28	0.72	2
	65	10.31	0.45	2
	66	10.33	0.52	2
	67	10.35	0.61	2
	68	10.37	0.57	2
	69	10.4	0.71	2
	70	10.42	0.67	2
	71	10.45	0.52	2
	72	10.47	0.48	2
	73	10.49	0.48	2
	74	10.51	0.53	2
	75	10.54	0.66	2
	76	10.56	0.62	2
	77	10.58	0.49	2
	78	10.6	0.59	2
	79	10.65	0.45	2
	80	10.67	0.5	2
	81	10.69	0.54	2
	82	10.72	0.51	2
	83	10.74	0.67	2
	84	10.76	0.73	2
	85	10.79	0.62	2
	86	10.83	0.94	2
	87	10.86	0.7	2
	88	10.9	0.88	2
	89	10.97	1.32	2
	90	11.06	1.53	2
	91	11.14	1.39	2
	92	11.18	0.65	2
	93	11.22	0.94	2
	94	11.26	0.85	2
	95	11.29	0.6	2
	96	11.33	0.56	2
	97	11.36	0.78	2
	98	11.39	0.53	2
	99	11.41	0.64	2
	100	11.44	0.58	2
	101	11.46	0.47	2
	102	11.48	0.43	2
	103	11.5	0.43	2
	104	11.52	0.38	2
	105	11.54	0.33	2
	106	11.57	0.45	2
	107	11.59	0.41	2
	108	11.6	0.31	2
	109	11.62	0.3	2
	110	11.63	0.32	2
	111	11.65	0.34	2
	112	11.67	0.34	2
	113	11.68	0.32	2
	114	11.7	0.35	2
	115	11.71	0.34	2
	116	11.73	0.33	2
	117	11.75	0.39	2
	118	11.76	0.39	2
	119	11.78	0.38	2
	120	11.8	0.33	2
	121	11.82	0.35	2
	122	11.84	0.43	2
	123	11.86	0.47	2
	124	11.89	0.4	2
	125	11.91	0.46	2
	126	11.99	1.43	2
	127	12.07	1.04	2
	128	12.12	0.72	2
	129	12.17	0.7	2
	130	12.2	0.57	2
	131	12.27	0.55	2
	132	12.3	0.63	2
	133	12.33	0.51	2
	134	12.36	0.43	2
	135	12.39	0.33	2
	136	12.43	0.52	2
	137	12.48	0.72	2
	138	12.53	0.53	2
	139	12.58	0.43	2
	140	12.62	0.43	2
	141	12.66	0.42	2
	142	12.7	0.44	2
	143	12.78	0.59	2
	144	12.82	0.44	2
	145	12.88	0.49	2
	146	12.95	0.65	2
	147	13.07	1.11	2
	148	13.15	0.65	2
	149	13.21	0.64	2
	150	13.26	0.43	2
	151	13.32	0.64	2
	152	13.36	0.6	2
	153	13.41	0.53	2
	154	13.48	0.78	2
	155	13.6	1.04	2
	156	13.71	0.72	2
	157	13.9	1.06	2
	158	13.97	0.3	2
	159	14.09	0.63	2
	160	14.22	0.69	2
	161	14.26	0.32	2
	162	14.3	0.26	2
	163	14.38	0.5	2
	164	14.43	0.27	2
	165	14.47	0.27	2
	166	14.55	0.47	2
	167	14.6	0.3	2
	168	14.64	0.31	2
	169	14.69	0.26	2
	170	14.74	0.28	2
	171	14.83	0.61	2
	172	14.91	0.35	2
	173	14.99	0.63	2
	174	15.08	0.61	2
	175	15.17	0.69	2
	176	15.3	0.69	2.4
	177	15.48	0.97	2
	178	15.84	1.22	2
	179	16.08	0.85	2
	180	16.44	1.12	2.4
	181	16.68	0.44	2
	182	16.87	0.37	2
	183	17.07	0.53	2

