File:              	C:\Qtrac\Data\Daniel M Sørensen\MScan multicentre study\Data from centres\Odense\Processed data\TKC00227A.QZD
Name:              	DK.ODE.NC.2.2
Protocol:          	MSCAN-R2
Date:              	27/2/20
Start time:        	11:47:24
Age:               	74
Sex:               	m
Temperature:       	32.0
S/R sites:         	TA
NC/disease:        	NC
Operator:          	TK
Comments:
M-SCAN DATA (9.9-1.1m)
Scanpts: 52, 63, 899, 920
Stim. (mA)     	Amp. (mV)
MS.1           	27             	5.225
MS.2           	27             	5.215
MS.3           	27             	5.235
MS.4           	27             	5.148
MS.5           	27             	5.164
MS.6           	27             	5.134
MS.7           	27             	5.201
MS.8           	27             	5.134
MS.9           	27             	5.18
MS.10          	27             	5.217
MS.11          	27             	5.233
MS.12          	27             	5.235
MS.13          	27             	5.152
MS.14          	27             	5.225
MS.15          	27             	5.182
MS.16          	27             	5.184
MS.17          	27             	5.168
MS.18          	27             	5.215
MS.19          	27             	5.309
MS.20          	27             	5.168
MS.21          	27             	5.166
MS.22          	27             	5.213
MS.23          	27             	5.297
MS.24          	26.892         	5.158
MS.25          	26.837         	5.231
MS.26          	26.785         	5.261
MS.27          	26.73          	5.146
MS.28          	26.677         	5.174
MS.29          	26.625         	5.162
MS.30          	26.573         	5.201
MS.31          	26.517         	5.253
MS.32          	26.465         	5.255
MS.33          	26.412         	5.215
MS.34          	26.36          	5.205
MS.35          	26.307         	5.188
MS.36          	26.255         	5.279
MS.37          	26.202         	5.154
MS.38          	26.15          	5.227
MS.39          	26.097         	5.205
MS.40          	26.045         	5.197
MS.41          	25.993         	5.239
MS.42          	25.94          	5.233
MS.43          	25.89          	5.207
MS.44          	25.837         	5.193
MS.45          	25.785         	5.229
MS.46          	25.735         	5.227
MS.47          	25.682         	5.225
MS.48          	25.632         	5.251
MS.49          	25.58          	5.253
MS.50          	25.53          	5.245
MS.51          	25.477         	5.247
MS.52          	25.427         	5.273
MS.53          	25.377         	5.273
MS.54          	25.325         	5.245
MS.55          	25.275         	5.241
MS.56          	25.225         	5.158
MS.57          	25.175         	5.217
MS.58          	25.125         	5.188
MS.59          	25.075         	5.217
MS.60          	25.025         	5.261
MS.61          	24.975         	5.148
MS.62          	24.925         	5.225
MS.63          	24.875         	5.263
MS.64          	24.825         	5.283
MS.65          	24.775         	5.265
MS.66          	24.725         	5.203
MS.67          	24.675         	5.267
MS.68          	24.627         	5.207
MS.69          	24.577         	5.229
MS.70          	24.528         	5.225
MS.71          	24.48          	5.237
MS.72          	24.43          	5.257
MS.73          	24.382         	5.327
MS.74          	24.332         	5.283
MS.75          	24.285         	5.259
MS.76          	24.235         	5.247
MS.77          	24.188         	5.267
MS.78          	24.14          	5.279
MS.79          	24.09          	5.237
MS.80          	24.042         	5.263
MS.81          	23.995         	5.223
MS.82          	23.948         	5.283
MS.83          	23.9           	5.162
MS.84          	23.85          	5.279
MS.85          	23.802         	5.277
MS.86          	23.755         	5.267
MS.87          	23.707         	5.287
MS.88          	23.66          	5.134
MS.89          	23.615         	5.142
MS.90          	23.567         	5.098
MS.91          	23.52          	5.305
MS.92          	23.472         	5.158
MS.93          	23.425         	5.19
MS.94          	23.38          	5.289
MS.95          	23.332         	5.16
MS.96          	23.285         	5.11
MS.97          	23.24          	5.193
MS.98          	23.192         	5.154
MS.99          	23.145         	5.126
MS.100         	23.1           	5.114
MS.101         	23.055         	5.213
MS.102         	23.007         	5.148
MS.103         	22.962         	5.358
MS.104         	22.915         	5.138
MS.105         	22.87          	5.144
MS.106         	22.825         	5.172
MS.107         	22.78          	5.148
MS.108         	22.733         	5.217
MS.109         	22.688         	5.303
MS.110         	22.642         	5.223
MS.111         	22.597         	5.223
MS.112         	22.552         	5.213
MS.113         	22.507         	5.211
MS.114         	22.462         	5.225
MS.115         	22.417         	5.273
MS.116         	22.372         	5.227
MS.117         	22.327         	5.215
MS.118         	22.282         	5.138
MS.119         	22.237         	5.195
MS.120         	22.195         	5.188
MS.121         	22.15          	5.156
MS.122         	22.105         	5.241
MS.123         	22.062         	5.184
MS.124         	22.017         	5.237
MS.125         	21.972         	5.176
MS.126         	21.93          	5.219
MS.127         	21.885         	5.257
MS.128         	21.842         	5.227
MS.129         	21.797         	5.247
MS.130         	21.755         	5.225
MS.131         	21.712         	5.209
MS.132         	21.667         	5.17
MS.133         	21.625         	5.215
MS.134         	21.583         	5.158
MS.135         	21.538         	5.207
MS.136         	21.495         	5.249
MS.137         	21.452         	5.209
MS.138         	21.41          	5.172
MS.139         	21.368         	5.18
MS.140         	21.325         	5.233
MS.141         	21.282         	5.215
MS.142         	21.24          	5.199
MS.143         	21.198         	5.197
MS.144         	21.155         	5.164
MS.145         	21.112         	5.164
MS.146         	21.07          	5.233
MS.147         	21.028         	5.132
MS.148         	20.985         	5.205
MS.149         	20.942         	5.217
MS.150         	20.903         	5.219
MS.151         	20.86          	5.201
MS.152         	20.817         	5.231
MS.153         	20.778         	5.126
MS.154         	20.735         	5.255
MS.155         	20.695         	5.082
MS.156         	20.653         	5.239
MS.157         	20.61          	5.223
MS.158         	20.57          	5.148
MS.159         	20.53          	5.056
MS.160         	20.487         	5.033
MS.161         	20.448         	5.027
MS.162         	20.405         	5.078
MS.163         	20.365         	5.062
MS.164         	20.325         	5.09
MS.165         	20.285         	5.052
MS.166         	20.243         	5.128
MS.167         	20.202         	5.094
MS.168         	20.163         	5.011
MS.169         	20.122         	5.056
MS.170         	20.083         	5.09
MS.171         	20.042         	5.084
MS.172         	20.002         	5.09
MS.173         	19.962         	5.09
MS.174         	19.922         	5.116
MS.175         	19.882         	5.054
MS.176         	19.842         	5.086
MS.177         	19.802         	5.092
MS.178         	19.762         	5.06
MS.179         	19.725         	5.043
MS.180         	19.685         	5.06
MS.181         	19.645         	5.112
MS.182         	19.605         	5.088
MS.183         	19.567         	5.072
MS.184         	19.528         	5.118
MS.185         	19.487         	5.064
MS.186         	19.45          	5.102
MS.187         	19.41          	5.136
MS.188         	19.372         	5.084
MS.189         	19.333         	4.947
MS.190         	19.295         	5.049
MS.191         	19.255         	5.086
MS.192         	19.217         	5.094
MS.193         	19.18          	4.929
MS.194         	19.14          	4.888
MS.195         	19.102         	5.106
MS.196         	19.065         	5.064
MS.197         	19.028         	4.965
MS.198         	18.987         	5.12
MS.199         	18.95          	4.927
MS.200         	18.913         	4.931
MS.201         	18.875         	4.979
MS.202         	18.837         	4.975
MS.203         	18.8           	5.114
MS.204         	18.762         	4.925
MS.205         	18.725         	5.072
MS.206         	18.688         	4.909
MS.207         	18.65          	5.001
MS.208         	18.612         	4.931
MS.209         	18.575         	4.917
MS.210         	18.538         	4.951
MS.211         	18.5           	4.947
MS.212         	18.465         	4.939
MS.213         	18.427         	4.943
MS.214         	18.39          	4.8
MS.215         	18.352         	4.848
MS.216         	18.317         	4.794
MS.217         	18.28          	4.86
MS.218         	18.245         	4.858
MS.219         	18.208         	4.842
MS.220         	18.17          	4.834
MS.221         	18.135         	4.864
MS.222         	18.097         	4.838
MS.223         	18.062         	4.753
MS.224         	18.028         	4.892
MS.225         	17.99          	4.868
MS.226         	17.955         	4.828
MS.227         	17.917         	4.804
MS.228         	17.882         	4.766
MS.229         	17.847         	4.806
MS.230         	17.812         	4.886
MS.231         	17.775         	4.78
MS.232         	17.74          	4.866
MS.233         	17.705         	4.812
MS.234         	17.67          	4.902
MS.235         	17.635         	4.896
MS.236         	17.6           	4.852
MS.237         	17.562         	4.822
MS.238         	17.528         	4.838
MS.239         	17.493         	4.856
MS.240         	17.458         	4.824
MS.241         	17.422         	4.782
MS.242         	17.39          	4.79
MS.243         	17.355         	4.79
MS.244         	17.32          	4.788
MS.245         	17.285         	4.794
MS.246         	17.25          	4.792
MS.247         	17.215         	4.786
MS.248         	17.182         	4.776
MS.249         	17.147         	4.778
MS.250         	17.112         	4.83
MS.251         	17.077         	4.649
MS.252         	17.045         	4.796
MS.253         	17.01          	4.695
MS.254         	16.977         	4.681
MS.255         	16.942         	4.768
MS.256         	16.91          	4.679
MS.257         	16.875         	4.792
MS.258         	16.842         	4.729
MS.259         	16.807         	4.735
MS.260         	16.775         	4.749
MS.261         	16.74          	4.707
MS.262         	16.708         	4.741
MS.263         	16.672         	4.719
MS.264         	16.64          	4.691
MS.265         	16.608         	4.719
MS.266         	16.575         	4.631
MS.267         	16.54          	4.669
MS.268         	16.507         	4.685
MS.269         	16.475         	4.729
MS.270         	16.442         	4.715
MS.271         	16.41          	4.741
MS.272         	16.378         	4.731
MS.273         	16.342         	4.721
MS.274         	16.31          	4.741
MS.275         	16.278         	4.719
MS.276         	16.245         	4.665
MS.277         	16.212         	4.697
MS.278         	16.18          	4.731
MS.279         	16.147         	4.675
MS.280         	16.118         	4.643
MS.281         	16.085         	4.679
MS.282         	16.052         	4.584
MS.283         	16.02          	4.685
MS.284         	15.987         	4.703
MS.285         	15.955         	4.655
MS.286         	15.925         	4.542
MS.287         	15.892         	4.697
MS.288         	15.86          	4.655
MS.289         	15.83          	4.598
MS.290         	15.797         	4.689
MS.291         	15.765         	4.546
MS.292         	15.735         	4.641
MS.293         	15.702         	4.58
MS.294         	15.672         	4.558
MS.295         	15.64          	4.59
MS.296         	15.61          	4.631
MS.297         	15.577         	4.556
MS.298         	15.547         	4.562
MS.299         	15.515         	4.526
MS.300         	15.485         	4.554
MS.301         	15.452         	4.661
MS.302         	15.422         	4.598
MS.303         	15.392         	4.637
MS.304         	15.36          	4.538
MS.305         	15.33          	4.709
MS.306         	15.3           	4.645
MS.307         	15.27          	4.598
MS.308         	15.237         	4.612
MS.309         	15.207         	4.616
MS.310         	15.177         	4.526
MS.311         	15.148         	4.57
MS.312         	15.117         	4.546
MS.313         	15.087         	4.447
MS.314         	15.057         	4.562
MS.315         	15.027         	4.568
MS.316         	14.997         	4.568
MS.317         	14.967         	4.284
MS.318         	14.938         	4.431
MS.319         	14.907         	4.244
MS.320         	14.877         	4.212
MS.321         	14.847         	4.278
MS.322         	14.818         	4.208
MS.323         	14.787         	4.228
MS.324         	14.757         	4.264
MS.325         	14.73          	4.246
MS.326         	14.7           	4.425
MS.327         	14.67          	4.218
MS.328         	14.64          	4.264
MS.329         	14.612         	4.254
MS.330         	14.582         	4.246
MS.331         	14.552         	4.228
MS.332         	14.525         	4.222
MS.333         	14.495         	4.195
MS.334         	14.467         	4.264
MS.335         	14.438         	4.278
MS.336         	14.407         	4.332
MS.337         	14.38          	4.254
MS.338         	14.35          	4.252
MS.339         	14.322         	4.266
MS.340         	14.295         	4.224
MS.341         	14.265         	4.071
MS.342         	14.237         	4.25
MS.343         	14.207         	4.234
MS.344         	14.18          	4.181
MS.345         	14.153         	4.083
MS.346         	14.122         	4.036
MS.347         	14.095         	4.294
MS.348         	14.068         	4.111
MS.349         	14.04          	4.075
MS.350         	14.01          	4.077
MS.351         	13.983         	4.167
MS.352         	13.955         	4.294
MS.353         	13.927         	3.887
MS.354         	13.9           	4.057
MS.355         	13.872         	4.115
MS.356         	13.842         	3.851
MS.357         	13.815         	3.869
MS.358         	13.787         	3.845
MS.359         	13.76          	3.855
MS.360         	13.733         	3.914
MS.361         	13.705         	3.873
MS.362         	13.677         	3.877
MS.363         	13.653         	3.811
MS.364         	13.625         	3.738
MS.365         	13.597         	3.853
MS.366         	13.57          	3.916
MS.367         	13.542         	3.831
MS.368         	13.515         	3.807
MS.369         	13.487         	3.817
MS.370         	13.462         	3.688
MS.371         	13.435         	3.718
MS.372         	13.407         	3.839
MS.373         	13.38          	3.652
MS.374         	13.355         	3.833
MS.375         	13.327         	3.658
MS.376         	13.3           	3.636
MS.377         	13.275         	3.829
MS.378         	13.247         	3.662
MS.379         	13.222         	3.67
MS.380         	13.195         	3.619
MS.381         	13.167         	3.621
MS.382         	13.142         	3.658
MS.383         	13.115         	3.607
MS.384         	13.09          	3.656
MS.385         	13.062         	3.71
MS.386         	13.037         	3.66
MS.387         	13.012         	3.648
MS.388         	12.985         	3.615
MS.389         	12.96          	3.573
MS.390         	12.932         	3.644
MS.391         	12.907         	3.563
MS.392         	12.882         	3.66
MS.393         	12.858         	3.658
MS.394         	12.83          	3.642
MS.395         	12.805         	3.535
MS.396         	12.78          	3.529
MS.397         	12.755         	3.595
MS.398         	12.727         	3.575
MS.399         	12.702         	3.571
MS.400         	12.677         	3.474
MS.401         	12.653         	3.529
MS.402         	12.627         	3.472
MS.403         	12.602         	3.426
MS.404         	12.577         	3.621
MS.405         	12.552         	3.38
MS.406         	12.528         	3.366
MS.407         	12.502         	3.376
MS.408         	12.477         	3.384
MS.409         	12.452         	3.424
MS.410         	12.427         	3.436
MS.411         	12.403         	3.398
MS.412         	12.377         	3.315
MS.413         	12.352         	3.239
MS.414         	12.327         	3.116
MS.415         	12.302         	3.249
MS.416         	12.278         	3.384
MS.417         	12.255         	3.372
MS.418         	12.23          	3.09
MS.419         	12.205         	3.154
MS.420         	12.18          	3.233
MS.421         	12.155         	3.096
MS.422         	12.132         	3.011
MS.423         	12.108         	2.985
MS.424         	12.082         	3.035
MS.425         	12.06          	3.025
MS.426         	12.035         	3.118
MS.427         	12.01          	3.152
MS.428         	11.988         	3.045
MS.429         	11.962         	3.017
MS.430         	11.94          	3.062
MS.431         	11.915         	2.969
MS.432         	11.892         	2.983
MS.433         	11.867         	3.057
MS.434         	11.845         	2.848
MS.435         	11.82          	2.874
MS.436         	11.797         	2.957
MS.437         	11.773         	2.749
MS.438         	11.75          	2.699
MS.439         	11.727         	2.953
MS.440         	11.702         	2.731
MS.441         	11.68          	2.88
MS.442         	11.655         	2.898
MS.443         	11.632         	2.914
MS.444         	11.61          	2.685
MS.445         	11.587         	2.63
MS.446         	11.562         	2.647
MS.447         	11.54          	2.653
MS.448         	11.517         	2.645
MS.449         	11.495         	2.902
MS.450         	11.47          	2.624
MS.451         	11.447         	2.649
MS.452         	11.425         	2.62
MS.453         	11.403         	2.371
MS.454         	11.38          	2.647
MS.455         	11.358         	2.618
MS.456         	11.335         	2.59
MS.457         	11.312         	2.449
MS.458         	11.29          	2.596
MS.459         	11.267         	2.514
MS.460         	11.245         	2.397
MS.461         	11.222         	2.457
MS.462         	11.2           	2.54
MS.463         	11.177         	2.361
MS.464         	11.155         	2.26
MS.465         	11.132         	2.425
MS.466         	11.11          	2.353
MS.467         	11.087         	2.203
MS.468         	11.065         	2.071
MS.469         	11.042         	2.25
MS.470         	11.023         	2.292
MS.471         	11             	2.236
MS.472         	10.977         	2.411
MS.473         	10.955         	2.27
MS.474         	10.932         	2.278
MS.475         	10.912         	2.093
MS.476         	10.89          	2.27
MS.477         	10.867         	1.762
MS.478         	10.847         	1.883
MS.479         	10.825         	1.986
MS.480         	10.802         	2.224
MS.481         	10.782         	1.585
MS.482         	10.76          	2
MS.483         	10.738         	1.734
MS.484         	10.717         	2.075
MS.485         	10.695         	1.883
MS.486         	10.675         	1.416
MS.487         	10.653         	1.309
MS.488         	10.632         	1.466
MS.489         	10.61          	1.642
MS.490         	10.59          	1.774
MS.491         	10.568         	1.706
MS.492         	10.547         	1.37
MS.493         	10.525         	1.358
MS.494         	10.505         	1.39
MS.495         	10.485         	1.362
MS.496         	10.462         	1.442
MS.497         	10.443         	1.358
MS.498         	10.42          	1.259
MS.499         	10.4           	1.319
MS.500         	10.38          	1.325
MS.501         	10.36          	1.269
MS.502         	10.337         	1.424
MS.503         	10.318         	1.235
MS.504         	10.297         	1.229
MS.505         	10.275         	1.15
MS.506         	10.255         	1.325
MS.507         	10.235         	1.217
MS.508         	10.215         	1.301
MS.509         	10.195         	1.303
MS.510         	10.175         	1.17
MS.511         	10.153         	1.225
MS.512         	10.132         	1.172
MS.513         	10.113         	1.17
MS.514         	10.092         	1.059
MS.515         	10.073         	1.122
MS.516         	10.052         	1.162
MS.517         	10.032         	1.144
MS.518         	10.012         	1.082
MS.519         	9.992          	1.049
MS.520         	9.972          	1.086
MS.521         	9.952          	1.126
MS.522         	9.932          	1.092
MS.523         	9.912          	1.053
MS.524         	9.892          	1.122
MS.525         	9.872          	0.931
MS.526         	9.852          	1.029
MS.527         	9.835          	1.009
MS.528         	9.815          	0.985
MS.529         	9.795          	0.902
MS.530         	9.775          	0.973
MS.531         	9.755          	0.912
MS.532         	9.735          	0.977
MS.533         	9.717          	0.985
MS.534         	9.698          	0.953
MS.535         	9.677          	0.912
MS.536         	9.657          	0.852
MS.537         	9.64           	0.941
MS.538         	9.62           	0.854
MS.539         	9.6            	0.826
MS.540         	9.582          	0.88
MS.541         	9.562          	0.908
MS.542         	9.542          	0.916
MS.543         	9.525          	0.794
MS.544         	9.505          	0.85
MS.545         	9.485          	0.84
MS.546         	9.467          	0.701
MS.547         	9.448          	0.916
MS.548         	9.43           	0.906
MS.549         	9.41           	0.836
MS.550         	9.392          	0.878
MS.551         	9.372          	0.685
MS.552         	9.355          	0.596
MS.553         	9.335          	0.731
MS.554         	9.318          	0.679
MS.555         	9.297          	0.667
MS.556         	9.28           	0.784
MS.557         	9.26           	0.693
MS.558         	9.242          	0.63
MS.559         	9.225          	0.663
MS.560         	9.205          	0.681
MS.561         	9.188          	0.596
MS.562         	9.17           	0.677
MS.563         	9.15           	0.657
MS.564         	9.132          	0.594
MS.565         	9.115          	0.667
MS.566         	9.095          	0.655
MS.567         	9.077          	0.693
MS.568         	9.06           	0.534
MS.569         	9.042          	0.506
MS.570         	9.023          	0.62
MS.571         	9.005          	0.602
MS.572         	8.988          	0.548
MS.573         	8.97           	0.518
MS.574         	8.952          	0.681
MS.575         	8.932          	0.554
MS.576         	8.915          	0.578
MS.577         	8.898          	0.477
MS.578         	8.88           	0.469
MS.579         	8.863          	0.473
MS.580         	8.845          	0.52
MS.581         	8.827          	0.512
MS.582         	8.81           	0.514
MS.583         	8.792          	0.481
MS.584         	8.775          	0.564
MS.585         	8.757          	0.506
MS.586         	8.74           	0.612
MS.587         	8.722          	0.457
MS.588         	8.705          	0.447
MS.589         	8.688          	0.495
MS.590         	8.67           	0.544
MS.591         	8.653          	0.495
MS.592         	8.635          	0.431
MS.593         	8.617          	0.431
MS.594         	8.6            	0.443
MS.595         	8.582          	0.405
MS.596         	8.568          	0.451
MS.597         	8.55           	0.413
MS.598         	8.533          	0.397
MS.599         	8.515          	0.465
MS.600         	8.497          	0.379
MS.601         	8.48           	0.421
MS.602         	8.465          	0.463
MS.603         	8.448          	0.417
MS.604         	8.43           	0.385
MS.605         	8.412          	0.367
MS.606         	8.398          	0.385
MS.607         	8.38           	0.455
MS.608         	8.363          	0.258
MS.609         	8.347          	0.31
MS.610         	8.33           	0.29
MS.611         	8.312          	0.31
MS.612         	8.297          	0.298
MS.613         	8.28           	0.33
MS.614         	8.262          	0.318
MS.615         	8.247          	0.371
MS.616         	8.23           	0.367
MS.617         	8.215          	0.334
MS.618         	8.198          	0.348
MS.619         	8.18           	0.306
MS.620         	8.165          	0.24
MS.621         	8.148          	0.338
MS.622         	8.132          	0.27
MS.623         	8.115          	0.312
MS.624         	8.1            	0.272
MS.625         	8.082          	0.256
MS.626         	8.068          	0.207
MS.627         	8.052          	0.159
MS.628         	8.035          	0.209
MS.629         	8.02           	0.163
MS.630         	8.002          	0.199
MS.631         	7.987          	0.165
MS.632         	7.97           	0.179
MS.633         	7.955          	0.135
MS.634         	7.94           	0.191
MS.635         	7.922          	0.101
MS.636         	7.907          	0.111
MS.637         	7.892          	0.185
MS.638         	7.875          	0.133
MS.639         	7.86           	0.105
MS.640         	7.845          	0.119
MS.641         	7.83           	0.109
MS.642         	7.812          	0.135
MS.643         	7.797          	0.083
MS.644         	7.782          	0.147
MS.645         	7.767          	0.151
MS.646         	7.75           	0.133
MS.647         	7.735          	0.095
MS.648         	7.72           	0.133
MS.649         	7.705          	0.119
MS.650         	7.69           	0.147
MS.651         	7.675          	0.123
MS.652         	7.657          	0.103
MS.653         	7.642          	0.197
MS.654         	7.628          	0.159
MS.655         	7.612          	0.123
MS.656         	7.597          	0.135
MS.657         	7.582          	0.095
MS.658         	7.567          	0.099
MS.659         	7.552          	0.105
MS.660         	7.537          	0.145
MS.661         	7.523          	0.175
MS.662         	7.507          	0.097
MS.663         	7.492          	0.107
MS.664         	7.477          	0.173
MS.665         	7.462          	0.123
MS.666         	7.447          	0.121
MS.667         	7.432          	0.095
MS.668         	7.418          	0.091
MS.669         	7.402          	0.103
MS.670         	7.387          	0.105
MS.671         	7.372          	0.127
MS.672         	7.357          	0.141
MS.673         	7.342          	0.107
MS.674         	7.33           	0.079
MS.675         	7.315          	0.109
MS.676         	7.3            	0.085
MS.677         	7.285          	0.113
MS.678         	7.27           	0.121
MS.679         	7.255          	0.141
MS.680         	7.242          	0.113
MS.681         	7.227          	0.087
MS.682         	7.212          	0.105
MS.683         	7.197          	0.131
MS.684         	7.185          	0.101
MS.685         	7.17           	0.095
MS.686         	7.155          	0.105
MS.687         	7.14           	0.077
MS.688         	7.128          	0.109
MS.689         	7.112          	0.123
MS.690         	7.097          	0.123
MS.691         	7.085          	0.131
MS.692         	7.07           	0.169
MS.693         	7.055          	0.085
MS.694         	7.043          	0.087
MS.695         	7.027          	0.137
MS.696         	7.012          	0.155
MS.697         	7              	0.137
MS.698         	6.985          	0.125
MS.699         	6.972          	0.044
MS.700         	6.957          	0.089
MS.701         	6.942          	0.089
MS.702         	6.93           	0.139
MS.703         	6.915          	0.115
MS.704         	6.902          	0.048
MS.705         	6.887          	0.111
MS.706         	6.875          	0.103
MS.707         	6.86           	0.073
MS.708         	6.847          	0.058
MS.709         	6.832          	0.089
MS.710         	6.82           	0.101
MS.711         	6.805          	0.087
MS.712         	6.793          	0.081
MS.713         	6.78           	0.077
MS.714         	6.765          	0.109
MS.715         	6.753          	0.123
MS.716         	6.737          	0.064
MS.717         	6.725          	0.081
MS.718         	6.712          	0.117
MS.719         	6.697          	0.093
MS.720         	6.685          	0.081
MS.721         	6.672          	0.07
MS.722         	6.657          	0.081
MS.723         	6.645          	0.109
MS.724         	6.632          	0.105
MS.725         	6.617          	0.081
MS.726         	6.605          	0.113
MS.727         	6.592          	0.103
MS.728         	6.577          	0.062
MS.729         	6.565          	0.085
MS.730         	6.552          	0.07
MS.731         	6.54           	0.107
MS.732         	6.525          	0.077
MS.733         	6.512          	0.117
MS.734         	6.5            	0.103
MS.735         	6.487          	0.093
MS.736         	6.475          	0.07
MS.737         	6.462          	0.101
MS.738         	6.447          	0.097
MS.739         	6.435          	0.07
MS.740         	6.422          	0.093
MS.741         	6.41           	0.121
MS.742         	6.398          	0.083
MS.743         	6.385          	0.103
MS.744         	6.372          	0.103
MS.745         	6.36           	0.125
MS.746         	6.345          	0.125
MS.747         	6.332          	0.083
MS.748         	6.32           	0.099
MS.749         	6.307          	0.075
MS.750         	6.295          	0.123
MS.751         	6.282          	0.087
MS.752         	6.27           	0.087
MS.753         	6.257          	0.113
MS.754         	6.245          	0.075
MS.755         	6.233          	0.097
MS.756         	6.22           	0.151
MS.757         	6.207          	0.079
MS.758         	6.195          	0.109
MS.759         	6.182          	0.121
MS.760         	6.17           	0.111
MS.761         	6.157          	0.103
MS.762         	6.145          	0.111
MS.763         	6.135          	0.099
MS.764         	6.122          	0.079
MS.765         	6.11           	0.113
MS.766         	6.097          	0.115
MS.767         	6.085          	0.077
MS.768         	6.072          	0.131
MS.769         	6.06           	0.101
MS.770         	6.047          	0.113
MS.771         	6.037          	0.097
MS.772         	6.025          	0.105
MS.773         	6.012          	0.091
MS.774         	6              	0.115
MS.775         	5.987          	0.105
MS.776         	5.977          	0.115
MS.777         	5.965          	0.145
MS.778         	5.952          	0.129
MS.779         	5.94           	0.117
MS.780         	5.93           	0.081
MS.781         	5.918          	0.097
MS.782         	5.905          	0.085
MS.783         	5.892          	0.085
MS.784         	5.882          	0.07
MS.785         	5.87           	0.145
MS.786         	5.858          	0.115
MS.787         	5.847          	0.109
MS.788         	5.835          	0.097
MS.789         	5.822          	0.103
MS.790         	5.812          	0.07
MS.791         	5.8            	0.149
MS.792         	5.787          	0.137
MS.793         	5.777          	0.119
MS.794         	5.765          	0.143
MS.795         	5.753          	0.073
MS.796         	5.742          	0.103
MS.797         	5.73           	0.101
MS.798         	5.72           	0.107
MS.799         	5.707          	0.113
MS.800         	5.697          	0.107
MS.801         	5.685          	0.117
MS.802         	5.672          	0.137
MS.803         	5.662          	0.066
MS.804         	5.65           	0.123
MS.805         	5.64           	0.129
MS.806         	5.628          	0.095
MS.807         	5.617          	0.125
MS.808         	5.605          	0.111
MS.809         	5.595          	0.111
MS.810         	5.582          	0.117
MS.811         	5.572          	0.127
MS.812         	5.562          	0.066
MS.813         	5.55           	0.103
MS.814         	5.54           	0.137
MS.815         	5.527          	0.131
MS.816         	5.517          	0.121
MS.817         	5.505          	0.167
MS.818         	5.495          	0.109
MS.819         	5.485          	0.127
MS.820         	5.472          	0.141
MS.821         	5.463          	0.093
MS.822         	5.45           	0.119
MS.823         	5.44           	0.161
MS.824         	5.43           	0.107
MS.825         	5.418          	0.077
MS.826         	5.407          	0.105
MS.827         	5.398          	0.115
MS.828         	5.385          	0.159
MS.829         	5.375          	0.107
MS.830         	5.365          	0.131
MS.831         	5.355          	0.099
MS.832         	5.342          	0.129
MS.833         	5.332          	0.089
MS.834         	5.322          	0.127
MS.835         	5.312          	0.141
MS.836         	5.3            	0.117
MS.837         	5.29           	0.117
MS.838         	5.28           	0.125
MS.839         	5.27           	0.135
MS.840         	5.257          	0.137
MS.841         	5.247          	0.115
MS.842         	5.237          	0.103
MS.843         	5.227          	0.117
MS.844         	5.217          	0.143
MS.845         	5.205          	0.111
MS.846         	5.195          	0.149
MS.847         	5.185          	0.123
MS.848         	5.175          	0.117
MS.849         	5.165          	0.129
MS.850         	5.155          	0.113
MS.851         	5.145          	0.099
MS.852         	5.132          	0.109
MS.853         	5.122          	0.133
MS.854         	5.112          	0.133
MS.855         	5.102          	0.121
MS.856         	5.092          	0.123
MS.857         	5.082          	0.121
MS.858         	5.072          	0.119
MS.859         	5.062          	0.145
MS.860         	5.052          	0.133
MS.861         	5.043          	0.125
MS.862         	5.032          	0.139
MS.863         	5.023          	0.091
MS.864         	5.012          	0.121
MS.865         	5.003          	0.145
MS.866         	4.992          	0.137
MS.867         	4.983          	0.095
MS.868         	4.972          	0.117
MS.869         	4.963          	0.153
MS.870         	4.952          	0.123
MS.871         	4.943          	0.04
MS.872         	4.932          	0.000
MS.873         	4.922          	0.01
MS.874         	4.912          	0.006
MS.875         	4.902          	0.034
MS.876         	4.892          	0.091
MS.877         	4.882          	0.012
MS.878         	4.872          	0.008
MS.879         	4.865          	0.028
MS.880         	4.855          	0.026
MS.881         	4.845          	0.01
MS.882         	4.835          	0.014
MS.883         	4.825          	0.016
MS.884         	4.815          	0.014
MS.885         	4.805          	-0.01
MS.886         	4.795          	-0.008
MS.887         	4.787          	0.002
MS.888         	4.777          	0.034
MS.889         	4.767          	0.012
MS.890         	4.757          	0.006
MS.891         	4.747          	0.032
MS.892         	4.74           	0.04
MS.893         	4.73           	0.004
MS.894         	4.72           	0.046
MS.895         	4.71           	0.004
MS.896         	4.702          	0.038
MS.897         	4.693          	0.016
MS.898         	4.682          	0.022
MS.899         	4.673          	0.01
MS.900         	4.665          	0.046
MS.901         	4.655          	0.042
MS.902         	4.645          	0.058
MS.903         	4.635          	0.026
MS.904         	4.628          	0.018
MS.905         	4.617          	0.05
MS.906         	4.608          	0.042
MS.907         	4.6            	0.016
MS.908         	4.59           	0.028
MS.909         	4.58           	0.012
MS.910         	4.572          	0.004
MS.911         	4.562          	0.018
MS.912         	4.552          	0.04
MS.913         	4.545          	0.032
MS.914         	4.535          	0.028
MS.915         	4.525          	0.032
MS.916         	4.517          	0.048
MS.917         	4.507          	0.042
MS.918         	4.5            	0.056
MS.919         	4.49           	0.012
MS.920         	4.48           	0.014
DERIVED EXCITABILITY VARIABLES
Program = QTracP 9/10/2021
Threshold method = 6 (optimised for CAP, using data for present condition only)
SR method = 1 (using actual data values)
6.                 	0.000               	Peak response\(mV)
9.                 	32                  	Temperature ( C)
17.                	74                  	Age (years)
18.                	1                   	Sex (M=1, F=2)

EXTRA VARIABLES

MScPeak(mV) = 5.16
MScS5(mA) = 8.23
MScS50(mA) = 11.34
MScS95(mA) = 18.9
MScNSteps = 3
MScSteps(%) = 6.6
MScStepMax(%) = 2.3
MScD50 = 59
MScSlope = 3.36
MScDuration(min) = 8.8
MSFTraces = 869
MSFPeakAmp(mV) = 5.2
MSFNUnits = 51
MSFMeanUnitAmp(uV) = 101.9
MSFHuntTime(m) = 2.55
MSFError(%) = 3.7
MSFNLarge = 16.2
MSFMedianAmp(%) = 1.65
MSFMedianAmp(mV) = 0.0857
MSFHalfAmpAmp(%) = 1.99
MSFHalfAmpAmp(mV) = 0.104
MSFLargestAmp(%) = 6.53
MSFLargestAmp(mV) = 0.339
MSFMeanRS(%) = 2
MSFSizeLimit(uV) = 20.4
MSFLimitType = 3
MSFSmallestAmp(uV) = 34.5
MSFOpts = 10106121

EXTRA WAVEFORMS


!MScan Model
!51
	1	5.03	1.58	2
	2	7.91	1.47	2
	3	8.01	0.66	2
	4	8.12	0.81	2
	5	8.23	1.05	2
	6	8.38	1.26	2
	7	8.55	1.13	2
	8	8.79	1.64	2
	9	9.02	1.54	2
	10	9.2	1.61	2
	11	9.35	1.48	2
	12	9.48	1.26	2
	13	9.61	1.44	2
	14	9.73	1.33	2
	15	9.81	0.75	2
	16	9.87	0.73	2
	17	9.95	0.81	2
	18	10.06	1.25	2
	19	10.21	1.81	2
	20	10.39	2.94	2
	21	10.62	6.53	2
	22	10.78	3.01	2
	23	10.91	3.4	2
	24	11.06	4.04	2
	25	11.21	3.09	2
	26	11.36	2.64	2
	27	11.47	1.79	2
	28	11.59	1.99	2
	29	11.73	1.97	2
	30	11.89	2.21	2
	31	12.02	1.92	2
	32	12.13	1.55	2
	33	12.23	1.42	2
	34	12.32	1.3	2
	35	12.42	1.24	2
	36	12.53	1.31	2
	37	12.67	1.58	2
	38	12.86	2.11	2
	39	13.2	1.96	2
	40	13.46	1.65	2
	41	13.65	1.98	2
	42	13.84	1.54	2
	43	14	3.09	2
	44	14.05	1.91	2
	45	14.92	4.53	2
	46	15.36	2.16	2
	47	16.33	2.21	2
	48	17.19	1.68	2
	49	18.34	2.28	2
	50	19.09	3.02	2
	51	21	2.35	2

