File:              	C:\Qtrac\Data\Daniel M Sørensen\MScan multicentre study\Data from centres\Oulu\Processed data\OUHC01024C.QZD
Name:              	FL.OUL.NC.1.1
Protocol:          	MSCAN-R2
Date:              	24/10/20
Start time:        	12:12:54
Age:               	21
Sex:               	M
Temperature:       	34,1
S/R sites:         	TA
NC/disease:        	NC
Operator:          	MK
Comments:
M-SCAN DATA (1.4-0.0m)
Scanpts: 262, 272, 948, 953
Stim. (mA)     	Amp. (mV)
MS.1           	10.5           	8.165
MS.2           	10.5           	8.177
MS.3           	10.48          	8.163
MS.4           	10.457         	8.141
MS.5           	10.438         	8.188
MS.6           	10.417         	8.107
MS.7           	10.395         	8.089
MS.8           	10.375         	8.145
MS.9           	10.355         	8.107
MS.10          	10.332         	8.18
MS.11          	10.312         	8.23
MS.12          	10.292         	8.206
MS.13          	10.273         	8.256
MS.14          	10.25          	8.202
MS.15          	10.23          	8.238
MS.16          	10.21          	8.208
MS.17          	10.19          	8.218
MS.18          	10.17          	8.202
MS.19          	10.15          	8.278
MS.20          	10.127         	8.206
MS.21          	10.108         	8.139
MS.22          	10.087         	8.157
MS.23          	10.068         	8.151
MS.24          	10.047         	8.113
MS.25          	10.028         	8.117
MS.26          	10.007         	8.127
MS.27          	9.988          	8.137
MS.28          	9.967          	8.137
MS.29          	9.948          	8.153
MS.30          	9.927          	8.139
MS.31          	9.907          	8.107
MS.32          	9.887          	8.119
MS.33          	9.87           	8.119
MS.34          	9.85           	8.093
MS.35          	9.83           	8.097
MS.36          	9.81           	8.075
MS.37          	9.79           	8.115
MS.38          	9.77           	8.071
MS.39          	9.75           	8.065
MS.40          	9.733          	8.097
MS.41          	9.712          	8.051
MS.42          	9.693          	8.133
MS.43          	9.672          	8.099
MS.44          	9.655          	8.103
MS.45          	9.635          	8.095
MS.46          	9.615          	8.109
MS.47          	9.597          	8.083
MS.48          	9.577          	8.073
MS.49          	9.557          	8.065
MS.50          	9.54           	8.113
MS.51          	9.52           	8.061
MS.52          	9.5            	8.063
MS.53          	9.483          	8.083
MS.54          	9.462          	8.117
MS.55          	9.445          	8.073
MS.56          	9.425          	8.018
MS.57          	9.407          	8.008
MS.58          	9.387          	8.093
MS.59          	9.367          	8.111
MS.60          	9.35           	8.045
MS.61          	9.332          	8.077
MS.62          	9.312          	8.083
MS.63          	9.295          	8.071
MS.64          	9.275          	8.081
MS.65          	9.257          	8.087
MS.66          	9.238          	8.103
MS.67          	9.22           	8.103
MS.68          	9.202          	8.123
MS.69          	9.182          	8.081
MS.70          	9.165          	8.071
MS.71          	9.148          	8.101
MS.72          	9.127          	8.143
MS.73          	9.11           	8.081
MS.74          	9.092          	8.119
MS.75          	9.073          	8.097
MS.76          	9.055          	8.131
MS.77          	9.037          	8.067
MS.78          	9.02           	8.093
MS.79          	9.002          	8.069
MS.80          	8.983          	8.077
MS.81          	8.965          	8.053
MS.82          	8.948          	8.097
MS.83          	8.93           	8.063
MS.84          	8.912          	8.085
MS.85          	8.895          	8.087
MS.86          	8.875          	8.091
MS.87          	8.858          	8.095
MS.88          	8.84           	8.079
MS.89          	8.823          	8.113
MS.90          	8.805          	8.123
MS.91          	8.787          	8.113
MS.92          	8.77           	8.099
MS.93          	8.752          	8.069
MS.94          	8.735          	8.087
MS.95          	8.717          	8.089
MS.96          	8.7            	8.125
MS.97          	8.682          	8.107
MS.98          	8.665          	8.071
MS.99          	8.648          	8.036
MS.100         	8.63           	8.119
MS.101         	8.615          	8.115
MS.102         	8.597          	8.095
MS.103         	8.58           	8.101
MS.104         	8.562          	8.129
MS.105         	8.545          	8.143
MS.106         	8.528          	8.099
MS.107         	8.51           	8.049
MS.108         	8.495          	8.071
MS.109         	8.477          	8.103
MS.110         	8.46           	8.075
MS.111         	8.443          	8.059
MS.112         	8.427          	8.071
MS.113         	8.41           	8.077
MS.114         	8.392          	8.051
MS.115         	8.375          	8.113
MS.116         	8.36           	8.091
MS.117         	8.342          	8.085
MS.118         	8.325          	8.018
MS.119         	8.31           	8.113
MS.120         	8.292          	8.077
MS.121         	8.275          	8.095
MS.122         	8.26           	8.075
MS.123         	8.242          	8.111
MS.124         	8.227          	8.103
MS.125         	8.21           	8.069
MS.126         	8.195          	8.105
MS.127         	8.177          	8.063
MS.128         	8.16           	8.089
MS.129         	8.145          	8.093
MS.130         	8.127          	8.129
MS.131         	8.113          	8.065
MS.132         	8.095          	8.075
MS.133         	8.08           	8.067
MS.134         	8.062          	8.093
MS.135         	8.047          	8.059
MS.136         	8.033          	8.099
MS.137         	8.015          	8.055
MS.138         	8              	8.061
MS.139         	7.982          	8.079
MS.140         	7.967          	8.083
MS.141         	7.952          	8.061
MS.142         	7.935          	8.115
MS.143         	7.92           	8.155
MS.144         	7.905          	8.101
MS.145         	7.887          	8.115
MS.146         	7.872          	8.151
MS.147         	7.857          	8.117
MS.148         	7.84           	8.093
MS.149         	7.825          	8.139
MS.150         	7.81           	8.101
MS.151         	7.795          	8.077
MS.152         	7.777          	8.093
MS.153         	7.762          	8.097
MS.154         	7.747          	8.091
MS.155         	7.732          	8.069
MS.156         	7.717          	8.026
MS.157         	7.7            	8.085
MS.158         	7.685          	8.093
MS.159         	7.67           	8.115
MS.160         	7.655          	8.083
MS.161         	7.64           	8.067
MS.162         	7.625          	8.093
MS.163         	7.61           	8.022
MS.164         	7.595          	8.129
MS.165         	7.58           	8.077
MS.166         	7.565          	8.043
MS.167         	7.547          	8.077
MS.168         	7.532          	8.153
MS.169         	7.517          	8.071
MS.170         	7.503          	8.129
MS.171         	7.487          	8.111
MS.172         	7.472          	8.063
MS.173         	7.457          	8.129
MS.174         	7.442          	8.093
MS.175         	7.43           	8.063
MS.176         	7.415          	8.089
MS.177         	7.4            	8.083
MS.178         	7.385          	8.093
MS.179         	7.37           	8.119
MS.180         	7.355          	8.071
MS.181         	7.34           	8.014
MS.182         	7.325          	8.034
MS.183         	7.31           	8.097
MS.184         	7.297          	8.014
MS.185         	7.282          	8.041
MS.186         	7.267          	8.059
MS.187         	7.253          	8.049
MS.188         	7.237          	8.061
MS.189         	7.225          	8.107
MS.190         	7.21           	8.071
MS.191         	7.195          	8.057
MS.192         	7.18           	8.024
MS.193         	7.165          	8.099
MS.194         	7.152          	8.065
MS.195         	7.137          	8.069
MS.196         	7.122          	8.055
MS.197         	7.11           	8.085
MS.198         	7.095          	8.036
MS.199         	7.08           	8.059
MS.200         	7.067          	8.077
MS.201         	7.052          	8.097
MS.202         	7.037          	8.089
MS.203         	7.025          	8.053
MS.204         	7.01           	8.087
MS.205         	6.997          	8.077
MS.206         	6.983          	8.107
MS.207         	6.967          	8.063
MS.208         	6.955          	8.097
MS.209         	6.94           	8.087
MS.210         	6.927          	8.063
MS.211         	6.912          	8.119
MS.212         	6.9            	8.117
MS.213         	6.885          	8.01
MS.214         	6.872          	8.061
MS.215         	6.858          	8.061
MS.216         	6.845          	8.071
MS.217         	6.83           	8.117
MS.218         	6.817          	8.061
MS.219         	6.802          	8.051
MS.220         	6.79           	8.069
MS.221         	6.775          	8.067
MS.222         	6.762          	8.117
MS.223         	6.75           	8.077
MS.224         	6.735          	8.071
MS.225         	6.722          	8.034
MS.226         	6.707          	8.137
MS.227         	6.695          	8.103
MS.228         	6.682          	8.087
MS.229         	6.668          	8.194
MS.230         	6.655          	8.175
MS.231         	6.642          	8.133
MS.232         	6.628          	8.077
MS.233         	6.615          	8.131
MS.234         	6.602          	8.087
MS.235         	6.59           	8.163
MS.236         	6.575          	8.141
MS.237         	6.562          	8.091
MS.238         	6.55           	8.053
MS.239         	6.537          	8.123
MS.240         	6.523          	8.137
MS.241         	6.51           	8.135
MS.242         	6.497          	8.151
MS.243         	6.485          	8.161
MS.244         	6.472          	8.085
MS.245         	6.457          	8.165
MS.246         	6.445          	8.123
MS.247         	6.432          	8.123
MS.248         	6.42           	8.202
MS.249         	6.407          	8.151
MS.250         	6.395          	8.141
MS.251         	6.382          	8.051
MS.252         	6.367          	8.111
MS.253         	6.355          	8.153
MS.254         	6.342          	8.192
MS.255         	6.33           	8.103
MS.256         	6.317          	8.149
MS.257         	6.305          	8.133
MS.258         	6.293          	8.129
MS.259         	6.28           	8.143
MS.260         	6.267          	8.163
MS.261         	6.255          	8.093
MS.262         	6.242          	8.139
MS.263         	6.23           	8.091
MS.264         	6.217          	8.133
MS.265         	6.205          	8.161
MS.266         	6.192          	8.139
MS.267         	6.18           	8.099
MS.268         	6.168          	8.141
MS.269         	6.155          	8.077
MS.270         	6.142          	8.135
MS.271         	6.13           	8.161
MS.272         	6.12           	8.155
MS.273         	6.108          	8.135
MS.274         	6.095          	8.135
MS.275         	6.082          	8.157
MS.276         	6.07           	8.147
MS.277         	6.057          	8.101
MS.278         	6.045          	8.155
MS.279         	6.035          	8.129
MS.280         	6.023          	8.103
MS.281         	6.01           	8.089
MS.282         	5.997          	8.087
MS.283         	5.985          	8.065
MS.284         	5.972          	8.067
MS.285         	5.963          	8.077
MS.286         	5.95           	8.069
MS.287         	5.938          	8.051
MS.288         	5.925          	8.081
MS.289         	5.915          	8.103
MS.290         	5.902          	8.079
MS.291         	5.89           	8.107
MS.292         	5.88           	8.095
MS.293         	5.867          	8.149
MS.294         	5.855          	8.167
MS.295         	5.845          	8.077
MS.296         	5.832          	8.163
MS.297         	5.82           	8.107
MS.298         	5.81           	8.071
MS.299         	5.797          	8.073
MS.300         	5.785          	8.083
MS.301         	5.775          	8.061
MS.302         	5.762          	8.103
MS.303         	5.75           	8.095
MS.304         	5.74           	8.129
MS.305         	5.727          	8.01
MS.306         	5.717          	8.071
MS.307         	5.705          	8.075
MS.308         	5.695          	8.036
MS.309         	5.682          	8.024
MS.310         	5.67           	8.057
MS.311         	5.66           	8.111
MS.312         	5.648          	8.067
MS.313         	5.637          	8.073
MS.314         	5.625          	8.089
MS.315         	5.615          	8.055
MS.316         	5.602          	8.085
MS.317         	5.592          	8.051
MS.318         	5.58           	8.051
MS.319         	5.57           	8.065
MS.320         	5.56           	8.008
MS.321         	5.547          	8.014
MS.322         	5.537          	8.053
MS.323         	5.525          	8.036
MS.324         	5.515          	8.012
MS.325         	5.503          	8.039
MS.326         	5.492          	8.081
MS.327         	5.483          	7.912
MS.328         	5.47           	7.998
MS.329         	5.46           	7.91
MS.330         	5.447          	8.057
MS.331         	5.438          	8.014
MS.332         	5.427          	8.047
MS.333         	5.415          	8.004
MS.334         	5.405          	8.004
MS.335         	5.395          	8
MS.336         	5.382          	7.994
MS.337         	5.372          	8.008
MS.338         	5.362          	8.004
MS.339         	5.352          	8.03
MS.340         	5.34           	8.045
MS.341         	5.33           	7.998
MS.342         	5.32           	7.998
MS.343         	5.31           	8.014
MS.344         	5.297          	8.032
MS.345         	5.287          	7.936
MS.346         	5.277          	8.041
MS.347         	5.267          	7.976
MS.348         	5.255          	8.014
MS.349         	5.245          	8.004
MS.350         	5.235          	8.004
MS.351         	5.225          	8.039
MS.352         	5.215          	8.02
MS.353         	5.202          	8.036
MS.354         	5.193          	8.016
MS.355         	5.182          	8.039
MS.356         	5.172          	7.936
MS.357         	5.162          	8.018
MS.358         	5.152          	8.041
MS.359         	5.142          	7.964
MS.360         	5.132          	8.006
MS.361         	5.12           	7.986
MS.362         	5.11           	8.01
MS.363         	5.1            	7.972
MS.364         	5.09           	8.004
MS.365         	5.08           	8.016
MS.366         	5.07           	7.982
MS.367         	5.06           	8.081
MS.368         	5.05           	8.036
MS.369         	5.04           	8.039
MS.370         	5.03           	7.988
MS.371         	5.02           	7.97
MS.372         	5.01           	7.99
MS.373         	5              	7.996
MS.374         	4.99           	7.996
MS.375         	4.98           	8.014
MS.376         	4.97           	7.986
MS.377         	4.96           	8.034
MS.378         	4.95           	7.99
MS.379         	4.94           	8.006
MS.380         	4.93           	7.978
MS.381         	4.92           	8.036
MS.382         	4.91           	8.024
MS.383         	4.9            	8.026
MS.384         	4.89           	7.994
MS.385         	4.88           	7.988
MS.386         	4.872          	8.043
MS.387         	4.862          	8.008
MS.388         	4.852          	7.964
MS.389         	4.842          	7.966
MS.390         	4.832          	8.008
MS.391         	4.822          	7.98
MS.392         	4.812          	7.99
MS.393         	4.802          	8.016
MS.394         	4.795          	8
MS.395         	4.785          	7.956
MS.396         	4.775          	7.966
MS.397         	4.765          	7.968
MS.398         	4.755          	8.006
MS.399         	4.747          	7.99
MS.400         	4.737          	8.051
MS.401         	4.727          	8.01
MS.402         	4.717          	7.958
MS.403         	4.707          	8
MS.404         	4.7            	8.008
MS.405         	4.69           	8.026
MS.406         	4.68           	7.964
MS.407         	4.67           	7.97
MS.408         	4.662          	7.996
MS.409         	4.652          	7.93
MS.410         	4.642          	7.946
MS.411         	4.635          	7.966
MS.412         	4.625          	7.974
MS.413         	4.615          	7.942
MS.414         	4.605          	7.898
MS.415         	4.597          	7.928
MS.416         	4.588          	7.906
MS.417         	4.577          	7.908
MS.418         	4.57           	7.928
MS.419         	4.56           	7.849
MS.420         	4.55           	7.956
MS.421         	4.543          	7.68
MS.422         	4.532          	7.624
MS.423         	4.525          	7.823
MS.424         	4.515          	7.765
MS.425         	4.505          	7.626
MS.426         	4.497          	7.636
MS.427         	4.487          	7.706
MS.428         	4.48           	7.603
MS.429         	4.47           	7.748
MS.430         	4.46           	7.547
MS.431         	4.452          	7.535
MS.432         	4.443          	7.672
MS.433         	4.435          	7.626
MS.434         	4.425          	7.519
MS.435         	4.418          	7.493
MS.436         	4.407          	7.557
MS.437         	4.4            	7.654
MS.438         	4.39           	7.555
MS.439         	4.382          	7.579
MS.440         	4.372          	7.599
MS.441         	4.365          	7.567
MS.442         	4.355          	7.686
MS.443         	4.347          	7.599
MS.444         	4.338          	7.471
MS.445         	4.33           	7.487
MS.446         	4.32           	7.412
MS.447         	4.312          	7.503
MS.448         	4.302          	7.404
MS.449         	4.295          	7.595
MS.450         	4.285          	7.628
MS.451         	4.277          	7.614
MS.452         	4.27           	7.436
MS.453         	4.26           	7.442
MS.454         	4.253          	7.412
MS.455         	4.242          	7.563
MS.456         	4.235          	7.529
MS.457         	4.227          	7.376
MS.458         	4.217          	7.471
MS.459         	4.21           	7.507
MS.460         	4.2            	7.321
MS.461         	4.193          	7.519
MS.462         	4.185          	7.452
MS.463         	4.175          	7.442
MS.464         	4.168          	7.426
MS.465         	4.16           	7.334
MS.466         	4.15           	7.279
MS.467         	4.142          	7.398
MS.468         	4.135          	7.41
MS.469         	4.128          	7.444
MS.470         	4.117          	7.422
MS.471         	4.11           	7.412
MS.472         	4.102          	7.34
MS.473         	4.092          	7.303
MS.474         	4.085          	7.221
MS.475         	4.077          	7.223
MS.476         	4.07           	7.291
MS.477         	4.06           	7.199
MS.478         	4.052          	7.241
MS.479         	4.045          	7.239
MS.480         	4.037          	7.152
MS.481         	4.027          	7.217
MS.482         	4.02           	7.307
MS.483         	4.012          	7.326
MS.484         	4.005          	7.176
MS.485         	3.997          	7.118
MS.486         	3.987          	7.13
MS.487         	3.98           	7.174
MS.488         	3.972          	7.096
MS.489         	3.965          	7.168
MS.490         	3.957          	7.225
MS.491         	3.947          	7.084
MS.492         	3.94           	7.066
MS.493         	3.932          	7.146
MS.494         	3.925          	7.164
MS.495         	3.918          	7.118
MS.496         	3.91           	7.031
MS.497         	3.902          	7.193
MS.498         	3.895          	7.021
MS.499         	3.885          	7.195
MS.500         	3.877          	7.162
MS.501         	3.87           	7.019
MS.502         	3.862          	6.999
MS.503         	3.855          	7.092
MS.504         	3.847          	7.078
MS.505         	3.84           	7.082
MS.506         	3.832          	7.015
MS.507         	3.825          	6.943
MS.508         	3.817          	7.037
MS.509         	3.81           	7.044
MS.510         	3.803          	6.923
MS.511         	3.795          	6.955
MS.512         	3.785          	6.901
MS.513         	3.777          	6.844
MS.514         	3.77           	6.921
MS.515         	3.762          	6.969
MS.516         	3.755          	6.985
MS.517         	3.747          	7.096
MS.518         	3.74           	6.939
MS.519         	3.732          	6.957
MS.520         	3.725          	6.975
MS.521         	3.717          	6.878
MS.522         	3.712          	6.941
MS.523         	3.705          	6.774
MS.524         	3.697          	6.949
MS.525         	3.69           	6.88
MS.526         	3.682          	6.973
MS.527         	3.675          	6.888
MS.528         	3.668          	6.82
MS.529         	3.66           	6.814
MS.530         	3.652          	6.78
MS.531         	3.645          	6.818
MS.532         	3.637          	6.884
MS.533         	3.63           	6.778
MS.534         	3.622          	6.711
MS.535         	3.615          	6.685
MS.536         	3.61           	6.762
MS.537         	3.602          	6.705
MS.538         	3.595          	6.693
MS.539         	3.587          	6.733
MS.540         	3.58           	6.685
MS.541         	3.572          	6.699
MS.542         	3.565          	6.56
MS.543         	3.557          	6.691
MS.544         	3.553          	6.766
MS.545         	3.545          	6.691
MS.546         	3.537          	6.755
MS.547         	3.53           	6.556
MS.548         	3.523          	6.665
MS.549         	3.515          	6.917
MS.550         	3.51           	6.661
MS.551         	3.502          	6.798
MS.552         	3.495          	6.685
MS.553         	3.487          	6.739
MS.554         	3.48           	6.6
MS.555         	3.475          	6.772
MS.556         	3.467          	6.713
MS.557         	3.46           	6.711
MS.558         	3.452          	6.766
MS.559         	3.447          	6.61
MS.560         	3.44           	6.522
MS.561         	3.432          	6.631
MS.562         	3.425          	6.705
MS.563         	3.42           	6.631
MS.564         	3.412          	6.49
MS.565         	3.405          	6.449
MS.566         	3.398          	6.467
MS.567         	3.392          	6.629
MS.568         	3.385          	6.548
MS.569         	3.377          	6.556
MS.570         	3.372          	6.375
MS.571         	3.365          	6.461
MS.572         	3.357          	6.431
MS.573         	3.352          	6.538
MS.574         	3.345          	6.526
MS.575         	3.337          	6.421
MS.576         	3.332          	6.417
MS.577         	3.325          	6.443
MS.578         	3.317          	6.441
MS.579         	3.312          	6.407
MS.580         	3.305          	6.349
MS.581         	3.297          	6.478
MS.582         	3.293          	6.314
MS.583         	3.285          	5.922
MS.584         	3.277          	6.465
MS.585         	3.273          	6.455
MS.586         	3.265          	6.474
MS.587         	3.26           	6.343
MS.588         	3.252          	6.326
MS.589         	3.245          	6.324
MS.590         	3.24           	6.294
MS.591         	3.232          	5.98
MS.592         	3.227          	6.312
MS.593         	3.22           	5.851
MS.594         	3.212          	6.284
MS.595         	3.207          	6.236
MS.596         	3.2            	6.284
MS.597         	3.195          	6.28
MS.598         	3.188          	6.105
MS.599         	3.182          	6.232
MS.600         	3.175          	6.204
MS.601         	3.17           	6.226
MS.602         	3.162          	5.879
MS.603         	3.155          	6.123
MS.604         	3.15           	5.875
MS.605         	3.142          	5.934
MS.606         	3.138          	5.871
MS.607         	3.13           	5.444
MS.608         	3.125          	5.99
MS.609         	3.117          	5.855
MS.610         	3.112          	5.468
MS.611         	3.105          	5.432
MS.612         	3.1            	5.742
MS.613         	3.092          	5.527
MS.614         	3.087          	5.464
MS.615         	3.082          	5.63
MS.616         	3.075          	5.434
MS.617         	3.07           	5.398
MS.618         	3.062          	5.376
MS.619         	3.057          	5.392
MS.620         	3.05           	5.321
MS.621         	3.045          	5.199
MS.622         	3.037          	5.36
MS.623         	3.033          	5.281
MS.624         	3.027          	5.483
MS.625         	3.02           	5.384
MS.626         	3.015          	5.297
MS.627         	3.007          	5.277
MS.628         	3.002          	5.346
MS.629         	2.997          	5.513
MS.630         	2.99           	5.253
MS.631         	2.985          	5.122
MS.632         	2.977          	5.219
MS.633         	2.972          	4.991
MS.634         	2.967          	5.007
MS.635         	2.96           	4.979
MS.636         	2.955          	4.961
MS.637         	2.947          	5.096
MS.638         	2.942          	5.203
MS.639         	2.938          	4.953
MS.640         	2.93           	4.917
MS.641         	2.925          	4.931
MS.642         	2.92           	4.772
MS.643         	2.912          	4.852
MS.644         	2.908          	5.066
MS.645         	2.902          	4.723
MS.646         	2.895          	4.77
MS.647         	2.89           	4.806
MS.648         	2.885          	4.784
MS.649         	2.88           	4.709
MS.650         	2.872          	4.439
MS.651         	2.867          	4.562
MS.652         	2.862          	4.459
MS.653         	2.855          	4.548
MS.654         	2.85           	4.721
MS.655         	2.845          	4.471
MS.656         	2.84           	4.536
MS.657         	2.832          	4.508
MS.658         	2.827          	4.413
MS.659         	2.822          	4.469
MS.660         	2.815          	4.26
MS.661         	2.81           	4.345
MS.662         	2.805          	4.419
MS.663         	2.8            	4.139
MS.664         	2.793          	4.312
MS.665         	2.787          	4.059
MS.666         	2.783          	3.966
MS.667         	2.777          	3.974
MS.668         	2.773          	3.996
MS.669         	2.765          	3.867
MS.670         	2.76           	3.875
MS.671         	2.755          	4
MS.672         	2.75           	3.922
MS.673         	2.745          	3.863
MS.674         	2.737          	3.781
MS.675         	2.732          	3.766
MS.676         	2.727          	3.658
MS.677         	2.722          	3.783
MS.678         	2.717          	3.746
MS.679         	2.71           	3.656
MS.680         	2.705          	3.67
MS.681         	2.7            	3.736
MS.682         	2.695          	3.654
MS.683         	2.69           	3.525
MS.684         	2.685          	3.525
MS.685         	2.68           	3.398
MS.686         	2.672          	3.158
MS.687         	2.668          	3.36
MS.688         	2.662          	3.339
MS.689         	2.658          	3.41
MS.690         	2.652          	3.301
MS.691         	2.648          	3.219
MS.692         	2.642          	3.08
MS.693         	2.638          	3.078
MS.694         	2.63           	3.096
MS.695         	2.625          	3.196
MS.696         	2.62           	3.186
MS.697         	2.615          	3.223
MS.698         	2.61           	3.102
MS.699         	2.605          	3.271
MS.700         	2.6            	3.134
MS.701         	2.595          	3.088
MS.702         	2.59           	2.955
MS.703         	2.585          	3.088
MS.704         	2.58           	3.178
MS.705         	2.575          	2.945
MS.706         	2.567          	2.868
MS.707         	2.562          	2.836
MS.708         	2.557          	2.929
MS.709         	2.553          	2.824
MS.710         	2.547          	2.687
MS.711         	2.543          	2.701
MS.712         	2.537          	2.733
MS.713         	2.533          	2.506
MS.714         	2.527          	2.612
MS.715         	2.523          	2.641
MS.716         	2.517          	2.733
MS.717         	2.513          	2.483
MS.718         	2.507          	2.612
MS.719         	2.503          	2.709
MS.720         	2.497          	2.576
MS.721         	2.492          	2.5
MS.722         	2.487          	2.55
MS.723         	2.482          	2.57
MS.724         	2.477          	2.477
MS.725         	2.472          	2.387
MS.726         	2.467          	2.342
MS.727         	2.462          	2.361
MS.728         	2.457          	2.359
MS.729         	2.452          	2.24
MS.730         	2.447          	2.268
MS.731         	2.442          	2.149
MS.732         	2.438          	2.018
MS.733         	2.432          	2.04
MS.734         	2.428          	2.123
MS.735         	2.425          	2.097
MS.736         	2.42           	1.926
MS.737         	2.415          	1.899
MS.738         	2.41           	1.948
MS.739         	2.405          	1.762
MS.740         	2.4            	1.732
MS.741         	2.395          	1.708
MS.742         	2.39           	1.752
MS.743         	2.385          	1.803
MS.744         	2.38           	1.517
MS.745         	2.375          	1.545
MS.746         	2.37           	1.579
MS.747         	2.367          	1.581
MS.748         	2.362          	1.579
MS.749         	2.357          	1.48
MS.750         	2.352          	1.466
MS.751         	2.347          	1.535
MS.752         	2.342          	1.49
MS.753         	2.337          	1.513
MS.754         	2.332          	1.448
MS.755         	2.33           	1.37
MS.756         	2.325          	1.47
MS.757         	2.32           	1.46
MS.758         	2.315          	1.462
MS.759         	2.31           	1.311
MS.760         	2.305          	1.271
MS.761         	2.3            	1.43
MS.762         	2.297          	1.265
MS.763         	2.293          	1.331
MS.764         	2.287          	1.251
MS.765         	2.283          	1.17
MS.766         	2.277          	1.311
MS.767         	2.273          	1.289
MS.768         	2.27           	1.2
MS.769         	2.265          	1.11
MS.770         	2.26           	1.029
MS.771         	2.255          	1.076
MS.772         	2.25           	1.152
MS.773         	2.247          	1.16
MS.774         	2.243          	0.993
MS.775         	2.237          	1.011
MS.776         	2.232          	1.013
MS.777         	2.227          	1.013
MS.778         	2.225          	0.965
MS.779         	2.22           	1.005
MS.780         	2.215          	0.884
MS.781         	2.21           	0.951
MS.782         	2.207          	0.884
MS.783         	2.202          	0.908
MS.784         	2.197          	0.931
MS.785         	2.192          	0.872
MS.786         	2.19           	0.91
MS.787         	2.185          	0.941
MS.788         	2.18           	0.918
MS.789         	2.175          	0.822
MS.790         	2.172          	0.846
MS.791         	2.168          	0.83
MS.792         	2.162          	0.765
MS.793         	2.158          	0.717
MS.794         	2.155          	0.731
MS.795         	2.15           	0.775
MS.796         	2.145          	0.705
MS.797         	2.14           	0.771
MS.798         	2.138          	0.651
MS.799         	2.132          	0.729
MS.800         	2.128          	0.687
MS.801         	2.125          	0.62
MS.802         	2.12           	0.622
MS.803         	2.115          	0.636
MS.804         	2.112          	0.643
MS.805         	2.107          	0.624
MS.806         	2.102          	0.685
MS.807         	2.1            	0.655
MS.808         	2.095          	0.572
MS.809         	2.09           	0.592
MS.810         	2.087          	0.544
MS.811         	2.082          	0.586
MS.812         	2.077          	0.538
MS.813         	2.075          	0.52
MS.814         	2.07           	0.455
MS.815         	2.065          	0.479
MS.816         	2.062          	0.449
MS.817         	2.057          	0.5
MS.818         	2.053          	0.51
MS.819         	2.05           	0.506
MS.820         	2.045          	0.469
MS.821         	2.04           	0.417
MS.822         	2.037          	0.417
MS.823         	2.033          	0.463
MS.824         	2.027          	0.35
MS.825         	2.025          	0.391
MS.826         	2.02           	0.354
MS.827         	2.017          	0.363
MS.828         	2.013          	0.367
MS.829         	2.007          	0.352
MS.830         	2.005          	0.363
MS.831         	2              	0.357
MS.832         	1.997          	0.357
MS.833         	1.992          	0.304
MS.834         	1.987          	0.288
MS.835         	1.985          	0.284
MS.836         	1.98           	0.274
MS.837         	1.977          	0.258
MS.838         	1.972          	0.226
MS.839         	1.967          	0.248
MS.840         	1.965          	0.256
MS.841         	1.96           	0.218
MS.842         	1.957          	0.26
MS.843         	1.952          	0.256
MS.844         	1.95           	0.244
MS.845         	1.945          	0.218
MS.846         	1.942          	0.211
MS.847         	1.938          	0.211
MS.848         	1.933          	0.191
MS.849         	1.93           	0.216
MS.850         	1.925          	0.207
MS.851         	1.923          	0.169
MS.852         	1.917          	0.177
MS.853         	1.915          	0.173
MS.854         	1.91           	0.171
MS.855         	1.907          	0.157
MS.856         	1.902          	0.161
MS.857         	1.9            	0.187
MS.858         	1.895          	0.163
MS.859         	1.892          	0.169
MS.860         	1.887          	0.155
MS.861         	1.885          	0.125
MS.862         	1.88           	0.135
MS.863         	1.877          	0.131
MS.864         	1.872          	0.131
MS.865         	1.87           	0.133
MS.866         	1.865          	0.127
MS.867         	1.862          	0.093
MS.868         	1.857          	0.101
MS.869         	1.855          	0.111
MS.870         	1.85           	0.113
MS.871         	1.847          	0.109
MS.872         	1.842          	0.117
MS.873         	1.84           	0.093
MS.874         	1.835          	0.115
MS.875         	1.832          	0.091
MS.876         	1.827          	0.095
MS.877         	1.825          	0.073
MS.878         	1.82           	0.081
MS.879         	1.817          	0.077
MS.880         	1.812          	0.087
MS.881         	1.81           	0.093
MS.882         	1.808          	0.064
MS.883         	1.803          	0.062
MS.884         	1.8            	0.058
MS.885         	1.795          	0.058
MS.886         	1.793          	0.058
MS.887         	1.787          	0.058
MS.888         	1.785          	0.068
MS.889         	1.782          	0.073
MS.890         	1.777          	0.05
MS.891         	1.775          	0.058
MS.892         	1.77           	0.06
MS.893         	1.767          	0.024
MS.894         	1.762          	0.046
MS.895         	1.76           	0.056
MS.896         	1.757          	0.05
MS.897         	1.752          	0.034
MS.898         	1.75           	0.054
MS.899         	1.745          	0.032
MS.900         	1.742          	0.046
MS.901         	1.74           	0.022
MS.902         	1.735          	0.04
MS.903         	1.732          	0.036
MS.904         	1.727          	0.028
MS.905         	1.725          	0.054
MS.906         	1.722          	0.028
MS.907         	1.717          	0.028
MS.908         	1.715          	0.024
MS.909         	1.712          	0.044
MS.910         	1.707          	0.03
MS.911         	1.705          	0.044
MS.912         	1.702          	0.024
MS.913         	1.697          	0.024
MS.914         	1.695          	0.022
MS.915         	1.69           	0.022
MS.916         	1.688          	0.022
MS.917         	1.685          	0.024
MS.918         	1.68           	0.022
MS.919         	1.678          	0.022
MS.920         	1.675          	0.024
MS.921         	1.67           	0.022
MS.922         	1.668          	0.02
MS.923         	1.665          	0.024
MS.924         	1.66           	0.042
MS.925         	1.657          	0.024
MS.926         	1.655          	0.022
MS.927         	1.65           	0.022
MS.928         	1.647          	0.022
MS.929         	1.645          	0.024
MS.930         	1.64           	0.026
MS.931         	1.637          	0.022
MS.932         	1.635          	0.016
MS.933         	1.632          	0.018
MS.934         	1.627          	0.026
MS.935         	1.625          	0.014
MS.936         	1.622          	0.024
MS.937         	1.617          	0.024
MS.938         	1.615          	0.014
MS.939         	1.612          	0.012
MS.940         	1.607          	0.02
MS.941         	1.605          	0.012
MS.942         	1.602          	0.018
MS.943         	1.6            	0.016
MS.944         	1.595          	0.016
MS.945         	1.592          	0.018
MS.946         	1.59           	0.01
MS.947         	1.587          	0.02
MS.948         	1.582          	0.01
MS.949         	1.58           	0.016
MS.950         	1.577          	0.018
MS.951         	1.572          	0.012
MS.952         	1.57           	0.018
MS.953         	1.567          	0.018
DERIVED EXCITABILITY VARIABLES
Program = QTracP 9/10/2021
Threshold method = 6 (optimised for CAP, using data for present condition only)
SR method = 1 (using actual data values)
6.                 	0.000               	Peak response\(mV)
9.                 	34                  	Temperature ( C)
17.                	21                  	Age (years)
18.                	1                   	Sex (M=1, F=2)

EXTRA VARIABLES

MScPeak(mV) = 0.02
MScS95(mA) = 1.6
MScNSteps = 50
MScSteps(%) = 1025
MScStepMax(%) = 125
MScD50 = 68
MScDuration(min) = 1.4
MSFTraces = 692
MSFPeakAmp(mV) = 8.11
MSFNUnits = 152
MSFMeanUnitAmp(uV) = 53.4
MSFHuntTime(m) = 4.29
MSFError(%) = 2.86
MSFNLarge = 38.85
MSFMedianAmp(%) = 0.512
MSFMedianAmp(mV) = 0.0415
MSFHalfAmpAmp(%) = 0.809
MSFHalfAmpAmp(mV) = 0.0656
MSFLargestAmp(%) = 4.73
MSFLargestAmp(mV) = 0.384
MSFMeanRS(%) = 2
MSFSizeLimit(uV) = 20.3
MSFLimitType = 1
MSFSmallestAmp(uV) = 20.5
MSFOpts = 10106121

EXTRA WAVEFORMS


!MScan Model
!152
	1	1.74	0.39	2
	2	1.82	0.35	2
	3	1.85	0.37	2
	4	1.87	0.25	2
	5	1.9	0.43	2
	6	1.93	0.34	2
	7	1.94	0.26	2
	8	1.96	0.31	2
	9	1.98	0.48	2
	10	1.99	0.26	2
	11	2	0.41	2
	12	2.02	0.52	2
	13	2.03	0.29	2
	14	2.03	0.25	2
	15	2.05	0.52	2
	16	2.06	0.41	2
	17	2.07	0.38	2
	18	2.08	0.27	2
	19	2.1	0.53	2
	20	2.11	0.43	2
	21	2.12	0.31	2
	22	2.13	0.32	2
	23	2.13	0.37	2
	24	2.15	0.4	2
	25	2.16	0.42	2
	26	2.16	0.35	2
	27	2.18	0.57	2
	28	2.19	0.36	2
	29	2.2	0.4	2
	30	2.21	0.46	2
	31	2.22	0.57	2
	32	2.23	0.27	2
	33	2.24	0.3	2
	34	2.24	0.41	2
	35	2.25	0.4	2
	36	2.26	0.41	2
	37	2.27	0.45	2
	38	2.28	0.54	2
	39	2.29	0.57	2
	40	2.3	0.53	2
	41	2.31	0.69	2
	42	2.32	0.62	2
	43	2.34	0.72	2
	44	2.35	0.55	2
	45	2.36	0.67	2
	46	2.37	0.56	2
	47	2.37	0.31	2
	48	2.38	0.42	2
	49	2.38	0.36	2
	50	2.39	0.3	2
	51	2.39	0.29	2
	52	2.4	0.38	2
	53	2.4	0.52	2
	54	2.4	0.3	2
	55	2.41	0.31	2
	56	2.41	0.3	2
	57	2.41	0.26	2
	58	2.42	0.26	2
	59	2.42	0.26	2
	60	2.42	0.26	2
	61	2.42	0.26	2
	62	2.43	0.27	2
	63	2.43	0.28	2
	64	2.43	0.26	2
	65	2.43	0.28	2
	66	2.44	0.32	2
	67	2.44	0.32	2
	68	2.44	0.32	2
	69	2.45	0.3	2
	70	2.45	0.3	2
	71	2.45	0.29	2
	72	2.45	0.3	2
	73	2.46	0.34	2
	74	2.47	0.88	2
	75	2.48	0.38	2
	76	2.49	1.05	2
	77	2.51	1.3	2
	78	2.52	1.02	2
	79	2.54	1.02	2
	80	2.54	0.35	2
	81	2.55	0.54	2
	82	2.56	0.87	2
	83	2.58	0.65	2
	84	2.59	1.02	2
	85	2.59	0.25	2
	86	2.62	1.36	2
	87	2.64	1.04	2
	88	2.65	0.43	2
	89	2.66	0.72	2
	90	2.67	0.59	2
	91	2.67	0.39	2
	92	2.68	0.38	2
	93	2.69	0.39	2
	94	2.69	0.67	2
	95	2.7	0.62	2
	96	2.71	0.53	2
	97	2.71	0.54	2
	98	2.72	0.7	2
	99	2.73	0.92	2
	100	2.74	0.66	2
	101	2.75	0.4	2
	102	2.75	0.36	2
	103	2.76	0.48	2
	104	2.77	0.51	2
	105	2.77	0.47	2
	106	2.78	0.46	2
	107	2.78	0.43	2
	108	2.79	0.43	2
	109	2.79	0.48	2
	110	2.8	0.5	2
	111	2.81	0.81	2
	112	2.82	0.57	2
	113	2.83	0.71	2
	114	2.84	1.17	2
	115	2.86	1.11	2
	116	2.87	0.93	2
	117	2.88	0.91	2
	118	2.9	0.83	2
	119	2.92	0.9	2
	120	2.94	1.77	2
	121	2.96	0.83	2
	122	2.97	0.86	2
	123	3.02	2.21	2
	124	3.06	1.48	2
	125	3.08	0.81	2
	126	3.1	1.05	1.6
	127	3.13	1.19	1.6
	128	3.16	2.17	2
	129	3.17	1.08	2
	130	3.18	4.73	2.2
	131	3.35	2.07	2
	132	3.39	0.95	2
	133	3.44	1.01	1.8
	134	3.6	1.41	2
	135	3.63	0.39	2
	136	3.66	0.63	2
	137	3.76	1.5	2
	138	3.85	1.16	2
	139	3.95	1.3	2
	140	4.03	0.8	2
	141	4.06	0.76	2
	142	4.1	0.56	2
	143	4.2	1.65	2
	144	4.33	0.56	2
	145	4.42	1.74	2
	146	4.48	0.9	2
	147	4.53	0.79	2
	148	4.56	0.56	1.8
	149	4.58	0.98	2.2
	150	4.6	0.8	2
	151	5.62	0.96	2
	152	6.01	0.64	2

