File:              	C:\Qtrac\Data\Daniel M Sørensen\MScan multicentre study\Data from centres\Oulu\Processed data\OUHC01030I.QZD
Name:              	FL.OUL.NC.4.1
Protocol:          	MSCAN-R2
Date:              	30/10/20
Start time:        	13:34:43
Age:               	75
Sex:               	F
Temperature:       	33,2
S/R sites:         	TA
NC/disease:        	NC
Operator:          	MK
Comments:
M-SCAN DATA (6.7-1.4m)
Scanpts: 5, 12, 434, 442
Stim. (mA)     	Amp. (mV)
MS.1           	30.5           	4.598
MS.2           	30.5           	4.673
MS.3           	30.5           	4.665
MS.4           	30.5           	4.647
MS.5           	30.5           	4.675
MS.6           	30.5           	4.685
MS.7           	30.5           	4.679
MS.8           	30.5           	4.679
MS.9           	30.5           	4.667
MS.10          	30.5           	4.677
MS.11          	30.5           	4.659
MS.12          	30.5           	4.639
MS.13          	30.5           	4.659
MS.14          	30.5           	4.655
MS.15          	30.5           	4.651
MS.16          	30.5           	4.62
MS.17          	30.5           	4.671
MS.18          	30.5           	4.647
MS.19          	30.5           	4.657
MS.20          	30.5           	4.635
MS.21          	30.5           	4.641
MS.22          	30.5           	4.62
MS.23          	30.5           	4.661
MS.24          	30.377         	4.57
MS.25          	30.317         	4.59
MS.26          	30.257         	4.655
MS.27          	30.198         	4.647
MS.28          	30.135         	4.618
MS.29          	30.075         	4.622
MS.30          	30.015         	4.655
MS.31          	29.955         	4.612
MS.32          	29.895         	4.645
MS.33          	29.835         	4.675
MS.34          	29.778         	4.671
MS.35          	29.717         	4.653
MS.36          	29.657         	4.647
MS.37          	29.597         	4.653
MS.38          	29.54          	4.657
MS.39          	29.48          	4.576
MS.40          	29.422         	4.606
MS.41          	29.362         	4.641
MS.42          	29.305         	4.647
MS.43          	29.245         	4.643
MS.44          	29.188         	4.612
MS.45          	29.127         	4.612
MS.46          	29.07          	4.637
MS.47          	29.012         	4.606
MS.48          	28.955         	4.665
MS.49          	28.897         	4.602
MS.50          	28.84          	4.61
MS.51          	28.78          	4.627
MS.52          	28.722         	4.582
MS.53          	28.667         	4.637
MS.54          	28.61          	4.602
MS.55          	28.552         	4.608
MS.56          	28.495         	4.618
MS.57          	28.438         	4.635
MS.58          	28.38          	4.616
MS.59          	28.325         	4.6
MS.60          	28.267         	4.622
MS.61          	28.212         	4.629
MS.62          	28.155         	4.641
MS.63          	28.097         	4.631
MS.64          	28.042         	4.631
MS.65          	27.987         	4.629
MS.66          	27.93          	4.618
MS.67          	27.875         	4.578
MS.68          	27.82          	4.588
MS.69          	27.762         	4.584
MS.70          	27.707         	4.61
MS.71          	27.653         	4.558
MS.72          	27.597         	4.616
MS.73          	27.542         	4.59
MS.74          	27.487         	4.584
MS.75          	27.432         	4.592
MS.76          	27.377         	4.637
MS.77          	27.323         	4.608
MS.78          	27.267         	4.552
MS.79          	27.215         	4.61
MS.80          	27.16          	4.55
MS.81          	27.105         	4.598
MS.82          	27.05          	4.576
MS.83          	26.997         	4.544
MS.84          	26.942         	4.604
MS.85          	26.89          	4.57
MS.86          	26.835         	4.596
MS.87          	26.782         	4.532
MS.88          	26.727         	4.56
MS.89          	26.675         	4.512
MS.90          	26.622         	4.54
MS.91          	26.567         	4.546
MS.92          	26.515         	4.538
MS.93          	26.462         	4.544
MS.94          	26.41          	4.516
MS.95          	26.358         	4.51
MS.96          	26.305         	4.475
MS.97          	26.252         	4.477
MS.98          	26.2           	4.502
MS.99          	26.147         	4.536
MS.100         	26.095         	4.54
MS.101         	26.042         	4.516
MS.102         	25.99          	4.486
MS.103         	25.938         	4.469
MS.104         	25.887         	4.439
MS.105         	25.835         	4.387
MS.106         	25.782         	4.427
MS.107         	25.733         	4.399
MS.108         	25.68          	4.411
MS.109         	25.63          	4.411
MS.110         	25.577         	4.421
MS.111         	25.528         	4.425
MS.112         	25.475         	4.407
MS.113         	25.425         	4.403
MS.114         	25.375         	4.361
MS.115         	25.323         	4.427
MS.116         	25.272         	4.437
MS.117         	25.222         	4.375
MS.118         	25.172         	4.395
MS.119         	25.122         	4.379
MS.120         	25.073         	4.393
MS.121         	25.02          	4.435
MS.122         	24.97          	4.369
MS.123         	24.922         	4.405
MS.124         	24.872         	4.357
MS.125         	24.823         	4.357
MS.126         	24.772         	4.302
MS.127         	24.722         	4.387
MS.128         	24.672         	4.347
MS.129         	24.625         	4.246
MS.130         	24.575         	4.336
MS.131         	24.525         	4.256
MS.132         	24.477         	4.314
MS.133         	24.427         	4.191
MS.134         	24.38          	4.193
MS.135         	24.33          	4.282
MS.136         	24.282         	4.343
MS.137         	24.233         	4.21
MS.138         	24.185         	4.234
MS.139         	24.137         	4.27
MS.140         	24.087         	4.278
MS.141         	24.04          	4.256
MS.142         	23.993         	4.2
MS.143         	23.945         	4.157
MS.144         	23.897         	4.113
MS.145         	23.847         	4.181
MS.146         	23.8           	4.282
MS.147         	23.752         	4.228
MS.148         	23.705         	4.175
MS.149         	23.657         	4.276
MS.150         	23.61          	4.052
MS.151         	23.565         	4.044
MS.152         	23.517         	4.133
MS.153         	23.47          	4.139
MS.154         	23.422         	4.137
MS.155         	23.377         	4.119
MS.156         	23.33          	4.111
MS.157         	23.282         	4.028
MS.158         	23.237         	3.986
MS.159         	23.19          	4.067
MS.160         	23.142         	4.024
MS.161         	23.097         	3.853
MS.162         	23.052         	4.083
MS.163         	23.005         	3.994
MS.164         	22.96          	3.99
MS.165         	22.913         	3.986
MS.166         	22.868         	3.968
MS.167         	22.823         	3.926
MS.168         	22.778         	3.716
MS.169         	22.73          	3.865
MS.170         	22.685         	3.909
MS.171         	22.64          	3.855
MS.172         	22.595         	3.833
MS.173         	22.55          	3.922
MS.174         	22.505         	3.783
MS.175         	22.46          	3.746
MS.176         	22.415         	3.754
MS.177         	22.37          	3.668
MS.178         	22.325         	3.766
MS.179         	22.28          	3.684
MS.180         	22.235         	3.668
MS.181         	22.192         	3.692
MS.182         	22.147         	3.914
MS.183         	22.102         	3.531
MS.184         	22.06          	3.785
MS.185         	22.015         	3.698
MS.186         	21.97          	3.63
MS.187         	21.927         	3.436
MS.188         	21.882         	3.533
MS.189         	21.84          	3.607
MS.190         	21.795         	3.472
MS.191         	21.752         	3.329
MS.192         	21.71          	3.448
MS.193         	21.665         	3.448
MS.194         	21.622         	3.209
MS.195         	21.58          	3.221
MS.196         	21.535         	3.134
MS.197         	21.493         	3.13
MS.198         	21.45          	2.917
MS.199         	21.407         	3.12
MS.200         	21.365         	3.267
MS.201         	21.323         	3.043
MS.202         	21.28          	2.929
MS.203         	21.237         	2.886
MS.204         	21.195         	2.85
MS.205         	21.153         	2.908
MS.206         	21.11          	2.953
MS.207         	21.067         	2.78
MS.208         	21.025         	2.788
MS.209         	20.983         	2.755
MS.210         	20.942         	2.771
MS.211         	20.9           	2.713
MS.212         	20.858         	2.685
MS.213         	20.815         	2.729
MS.214         	20.775         	2.689
MS.215         	20.733         	2.778
MS.216         	20.692         	2.596
MS.217         	20.65          	2.645
MS.218         	20.61          	2.564
MS.219         	20.567         	2.635
MS.220         	20.528         	2.653
MS.221         	20.485         	2.633
MS.222         	20.445         	2.53
MS.223         	20.405         	2.504
MS.224         	20.362         	2.536
MS.225         	20.323         	2.598
MS.226         	20.282         	2.526
MS.227         	20.243         	2.59
MS.228         	20.2           	2.584
MS.229         	20.16          	2.453
MS.230         	20.12          	2.425
MS.231         	20.08          	2.411
MS.232         	20.04          	2.431
MS.233         	20             	2.371
MS.234         	19.96          	2.437
MS.235         	19.92          	2.473
MS.236         	19.88          	2.431
MS.237         	19.84          	2.391
MS.238         	19.8           	2.379
MS.239         	19.76          	2.26
MS.240         	19.722         	2.379
MS.241         	19.682         	2.28
MS.242         	19.642         	2.314
MS.243         	19.605         	2.334
MS.244         	19.565         	2.157
MS.245         	19.525         	2.111
MS.246         	19.487         	2.208
MS.247         	19.448         	2.169
MS.248         	19.407         	2.02
MS.249         	19.37          	2.153
MS.250         	19.33          	2.157
MS.251         	19.292         	2.218
MS.252         	19.255         	2.079
MS.253         	19.215         	2.117
MS.254         	19.177         	2.062
MS.255         	19.14          	2.159
MS.256         	19.1           	1.948
MS.257         	19.062         	1.992
MS.258         	19.025         	1.976
MS.259         	18.987         	1.944
MS.260         	18.948         	1.99
MS.261         	18.91          	1.879
MS.262         	18.872         	2.032
MS.263         	18.835         	1.907
MS.264         	18.797         	1.964
MS.265         	18.76          	1.926
MS.266         	18.722         	1.891
MS.267         	18.685         	1.797
MS.268         	18.647         	1.748
MS.269         	18.61          	1.859
MS.270         	18.573         	1.859
MS.271         	18.535         	1.781
MS.272         	18.5           	1.678
MS.273         	18.462         	1.684
MS.274         	18.425         	1.75
MS.275         	18.387         	1.783
MS.276         	18.352         	1.664
MS.277         	18.315         	1.595
MS.278         	18.278         	1.678
MS.279         	18.243         	1.507
MS.280         	18.205         	1.559
MS.281         	18.17          	1.438
MS.282         	18.132         	1.442
MS.283         	18.097         	1.458
MS.284         	18.06          	1.432
MS.285         	18.025         	1.454
MS.286         	17.987         	1.364
MS.287         	17.952         	1.362
MS.288         	17.917         	1.362
MS.289         	17.88          	1.291
MS.290         	17.845         	1.305
MS.291         	17.81          	1.239
MS.292         	17.772         	1.287
MS.293         	17.737         	1.285
MS.294         	17.702         	1.275
MS.295         	17.667         	1.331
MS.296         	17.632         	1.219
MS.297         	17.597         	1.229
MS.298         	17.562         	1.196
MS.299         	17.528         	1.227
MS.300         	17.493         	1.104
MS.301         	17.458         	1.204
MS.302         	17.422         	1.164
MS.303         	17.387         	1.08
MS.304         	17.352         	1.061
MS.305         	17.317         	0.951
MS.306         	17.282         	1.051
MS.307         	17.247         	0.955
MS.308         	17.215         	0.977
MS.309         	17.18          	0.892
MS.310         	17.145         	0.876
MS.311         	17.11          	0.802
MS.312         	17.077         	0.935
MS.313         	17.042         	0.735
MS.314         	17.007         	0.844
MS.315         	16.975         	0.878
MS.316         	16.94          	0.81
MS.317         	16.907         	0.796
MS.318         	16.872         	0.856
MS.319         	16.84          	0.777
MS.320         	16.805         	0.777
MS.321         	16.772         	0.647
MS.322         	16.737         	0.643
MS.323         	16.705         	0.773
MS.324         	16.672         	0.685
MS.325         	16.637         	0.685
MS.326         	16.605         	0.649
MS.327         	16.573         	0.576
MS.328         	16.54          	0.661
MS.329         	16.505         	0.588
MS.330         	16.472         	0.52
MS.331         	16.44          	0.516
MS.332         	16.407         	0.645
MS.333         	16.375         	0.5
MS.334         	16.342         	0.429
MS.335         	16.31          	0.532
MS.336         	16.278         	0.415
MS.337         	16.245         	0.471
MS.338         	16.212         	0.439
MS.339         	16.18          	0.53
MS.340         	16.147         	0.413
MS.341         	16.115         	0.506
MS.342         	16.083         	0.391
MS.343         	16.05          	0.512
MS.344         	16.017         	0.344
MS.345         	15.985         	0.367
MS.346         	15.955         	0.292
MS.347         	15.922         	0.282
MS.348         	15.89          	0.252
MS.349         	15.86          	0.379
MS.350         	15.827         	0.258
MS.351         	15.795         	0.24
MS.352         	15.765         	0.254
MS.353         	15.733         	0.27
MS.354         	15.7           	0.228
MS.355         	15.67          	0.228
MS.356         	15.637         	0.268
MS.357         	15.608         	0.252
MS.358         	15.575         	0.262
MS.359         	15.545         	0.244
MS.360         	15.512         	0.256
MS.361         	15.483         	0.282
MS.362         	15.452         	0.24
MS.363         	15.42          	0.23
MS.364         	15.39          	0.252
MS.365         	15.36          	0.226
MS.366         	15.327         	0.195
MS.367         	15.297         	0.187
MS.368         	15.267         	0.211
MS.369         	15.237         	0.193
MS.370         	15.207         	0.216
MS.371         	15.175         	0.159
MS.372         	15.145         	0.161
MS.373         	15.115         	0.195
MS.374         	15.085         	0.173
MS.375         	15.055         	0.218
MS.376         	15.025         	0.131
MS.377         	14.995         	0.155
MS.378         	14.965         	0.193
MS.379         	14.935         	0.159
MS.380         	14.905         	0.143
MS.381         	14.875         	0.169
MS.382         	14.845         	0.141
MS.383         	14.815         	0.153
MS.384         	14.787         	0.147
MS.385         	14.757         	0.147
MS.386         	14.727         	0.153
MS.387         	14.697         	0.139
MS.388         	14.67          	0.129
MS.389         	14.64          	0.117
MS.390         	14.61          	0.121
MS.391         	14.58          	0.103
MS.392         	14.552         	0.099
MS.393         	14.523         	0.119
MS.394         	14.495         	0.111
MS.395         	14.465         	0.141
MS.396         	14.435         	0.123
MS.397         	14.407         	0.133
MS.398         	14.377         	0.103
MS.399         	14.35          	0.141
MS.400         	14.32          	0.091
MS.401         	14.292         	0.109
MS.402         	14.265         	0.105
MS.403         	14.235         	0.097
MS.404         	14.207         	0.093
MS.405         	14.177         	0.056
MS.406         	14.15          	0.089
MS.407         	14.122         	0.107
MS.408         	14.092         	0.077
MS.409         	14.065         	0.095
MS.410         	14.037         	0.103
MS.411         	14.01          	0.093
MS.412         	13.983         	0.095
MS.413         	13.952         	0.105
MS.414         	13.925         	0.064
MS.415         	13.898         	0.099
MS.416         	13.87          	0.062
MS.417         	13.842         	0.07
MS.418         	13.815         	0.062
MS.419         	13.787         	0.066
MS.420         	13.76          	0.064
MS.421         	13.733         	0.081
MS.422         	13.705         	0.06
MS.423         	13.677         	0.077
MS.424         	13.65          	0.056
MS.425         	13.622         	0.077
MS.426         	13.595         	0.075
MS.427         	13.568         	0.05
MS.428         	13.54          	0.054
MS.429         	13.515         	0.056
MS.430         	13.487         	0.062
MS.431         	13.46          	0.06
MS.432         	13.432         	0.058
MS.433         	13.407         	0.064
MS.434         	13.38          	0.062
MS.435         	13.352         	0.062
MS.436         	13.325         	0.058
MS.437         	13.3           	0.058
MS.438         	13.273         	0.056
MS.439         	13.247         	0.064
MS.440         	13.22          	0.06
MS.441         	13.193         	0.062
MS.442         	13.167         	0.058
MS.443         	13.14          	0.06
MS.444         	13.115         	0.06
MS.445         	13.087         	0.052
MS.446         	13.062         	0.062
MS.447         	13.035         	0.064
MS.448         	13.01          	0.062
MS.449         	12.985         	0.062
MS.450         	12.957         	0.075
MS.451         	12.932         	0.06
MS.452         	12.907         	0.06
MS.453         	12.88          	0.06
MS.454         	12.855         	0.058
MS.455         	12.83          	0.062
MS.456         	12.802         	0.058
MS.457         	12.778         	0.064
MS.458         	12.752         	0.058
MS.459         	12.727         	0.054
MS.460         	12.702         	0.064
MS.461         	12.675         	0.054
MS.462         	12.65          	0.07
MS.463         	12.625         	0.066
MS.464         	12.6           	0.056
MS.465         	12.575         	0.062
MS.466         	12.55          	0.058
MS.467         	12.525         	0.05
MS.468         	12.5           	0.058
MS.469         	12.475         	0.06
MS.470         	12.45          	0.058
MS.471         	12.425         	0.068
MS.472         	12.4           	0.06
MS.473         	12.375         	0.06
MS.474         	12.35          	0.066
MS.475         	12.325         	0.058
MS.476         	12.302         	0.062
MS.477         	12.278         	0.058
MS.478         	12.252         	0.058
MS.479         	12.227         	0.06
MS.480         	12.202         	0.064
MS.481         	12.18          	0.056
MS.482         	12.155         	0.054
MS.483         	12.13          	0.062
MS.484         	12.108         	0.054
MS.485         	12.082         	0.06
MS.486         	12.057         	0.064
MS.487         	12.035         	0.054
MS.488         	12.01          	0.052
MS.489         	11.985         	0.058
MS.490         	11.962         	0.066
MS.491         	11.938         	0.064
MS.492         	11.915         	0.06
MS.493         	11.89          	0.056
MS.494         	11.867         	0.056
MS.495         	11.842         	0.058
MS.496         	11.82          	0.056
MS.497         	11.795         	0.064
MS.498         	11.773         	0.066
MS.499         	11.747         	0.052
MS.500         	11.725         	0.062
MS.501         	11.702         	0.064
MS.502         	11.677         	0.058
MS.503         	11.655         	0.058
MS.504         	11.632         	0.058
MS.505         	11.608         	0.054
MS.506         	11.585         	0.058
MS.507         	11.562         	0.058
MS.508         	11.54          	0.06
MS.509         	11.515         	0.056
MS.510         	11.492         	0.056
MS.511         	11.47          	0.06
MS.512         	11.447         	0.052
MS.513         	11.425         	0.054
MS.514         	11.403         	0.058
MS.515         	11.377         	0.05
MS.516         	11.355         	0.06
MS.517         	11.332         	0.058
MS.518         	11.31          	0.054
MS.519         	11.287         	0.054
MS.520         	11.265         	0.066
MS.521         	11.242         	0.062
MS.522         	11.22          	0.06
MS.523         	11.197         	0.058
MS.524         	11.175         	0.062
MS.525         	11.153         	0.054
MS.526         	11.13          	0.066
MS.527         	11.108         	0.066
MS.528         	11.087         	0.062
MS.529         	11.065         	0.058
MS.530         	11.042         	0.052
MS.531         	11.02          	0.058
MS.532         	10.997         	0.058
MS.533         	10.975         	0.054
MS.534         	10.955         	0.056
MS.535         	10.932         	0.058
MS.536         	10.91          	0.058
MS.537         	10.887         	0.054
MS.538         	10.867         	0.062
MS.539         	10.845         	0.058
MS.540         	10.823         	0.06
MS.541         	10.802         	0.06
MS.542         	10.78          	0.062
MS.543         	10.76          	0.056
MS.544         	10.738         	0.054
MS.545         	10.715         	0.058
MS.546         	10.695         	0.058
MS.547         	10.672         	0.06
MS.548         	10.653         	0.054
MS.549         	10.63          	0.05
MS.550         	10.61          	0.052
MS.551         	10.587         	0.056
MS.552         	10.568         	0.05
MS.553         	10.545         	0.058
MS.554         	10.525         	0.052
MS.555         	10.502         	0.052
MS.556         	10.483         	0.068
MS.557         	10.462         	0.058
MS.558         	10.44          	0.058
MS.559         	10.42          	0.056
MS.560         	10.4           	0.046
MS.561         	10.377         	0.056
MS.562         	10.358         	0.058
MS.563         	10.337         	0.05
MS.564         	10.318         	0.052
MS.565         	10.295         	0.06
MS.566         	10.275         	0.06
MS.567         	10.255         	0.05
MS.568         	10.235         	0.05
MS.569         	10.212         	0.052
MS.570         	10.193         	0.054
MS.571         	10.172         	0.054
MS.572         	10.153         	0.058
MS.573         	10.132         	0.056
DERIVED EXCITABILITY VARIABLES
Program = QTracP 9/10/2021
Threshold method = 6 (optimised for CAP, using data for present condition only)
SR method = 1 (using actual data values)
6.                 	0.000               	Peak response\(mV)
9.                 	33                  	Temperature ( C)
17.                	75                  	Age (years)
18.                	2                   	Sex (M=1, F=2)

EXTRA VARIABLES

MScPeak(mV) = 4.6
MScS5(mA) = 15.52
MScS50(mA) = 19.69
MScS95(mA) = 25
MScNSteps = 0
MScSteps(%) = 0.0
MScStepMax(%) = 0.0
MScD50 = 49
MScSlope = 4.46
MScDuration(min) = 5.3
MSFTraces = 438
MSFPeakAmp(mV) = 4.61
MSFNUnits = 131
MSFMeanUnitAmp(uV) = 35.2
MSFHuntTime(m) = 2.04
MSFError(%) = 1.67
MSFNLarge = 34.8
MSFMedianAmp(%) = 0.58
MSFMedianAmp(mV) = 0.0267
MSFHalfAmpAmp(%) = 1.02
MSFHalfAmpAmp(mV) = 0.0469
MSFLargestAmp(%) = 3.19
MSFLargestAmp(mV) = 0.147
MSFMeanRS(%) = 2
MSFSizeLimit(uV) = 11.5
MSFLimitType = 1
MSFSmallestAmp(uV) = 12.1
MSFOpts = 10106121

EXTRA WAVEFORMS


!MScan Model
!131
	1	13.82	0.28	2
	2	14.09	0.43	2.4
	3	14.59	0.76	2
	4	15.11	1.06	2
	5	15.23	0.37	2
	6	15.3	0.36	2
	7	15.35	0.31	2
	8	15.45	0.3	2
	9	15.77	0.58	2
	10	15.84	0.38	2
	11	15.89	0.6	2
	12	15.97	1.11	2
	13	16.08	0.92	2
	14	16.25	1.64	2
	15	16.31	0.43	2
	16	16.37	0.37	2
	17	16.44	0.73	2
	18	16.58	1.73	2
	19	16.63	0.4	2
	20	16.68	0.6	2
	21	16.72	0.67	2
	22	16.78	0.64	2
	23	16.9	1	2
	24	16.96	0.64	2
	25	17.02	0.68	2
	26	17.08	0.7	2
	27	17.12	0.47	2
	28	17.15	0.27	2
	29	17.17	0.32	2
	30	17.19	0.32	2
	31	17.21	0.32	2
	32	17.24	0.42	2
	33	17.26	0.44	2
	34	17.28	0.44	2
	35	17.31	0.44	2
	36	17.33	0.37	2
	37	17.35	0.31	2
	38	17.38	0.31	2
	39	17.4	0.34	2
	40	17.42	0.37	2
	41	17.45	0.37	2
	42	17.52	1.1	2
	43	17.61	1.15	2
	44	17.69	0.58	2
	45	17.76	0.64	2
	46	17.82	0.4	2
	47	17.87	0.41	2
	48	17.92	0.48	2
	49	17.95	0.31	2
	50	17.99	0.49	2
	51	18.03	0.53	2
	52	18.05	0.37	2
	53	18.07	0.35	2
	54	18.1	0.35	2
	55	18.12	0.33	2
	56	18.14	0.33	2
	57	18.16	0.33	2
	58	18.18	0.39	2
	59	18.21	0.49	2
	60	18.24	0.46	2
	61	18.28	0.49	2
	62	18.31	0.54	2
	63	18.37	1.13	2
	64	18.45	1.25	2
	65	18.52	0.91	2
	66	18.59	0.75	2
	67	18.65	0.8	2
	68	18.8	1.64	2
	69	18.95	1.02	2
	70	19.03	1.12	2
	71	19.16	1.42	2
	72	19.33	1.22	2
	73	19.45	1.12	2
	74	19.5	0.38	2
	75	19.54	0.41	2
	76	19.58	0.46	2
	77	19.62	0.51	2
	78	19.66	0.57	2
	79	19.76	1.2	2
	80	19.89	1.06	2
	81	20.02	1.26	2
	82	20.14	0.81	2
	83	20.25	0.65	2
	84	20.37	0.88	2
	85	20.49	0.82	2
	86	20.62	1.09	2
	87	20.74	0.87	2
	88	20.79	0.36	2
	89	20.84	0.46	2
	90	20.88	0.5	2
	91	20.93	0.53	2
	92	20.98	0.53	2
	93	21.02	0.45	2
	94	21.07	0.48	2
	95	21.12	0.87	2
	96	21.18	1.22	2
	97	21.31	1.67	2
	98	21.39	1.15	2
	99	21.47	1.78	2
	100	21.54	1.61	2
	101	21.6	0.98	2
	102	21.63	0.58	2
	103	21.66	0.63	2
	104	21.69	0.61	2
	105	21.73	1.25	2
	106	21.75	0.42	2
	107	21.84	1.57	2
	108	21.94	1.63	2
	109	22.2	3.19	2
	110	22.37	0.55	2
	111	22.41	0.43	2
	112	22.45	0.45	2
	113	22.59	1.04	2
	114	22.8	1.54	2
	115	23.08	2.36	2
	116	23.36	1.14	2
	117	23.71	2.43	2
	118	24.21	1.87	2
	119	24.57	0.92	2
	120	24.67	0.41	2
	121	24.76	0.48	2
	122	24.87	0.59	2
	123	25	0.26	2
	124	25.69	0.89	2
	125	25.78	0.38	2
	126	25.91	0.53	2
	127	26.38	1.32	2
	128	26.82	0.76	2
	129	27.93	1.09	2
	130	29.55	0.62	2
	131	30.93	0.35	2

