File:              	C:\Qtrac\Data\Daniel M Sørensen\MScan multicentre study\Data from centres\Oulu\Processed data\OUHC01119F.QZD
Name:              	FL.OUL.NC.4.2
Protocol:          	MSCAN-R2
Date:              	19/11/20
Start time:        	14:31:47
Age:               	75
Sex:               	F
Temperature:       	34,2
S/R sites:         	TA
NC/disease:        	NC
Operator:          	MK
Comments:
M-SCAN DATA (2.1-0.0m)
Scanpts: 15, 21, 508, 528
Stim. (mA)     	Amp. (mV)
MS.1           	21.5           	5.197
MS.2           	21.5           	5.15
MS.3           	21.415         	5.144
MS.4           	21.372         	5.128
MS.5           	21.327         	5.146
MS.6           	21.285         	5.279
MS.7           	21.243         	5.162
MS.8           	21.2           	5.323
MS.9           	21.157         	5.231
MS.10          	21.118         	5.17
MS.11          	21.075         	5.166
MS.12          	21.032         	5.118
MS.13          	20.99          	5.186
MS.14          	20.948         	5.307
MS.15          	20.907         	5.18
MS.16          	20.865         	5.128
MS.17          	20.823         	5.146
MS.18          	20.78          	5.164
MS.19          	20.74          	5.047
MS.20          	20.698         	5.092
MS.21          	20.657         	5.16
MS.22          	20.615         	5.209
MS.23          	20.575         	5.178
MS.24          	20.532         	5.136
MS.25          	20.493         	5.156
MS.26          	20.452         	5.15
MS.27          	20.41          	5.037
MS.28          	20.37          	5.068
MS.29          	20.33          	5.13
MS.30          	20.288         	5.146
MS.31          	20.247         	5.09
MS.32          	20.208         	5.076
MS.33          	20.167         	5.086
MS.34          	20.127         	5.15
MS.35          	20.087         	5.039
MS.36          	20.047         	5.188
MS.37          	20.007         	5.086
MS.38          	19.967         	5.072
MS.39          	19.927         	5.043
MS.40          	19.887         	4.965
MS.41          	19.847         	4.959
MS.42          	19.807         	4.965
MS.43          	19.767         	5.076
MS.44          	19.727         	4.963
MS.45          	19.69          	5.033
MS.46          	19.65          	5.021
MS.47          	19.61          	4.945
MS.48          	19.57          	5.027
MS.49          	19.532         	5.058
MS.50          	19.493         	5.039
MS.51          	19.455         	5.056
MS.52          	19.415         	4.999
MS.53          	19.377         	5.108
MS.54          	19.337         	5.019
MS.55          	19.3           	4.949
MS.56          	19.26          	4.975
MS.57          	19.222         	4.981
MS.58          	19.182         	4.981
MS.59          	19.145         	4.963
MS.60          	19.108         	4.935
MS.61          	19.067         	4.844
MS.62          	19.03          	4.913
MS.63          	18.993         	4.872
MS.64          	18.955         	4.826
MS.65          	18.917         	4.909
MS.66          	18.88          	4.88
MS.67          	18.842         	4.913
MS.68          	18.802         	4.852
MS.69          	18.765         	4.792
MS.70          	18.727         	4.846
MS.71          	18.69          	4.933
MS.72          	18.655         	4.834
MS.73          	18.618         	4.761
MS.74          	18.58          	4.9
MS.75          	18.542         	4.838
MS.76          	18.505         	4.85
MS.77          	18.467         	4.894
MS.78          	18.432         	4.858
MS.79          	18.395         	4.77
MS.80          	18.358         	4.731
MS.81          	18.32          	4.826
MS.82          	18.285         	4.731
MS.83          	18.247         	4.693
MS.84          	18.212         	4.79
MS.85          	18.175         	4.794
MS.86          	18.137         	4.735
MS.87          	18.102         	4.761
MS.88          	18.067         	4.739
MS.89          	18.03          	4.703
MS.90          	17.995         	4.604
MS.91          	17.958         	4.683
MS.92          	17.922         	4.735
MS.93          	17.887         	4.665
MS.94          	17.85          	4.62
MS.95          	17.815         	4.471
MS.96          	17.78          	4.568
MS.97          	17.745         	4.596
MS.98          	17.708         	4.713
MS.99          	17.672         	4.612
MS.100         	17.637         	4.641
MS.101         	17.602         	4.61
MS.102         	17.567         	4.548
MS.103         	17.532         	4.405
MS.104         	17.497         	4.328
MS.105         	17.462         	4.542
MS.106         	17.427         	4.546
MS.107         	17.392         	4.52
MS.108         	17.358         	4.343
MS.109         	17.323         	4.332
MS.110         	17.288         	4.562
MS.111         	17.255         	4.479
MS.112         	17.22          	4.532
MS.113         	17.185         	4.407
MS.114         	17.15          	4.198
MS.115         	17.118         	4.304
MS.116         	17.083         	4.298
MS.117         	17.047         	4.445
MS.118         	17.015         	4.214
MS.119         	16.98          	4.204
MS.120         	16.948         	4.258
MS.121         	16.913         	4.183
MS.122         	16.878         	4.278
MS.123         	16.845         	4.226
MS.124         	16.812         	4.159
MS.125         	16.778         	4.246
MS.126         	16.745         	4.026
MS.127         	16.71          	4.012
MS.128         	16.677         	4.183
MS.129         	16.645         	4.147
MS.130         	16.61          	4.103
MS.131         	16.577         	4.024
MS.132         	16.545         	3.932
MS.133         	16.512         	3.998
MS.134         	16.477         	4.141
MS.135         	16.445         	3.944
MS.136         	16.413         	4.046
MS.137         	16.38          	3.827
MS.138         	16.347         	3.899
MS.139         	16.315         	3.928
MS.140         	16.282         	3.839
MS.141         	16.25          	3.909
MS.142         	16.217         	3.903
MS.143         	16.185         	3.867
MS.144         	16.153         	3.831
MS.145         	16.12          	3.779
MS.146         	16.087         	3.732
MS.147         	16.055         	3.783
MS.148         	16.022         	3.742
MS.149         	15.992         	3.815
MS.150         	15.96          	3.795
MS.151         	15.927         	3.738
MS.152         	15.895         	3.533
MS.153         	15.865         	3.877
MS.154         	15.832         	3.69
MS.155         	15.8           	3.674
MS.156         	15.77          	3.571
MS.157         	15.737         	3.543
MS.158         	15.705         	3.444
MS.159         	15.675         	3.474
MS.160         	15.642         	3.503
MS.161         	15.612         	3.611
MS.162         	15.58          	3.497
MS.163         	15.55          	3.366
MS.164         	15.52          	3.307
MS.165         	15.487         	3.452
MS.166         	15.457         	3.36
MS.167         	15.425         	3.112
MS.168         	15.395         	3.341
MS.169         	15.365         	3.064
MS.170         	15.332         	3.188
MS.171         	15.302         	2.931
MS.172         	15.273         	2.927
MS.173         	15.242         	2.884
MS.174         	15.212         	2.848
MS.175         	15.18          	3.007
MS.176         	15.15          	2.919
MS.177         	15.12          	2.737
MS.178         	15.09          	2.836
MS.179         	15.06          	2.729
MS.180         	15.03          	2.892
MS.181         	15             	2.824
MS.182         	14.97          	2.802
MS.183         	14.94          	2.8
MS.184         	14.91          	2.771
MS.185         	14.88          	2.826
MS.186         	14.85          	2.767
MS.187         	14.82          	2.753
MS.188         	14.792         	2.574
MS.189         	14.762         	2.635
MS.190         	14.733         	2.622
MS.191         	14.702         	2.494
MS.192         	14.672         	2.53
MS.193         	14.645         	2.542
MS.194         	14.615         	2.538
MS.195         	14.585         	2.494
MS.196         	14.557         	2.439
MS.197         	14.527         	2.449
MS.198         	14.497         	2.463
MS.199         	14.47          	2.459
MS.200         	14.44          	2.457
MS.201         	14.412         	2.401
MS.202         	14.382         	2.407
MS.203         	14.355         	2.415
MS.204         	14.325         	2.375
MS.205         	14.297         	2.359
MS.206         	14.267         	2.3
MS.207         	14.24          	2.252
MS.208         	14.212         	2.085
MS.209         	14.182         	2.351
MS.210         	14.155         	2.266
MS.211         	14.127         	2.179
MS.212         	14.097         	2.278
MS.213         	14.07          	2.129
MS.214         	14.042         	2.125
MS.215         	14.015         	2.149
MS.216         	13.985         	2.101
MS.217         	13.957         	2.127
MS.218         	13.93          	2.012
MS.219         	13.903         	2.032
MS.220         	13.875         	2.058
MS.221         	13.847         	2.016
MS.222         	13.82          	2.04
MS.223         	13.792         	1.964
MS.224         	13.765         	1.972
MS.225         	13.737         	1.895
MS.226         	13.71          	1.799
MS.227         	13.682         	1.942
MS.228         	13.655         	1.867
MS.229         	13.627         	1.827
MS.230         	13.6           	1.992
MS.231         	13.572         	1.899
MS.232         	13.545         	1.805
MS.233         	13.517         	1.746
MS.234         	13.492         	1.855
MS.235         	13.465         	1.762
MS.236         	13.438         	1.827
MS.237         	13.41          	1.762
MS.238         	13.385         	1.859
MS.239         	13.358         	1.613
MS.240         	13.33          	1.676
MS.241         	13.305         	1.557
MS.242         	13.278         	1.738
MS.243         	13.25          	1.676
MS.244         	13.225         	1.599
MS.245         	13.197         	1.623
MS.246         	13.172         	1.543
MS.247         	13.145         	1.476
MS.248         	13.12          	1.452
MS.249         	13.092         	1.499
MS.250         	13.068         	1.438
MS.251         	13.04          	1.521
MS.252         	13.015         	1.48
MS.253         	12.987         	1.347
MS.254         	12.962         	1.196
MS.255         	12.938         	1.354
MS.256         	12.91          	1.265
MS.257         	12.885         	1.267
MS.258         	12.86          	1.305
MS.259         	12.832         	1.182
MS.260         	12.807         	1.219
MS.261         	12.782         	1.094
MS.262         	12.757         	1.172
MS.263         	12.73          	1.106
MS.264         	12.705         	1.033
MS.265         	12.68          	1.061
MS.266         	12.655         	1.142
MS.267         	12.63          	1.086
MS.268         	12.605         	1.063
MS.269         	12.58          	0.993
MS.270         	12.555         	0.947
MS.271         	12.53          	0.979
MS.272         	12.505         	0.959
MS.273         	12.48          	0.826
MS.274         	12.455         	0.868
MS.275         	12.43          	0.904
MS.276         	12.405         	0.826
MS.277         	12.38          	0.693
MS.278         	12.355         	0.725
MS.279         	12.33          	0.747
MS.280         	12.305         	0.689
MS.281         	12.28          	0.763
MS.282         	12.257         	0.816
MS.283         	12.233         	0.788
MS.284         	12.207         	0.645
MS.285         	12.182         	0.59
MS.286         	12.157         	0.651
MS.287         	12.135         	0.54
MS.288         	12.11          	0.604
MS.289         	12.085         	0.473
MS.290         	12.062         	0.481
MS.291         	12.037         	0.504
MS.292         	12.012         	0.481
MS.293         	11.99          	0.578
MS.294         	11.965         	0.459
MS.295         	11.943         	0.542
MS.296         	11.917         	0.367
MS.297         	11.895         	0.465
MS.298         	11.87          	0.485
MS.299         	11.847         	0.393
MS.300         	11.822         	0.346
MS.301         	11.8           	0.451
MS.302         	11.775         	0.365
MS.303         	11.752         	0.336
MS.304         	11.73          	0.328
MS.305         	11.705         	0.34
MS.306         	11.682         	0.306
MS.307         	11.657         	0.377
MS.308         	11.635         	0.246
MS.309         	11.613         	0.264
MS.310         	11.59          	0.278
MS.311         	11.565         	0.256
MS.312         	11.542         	0.26
MS.313         	11.52          	0.244
MS.314         	11.497         	0.262
MS.315         	11.472         	0.254
MS.316         	11.45          	0.234
MS.317         	11.427         	0.216
MS.318         	11.405         	0.179
MS.319         	11.382         	0.256
MS.320         	11.36          	0.236
MS.321         	11.337         	0.22
MS.322         	11.315         	0.189
MS.323         	11.292         	0.214
MS.324         	11.27          	0.169
MS.325         	11.247         	0.167
MS.326         	11.225         	0.169
MS.327         	11.202         	0.228
MS.328         	11.18          	0.149
MS.329         	11.157         	0.155
MS.330         	11.135         	0.177
MS.331         	11.113         	0.139
MS.332         	11.09          	0.167
MS.333         	11.068         	0.145
MS.334         	11.045         	0.153
MS.335         	11.023         	0.149
MS.336         	11.002         	0.151
MS.337         	10.98          	0.151
MS.338         	10.957         	0.137
MS.339         	10.935         	0.149
MS.340         	10.915         	0.151
MS.341         	10.892         	0.117
MS.342         	10.87          	0.133
MS.343         	10.847         	0.131
MS.344         	10.827         	0.123
MS.345         	10.805         	0.127
MS.346         	10.785         	0.107
MS.347         	10.762         	0.073
MS.348         	10.74          	0.127
MS.349         	10.72          	0.097
MS.350         	10.698         	0.127
MS.351         	10.677         	0.123
MS.352         	10.655         	0.032
MS.353         	10.635         	0.113
MS.354         	10.613         	0.141
MS.355         	10.592         	0.093
MS.356         	10.57          	0.105
MS.357         	10.55          	0.044
MS.358         	10.528         	0.046
MS.359         	10.507         	0.089
MS.360         	10.485         	0.046
MS.361         	10.465         	0.042
MS.362         	10.445         	0.042
MS.363         	10.422         	0.105
MS.364         	10.403         	0.048
MS.365         	10.382         	0.079
MS.366         	10.36          	0.036
MS.367         	10.34          	0.042
MS.368         	10.32          	0.05
MS.369         	10.3           	0.036
MS.370         	10.278         	0.046
MS.371         	10.257         	0.07
MS.372         	10.238         	0.044
MS.373         	10.217         	0.046
MS.374         	10.198         	0.044
MS.375         	10.175         	0.046
MS.376         	10.155         	0.032
MS.377         	10.135         	0.038
MS.378         	10.115         	0.038
MS.379         	10.095         	0.024
MS.380         	10.075         	0.048
MS.381         	10.055         	0.056
MS.382         	10.035         	0.028
MS.383         	10.015         	0.018
MS.384         	9.995          	0.032
MS.385         	9.975          	0.018
MS.386         	9.955          	0.042
MS.387         	9.935          	0.026
MS.388         	9.915          	0.02
MS.389         	9.895          	0.038
MS.390         	9.875          	0.014
MS.391         	9.855          	0.03
MS.392         	9.835          	0.03
MS.393         	9.818          	0.024
MS.394         	9.797          	0.03
MS.395         	9.778          	0.012
MS.396         	9.757          	0.022
MS.397         	9.738          	0.022
MS.398         	9.717          	0.026
MS.399         	9.7            	0.016
MS.400         	9.68           	0.026
MS.401         	9.66           	0.006
MS.402         	9.64           	0.022
MS.403         	9.622          	0.01
MS.404         	9.602          	0.024
MS.405         	9.582          	0.028
MS.406         	9.565          	0.022
MS.407         	9.545          	0.012
MS.408         	9.525          	0.01
MS.409         	9.507          	0.012
MS.410         	9.488          	0.018
MS.411         	9.47           	0.018
MS.412         	9.45           	0.048
MS.413         	9.432          	0.012
MS.414         	9.412          	0.01
MS.415         	9.395          	0.014
MS.416         	9.375          	0.018
MS.417         	9.358          	0.014
MS.418         	9.337          	0.016
MS.419         	9.32           	0.008
MS.420         	9.3            	0.018
MS.421         	9.283          	0.012
MS.422         	9.262          	0.016
MS.423         	9.245          	0.008
MS.424         	9.225          	0.02
MS.425         	9.207          	0.006
MS.426         	9.19           	0.004
MS.427         	9.17           	0.018
MS.428         	9.153          	0.01
MS.429         	9.135          	0.006
MS.430         	9.115          	0.004
MS.431         	9.097          	0.008
MS.432         	9.08           	0.008
MS.433         	9.062          	0.014
MS.434         	9.042          	0.014
MS.435         	9.025          	0.006
MS.436         	9.007          	0.018
MS.437         	8.99           	0.01
MS.438         	8.972          	0.01
MS.439         	8.952          	0.012
MS.440         	8.935          	0.012
MS.441         	8.917          	0.014
MS.442         	8.9            	0.012
MS.443         	8.882          	0.01
MS.444         	8.865          	0.016
MS.445         	8.847          	0.004
MS.446         	8.83           	0.012
MS.447         	8.812          	0.014
MS.448         	8.795          	0.012
MS.449         	8.775          	0.01
MS.450         	8.757          	0.016
MS.451         	8.74           	0.01
MS.452         	8.722          	0.008
MS.453         	8.707          	0.01
MS.454         	8.69           	0.01
MS.455         	8.672          	0.01
MS.456         	8.655          	0.012
MS.457         	8.637          	0.016
MS.458         	8.62           	0.016
MS.459         	8.602          	0.01
MS.460         	8.585          	0.004
MS.461         	8.568          	0.01
MS.462         	8.55           	0.004
MS.463         	8.535          	0.002
MS.464         	8.517          	0.000
MS.465         	8.5            	0.002
MS.466         	8.483          	-0.006
MS.467         	8.465          	0.008
MS.468         	8.45           	0.002
MS.469         	8.432          	-0.004
MS.470         	8.415          	0.000
MS.471         	8.398          	0.000
MS.472         	8.382          	0.000
MS.473         	8.365          	0.004
MS.474         	8.347          	0.000
MS.475         	8.332          	0.006
MS.476         	8.315          	-0.006
MS.477         	8.297          	0.006
MS.478         	8.283          	0.002
MS.479         	8.265          	0.000
MS.480         	8.247          	-0.002
MS.481         	8.233          	0.000
MS.482         	8.215          	-0.002
MS.483         	8.2            	0.006
MS.484         	8.182          	0.006
MS.485         	8.167          	0.000
MS.486         	8.15           	0.004
MS.487         	8.135          	0.008
MS.488         	8.117          	0.004
MS.489         	8.102          	0.004
MS.490         	8.085          	0.008
MS.491         	8.07           	0.000
MS.492         	8.052          	0.012
MS.493         	8.037          	0.000
MS.494         	8.02           	0.004
MS.495         	8.005          	0.008
MS.496         	7.99           	0.004
MS.497         	7.972          	0.004
MS.498         	7.957          	0.004
MS.499         	7.94           	0.01
MS.500         	7.925          	0.000
MS.501         	7.91           	0.006
MS.502         	7.892          	0.006
MS.503         	7.878          	0.000
MS.504         	7.862          	0.01
MS.505         	7.847          	0.000
MS.506         	7.83           	0.002
MS.507         	7.815          	0.006
MS.508         	7.8            	0.006
MS.509         	7.785          	0.006
MS.510         	7.767          	0.002
MS.511         	7.753          	0.006
MS.512         	7.737          	0.006
MS.513         	7.722          	0.002
MS.514         	7.707          	0.01
MS.515         	7.69           	0.006
MS.516         	7.675          	0.004
MS.517         	7.66           	0.01
MS.518         	7.645          	0.004
MS.519         	7.63           	0.000
MS.520         	7.615          	0.01
MS.521         	7.6            	0.002
MS.522         	7.585          	0.002
MS.523         	7.57           	0.002
MS.524         	7.555          	0.004
MS.525         	7.537          	0.002
MS.526         	7.523          	0.008
MS.527         	7.507          	0.012
MS.528         	7.492          	0.004
MS.529         	7.477          	0.008
MS.530         	7.462          	0.004
MS.531         	7.45           	0.01
MS.532         	7.435          	0.004
MS.533         	7.42           	0.008
MS.534         	7.405          	0.004
MS.535         	7.39           	0.004
MS.536         	7.375          	0.008
MS.537         	7.36           	0.008
MS.538         	7.345          	0.000
MS.539         	7.33           	0.012
MS.540         	7.315          	0.008
MS.541         	7.302          	-0.004
MS.542         	7.287          	0.000
MS.543         	7.273          	0.004
MS.544         	7.257          	0.002
MS.545         	7.242          	0.006
MS.546         	7.227          	0.006
MS.547         	7.215          	0.000
MS.548         	7.2            	0.000
MS.549         	7.185          	0.002
MS.550         	7.17           	0.012
MS.551         	7.157          	0.000
MS.552         	7.142          	-0.002
MS.553         	7.128          	0.006
MS.554         	7.115          	0.000
MS.555         	7.1            	0.008
MS.556         	7.085          	-0.002
MS.557         	7.072          	0.008
MS.558         	7.057          	0.002
MS.559         	7.043          	0.004
MS.560         	7.03           	0.000
MS.561         	7.015          	-0.004
MS.562         	7              	0.002
MS.563         	6.987          	0.006
MS.564         	6.972          	-0.006
MS.565         	6.96           	0.004
MS.566         	6.945          	0.01
MS.567         	6.932          	0.006
MS.568         	6.918          	0.008
MS.569         	6.902          	0.004
MS.570         	6.89           	0.004
MS.571         	6.875          	0.01
MS.572         	6.862          	0.004
MS.573         	6.847          	-0.002
MS.574         	6.835          	0.002
MS.575         	6.822          	0.000
MS.576         	6.807          	0.002
MS.577         	6.795          	0.004
MS.578         	6.78           	0.002
MS.579         	6.767          	0.002
MS.580         	6.753          	-0.004
MS.581         	6.74           	0.002
MS.582         	6.727          	0.004
MS.583         	6.712          	0.004
MS.584         	6.7            	0.006
MS.585         	6.685          	0.004
MS.586         	6.672          	-0.004
MS.587         	6.66           	0.004
MS.588         	6.645          	-0.002
MS.589         	6.632          	0.006
MS.590         	6.62           	-0.006
MS.591         	6.608          	-0.004
MS.592         	6.592          	0.004
MS.593         	6.58           	-0.004
MS.594         	6.567          	0.004
MS.595         	6.555          	0.000
MS.596         	6.54           	0.004
MS.597         	6.527          	0.004
MS.598         	6.515          	-0.004
MS.599         	6.503          	-0.006
MS.600         	6.487          	-0.004
MS.601         	6.475          	-0.01
MS.602         	6.462          	-0.002
MS.603         	6.45           	-0.004
MS.604         	6.438          	-0.006
MS.605         	6.425          	-0.006
MS.606         	6.41           	-0.004
MS.607         	6.398          	0.000
MS.608         	6.385          	-0.008
MS.609         	6.372          	-0.008
MS.610         	6.36           	-0.002
MS.611         	6.347          	-0.006
MS.612         	6.335          	-0.006
MS.613         	6.322          	-0.004
MS.614         	6.31           	-0.008
MS.615         	6.297          	-0.004
MS.616         	6.285          	-0.004
MS.617         	6.273          	-0.004
MS.618         	6.26           	-0.006
MS.619         	6.247          	-0.006
MS.620         	6.235          	-0.01
MS.621         	6.222          	-0.002
MS.622         	6.21           	-0.006
MS.623         	6.197          	-0.006
MS.624         	6.185          	-0.004
MS.625         	6.172          	-0.006
MS.626         	6.16           	-0.006
MS.627         	6.148          	0.000
MS.628         	6.135          	-0.002
MS.629         	6.122          	-0.008
MS.630         	6.11           	-0.008
MS.631         	6.097          	-0.004
MS.632         	6.088          	-0.006
MS.633         	6.075          	-0.004
MS.634         	6.062          	-0.006
MS.635         	6.05           	-0.008
MS.636         	6.037          	-0.002
MS.637         	6.025          	-0.01
MS.638         	6.015          	-0.002
MS.639         	6.003          	-0.006
MS.640         	5.99           	-0.006
MS.641         	5.977          	-0.004
MS.642         	5.965          	-0.002
MS.643         	5.955          	0.000
MS.644         	5.942          	-0.01
MS.645         	5.93           	-0.008
MS.646         	5.918          	-0.006
MS.647         	5.907          	-0.006
MS.648         	5.895          	-0.008
MS.649         	5.882          	-0.002
MS.650         	5.87           	-0.006
MS.651         	5.86           	-0.006
MS.652         	5.847          	-0.012
MS.653         	5.835          	-0.008
MS.654         	5.825          	-0.006
MS.655         	5.812          	-0.006
MS.656         	5.8            	-0.008
MS.657         	5.79           	-0.006
MS.658         	5.777          	-0.01
MS.659         	5.767          	-0.006
MS.660         	5.755          	-0.008
MS.661         	5.742          	-0.004
MS.662         	5.733          	-0.006
MS.663         	5.72           	-0.01
MS.664         	5.71           	-0.014
MS.665         	5.697          	-0.008
MS.666         	5.685          	-0.01
MS.667         	5.675          	-0.012
MS.668         	5.662          	-0.004
MS.669         	5.652          	-0.006
MS.670         	5.64           	-0.004
MS.671         	5.63           	-0.008
MS.672         	5.617          	-0.004
MS.673         	5.608          	-0.01
MS.674         	5.595          	-0.008
MS.675         	5.585          	-0.006
MS.676         	5.572          	-0.008
MS.677         	5.562          	-0.008
MS.678         	5.552          	-0.01
MS.679         	5.54           	-0.008
MS.680         	5.53           	-0.014
MS.681         	5.517          	-0.01
MS.682         	5.507          	-0.008
MS.683         	5.495          	-0.006
MS.684         	5.485          	-0.01
MS.685         	5.475          	-0.008
MS.686         	5.463          	-0.012
MS.687         	5.452          	-0.002
MS.688         	5.443          	-0.008
MS.689         	5.43           	-0.008
MS.690         	5.42           	-0.01
MS.691         	5.41           	-0.006
MS.692         	5.398          	-0.006
MS.693         	5.387          	-0.01
MS.694         	5.378          	-0.01
MS.695         	5.365          	-0.006
MS.696         	5.355          	-0.012
MS.697         	5.345          	-0.008
MS.698         	5.332          	-0.008
MS.699         	5.322          	-0.008
MS.700         	5.312          	-0.012
MS.701         	5.302          	-0.012
MS.702         	5.29           	-0.008
MS.703         	5.28           	-0.006
MS.704         	5.27           	-0.01
MS.705         	5.26           	-0.004
MS.706         	5.25           	-0.01
MS.707         	5.237          	-0.008
DERIVED EXCITABILITY VARIABLES
Program = QTracP 9/10/2021
Threshold method = 6 (optimised for CAP, using data for present condition only)
SR method = 1 (using actual data values)
6.                 	0.000               	Peak response\(mV)
9.                 	34                  	Temperature ( C)
17.                	75                  	Age (years)
18.                	2                   	Sex (M=1, F=2)

EXTRA VARIABLES

MScPeak(mV) = -0.01
MScS5(mA) = 7.13
MScS50(mA) = 6.7
MScS95(mA) = 5.8
MScNSteps = 0
MScSteps(%) = 0.0
MScStepMax(%) = 0.0
MScD50 = 59
MScSlope = -7.79
MScDuration(min) = 2.1
MSFTraces = 514
MSFPeakAmp(mV) = 5.13
MSFNUnits = 114
MSFMeanUnitAmp(uV) = 45
MSFHuntTime(m) = 2.31
MSFError(%) = 2.3
MSFNLarge = 33.72
MSFMedianAmp(%) = 0.675
MSFMedianAmp(mV) = 0.0346
MSFHalfAmpAmp(%) = 0.954
MSFHalfAmpAmp(mV) = 0.0489
MSFLargestAmp(%) = 2.45
MSFLargestAmp(mV) = 0.126
MSFMeanRS(%) = 2
MSFSizeLimit(uV) = 12.8
MSFLimitType = 1
MSFSmallestAmp(uV) = 19.9
MSFOpts = 10106121

EXTRA WAVEFORMS


!MScan Model
!114
	1	9.85	0.42	2
	2	10.29	0.5	2
	3	10.6	0.71	2
	4	10.81	0.61	2
	5	10.99	0.54	2
	6	11.1	0.39	2
	7	11.21	0.4	2
	8	11.3	0.41	2
	9	11.4	0.49	2
	10	11.48	0.52	2
	11	11.56	0.58	2
	12	11.63	0.61	2
	13	11.7	0.55	2
	14	11.77	0.57	2
	15	11.83	0.66	2
	16	11.89	0.77	2
	17	11.95	0.74	2
	18	12	0.72	2
	19	12.06	0.7	2
	20	12.1	0.68	2
	21	12.15	0.66	2
	22	12.19	0.58	2
	23	12.22	0.6	2
	24	12.26	0.62	2
	25	12.3	0.57	2
	26	12.33	0.53	2
	27	12.36	0.54	2
	28	12.39	0.49	2
	29	12.42	0.46	2
	30	12.45	0.47	2
	31	12.47	0.48	2
	32	12.5	0.48	2
	33	12.53	0.49	2
	34	12.56	0.6	2
	35	12.59	0.62	2
	36	12.63	0.62	2
	37	12.65	0.46	2
	38	12.68	0.45	2
	39	12.71	0.45	2
	40	12.73	0.46	2
	41	12.76	0.48	2
	42	12.79	0.5	2
	43	12.81	0.53	2
	44	12.84	0.53	2
	45	12.87	0.53	2
	46	12.9	0.59	2
	47	12.94	0.65	2
	48	12.97	0.65	2
	49	13.01	0.64	2
	50	13.04	0.62	2
	51	13.08	0.68	2
	52	13.12	0.67	2
	53	13.16	0.78	2
	54	13.22	1.02	2
	55	13.28	0.92	2
	56	13.34	0.94	2
	57	13.4	0.92	2
	58	13.47	0.89	2
	59	13.53	0.85	2
	60	13.59	0.9	2
	61	13.66	0.95	2
	62	13.74	1.03	2
	63	13.82	1	2
	64	13.88	0.74	2
	65	13.93	0.67	2
	66	13.98	0.62	2
	67	14.02	0.55	2
	68	14.07	0.55	2
	69	14.11	0.56	2
	70	14.15	0.57	2
	71	14.2	0.56	2
	72	14.24	0.54	2
	73	14.28	0.62	2
	74	14.33	0.66	2
	75	14.38	0.68	2
	76	14.43	0.68	2
	77	14.47	0.64	2
	78	14.52	0.65	2
	79	14.58	0.77	2
	80	14.64	0.78	2
	81	14.7	0.79	2
	82	14.8	1.33	2
	83	14.89	1.15	2
	84	14.97	1.07	2
	85	15.05	1.7	2
	86	15.12	1.47	2
	87	15.19	1.49	2
	88	15.32	0.94	2
	89	15.38	1.68	2
	90	15.39	1.03	2
	91	15.46	1.59	2
	92	15.53	1.38	2
	93	15.61	1.35	2
	94	15.68	1.47	2
	95	15.77	1.66	2
	96	15.87	0.98	2
	97	15.9	2.27	2
	98	16.15	1.57	2
	99	16.29	1.53	2
	100	16.41	1.28	2
	101	16.49	0.82	2
	102	16.58	0.88	2
	103	16.7	1.37	2
	104	16.84	1.44	2
	105	16.99	1.41	2
	106	17.18	1.84	2
	107	17.42	2.09	2
	108	17.7	2.36	2
	109	17.94	1.48	2
	110	18.17	1.43	2
	111	18.48	1.46	2
	112	18.81	1.39	2
	113	19.27	1.51	2
	114	20.11	2.45	2

