File:              	C:\Qtrac\Data\Daniel M Sørensen\MScan multicentre study\Data from centres\Oxford\Processed data\ATC01214B.QZD
Name:              	UK.OXF.NC.7.2
Protocol:          	MSCAN-R2
Date:              	14/12/20
Start time:        	11:27:37
Age:               	33
Sex:               	M
Temperature:       	33.4
S/R sites:         	ADM
NC/disease:        	NC
Operator:          	AT
Comments:          	Ulnar N ADM 2nd
M-SCAN DATA (4.4-1.6m)
Scanpts: 15, 19, 297, 316
Stim. (mA)     	Amp. (mV)
MS.1           	25             	5.978
MS.2           	25             	5.92
MS.3           	25             	5.895
MS.4           	25             	5.855
MS.5           	25             	5.934
MS.6           	25             	5.883
MS.7           	25             	5.914
MS.8           	25             	5.869
MS.9           	25             	5.96
MS.10          	25             	5.968
MS.11          	25             	5.924
MS.12          	25             	6.065
MS.13          	25             	5.942
MS.14          	25             	5.956
MS.15          	25             	5.924
MS.16          	25             	5.95
MS.17          	25             	5.986
MS.18          	25             	5.94
MS.19          	25             	5.853
MS.20          	25             	5.95
MS.21          	25             	5.934
MS.22          	25             	5.978
MS.23          	25             	5.912
MS.24          	24.9           	5.851
MS.25          	24.85          	5.992
MS.26          	24.8           	5.922
MS.27          	24.75          	5.98
MS.28          	24.702         	6.006
MS.29          	24.653         	5.928
MS.30          	24.602         	5.895
MS.31          	24.555         	5.99
MS.32          	24.505         	5.867
MS.33          	24.455         	5.899
MS.34          	24.407         	5.98
MS.35          	24.358         	5.942
MS.36          	24.31          	5.924
MS.37          	24.26          	5.924
MS.38          	24.212         	5.887
MS.39          	24.165         	5.763
MS.40          	24.115         	5.742
MS.41          	24.067         	5.771
MS.42          	24.02          	5.754
MS.43          	23.972         	5.734
MS.44          	23.925         	5.807
MS.45          	23.875         	5.632
MS.46          	23.827         	5.557
MS.47          	23.78          	5.511
MS.48          	23.733         	5.513
MS.49          	23.685         	5.422
MS.50          	23.637         	5.47
MS.51          	23.59          	5.412
MS.52          	23.545         	5.624
MS.53          	23.497         	5.243
MS.54          	23.45          	5.36
MS.55          	23.403         	5.408
MS.56          	23.358         	5.398
MS.57          	23.31          	5.432
MS.58          	23.262         	5.299
MS.59          	23.217         	5.402
MS.60          	23.17          	5.267
MS.61          	23.125         	5.116
MS.62          	23.077         	5.342
MS.63          	23.032         	5.259
MS.64          	22.985         	5.257
MS.65          	22.94          	4.84
MS.66          	22.895         	5.168
MS.67          	22.847         	4.999
MS.68          	22.802         	5.003
MS.69          	22.757         	5.088
MS.70          	22.712         	5.13
MS.71          	22.665         	5.193
MS.72          	22.62          	5.176
MS.73          	22.575         	5.058
MS.74          	22.53          	5.112
MS.75          	22.485         	4.757
MS.76          	22.44          	4.935
MS.77          	22.395         	4.921
MS.78          	22.35          	4.923
MS.79          	22.307         	4.836
MS.80          	22.262         	4.774
MS.81          	22.217         	4.679
MS.82          	22.172         	4.647
MS.83          	22.127         	4.699
MS.84          	22.085         	4.608
MS.85          	22.04          	4.826
MS.86          	21.995         	4.675
MS.87          	21.952         	4.639
MS.88          	21.907         	4.679
MS.89          	21.865         	4.725
MS.90          	21.82          	4.725
MS.91          	21.778         	4.437
MS.92          	21.735         	4.437
MS.93          	21.69          	4.564
MS.94          	21.647         	4.427
MS.95          	21.605         	4.433
MS.96          	21.56          	4.254
MS.97          	21.517         	4.149
MS.98          	21.475         	4.254
MS.99          	21.432         	4.377
MS.100         	21.39          	4.542
MS.101         	21.345         	4.24
MS.102         	21.302         	4.121
MS.103         	21.26          	4.139
MS.104         	21.217         	3.984
MS.105         	21.175         	4.097
MS.106         	21.135         	4.256
MS.107         	21.092         	4.117
MS.108         	21.05          	4.179
MS.109         	21.007         	4.028
MS.110         	20.965         	3.889
MS.111         	20.922         	3.996
MS.112         	20.882         	3.948
MS.113         	20.84          	3.869
MS.114         	20.797         	3.785
MS.115         	20.757         	3.845
MS.116         	20.715         	3.773
MS.117         	20.675         	3.754
MS.118         	20.632         	3.791
MS.119         	20.592         	3.797
MS.120         	20.55          	3.771
MS.121         	20.51          	3.69
MS.122         	20.467         	3.613
MS.123         	20.427         	3.595
MS.124         	20.387         	3.583
MS.125         	20.345         	3.376
MS.126         	20.305         	3.243
MS.127         	20.265         	3.341
MS.128         	20.225         	3.301
MS.129         	20.182         	3.225
MS.130         	20.142         	3.317
MS.131         	20.102         	3.277
MS.132         	20.062         	3.289
MS.133         	20.022         	3.35
MS.134         	19.983         	3.196
MS.135         	19.942         	3.221
MS.136         	19.903         	2.951
MS.137         	19.862         	3.068
MS.138         	19.823         	3.068
MS.139         	19.785         	2.959
MS.140         	19.745         	2.78
MS.141         	19.705         	3.136
MS.142         	19.665         	2.818
MS.143         	19.627         	2.723
MS.144         	19.587         	2.481
MS.145         	19.547         	2.574
MS.146         	19.51          	1.871
MS.147         	19.47          	2.004
MS.148         	19.43          	2.054
MS.149         	19.392         	1.897
MS.150         	19.352         	2.077
MS.151         	19.315         	2.197
MS.152         	19.275         	2.077
MS.153         	19.237         	1.915
MS.154         	19.2           	1.922
MS.155         	19.16          	1.911
MS.156         	19.122         	1.821
MS.157         	19.085         	1.829
MS.158         	19.047         	1.801
MS.159         	19.007         	1.913
MS.160         	18.97          	1.857
MS.161         	18.932         	1.752
MS.162         	18.895         	1.625
MS.163         	18.858         	1.587
MS.164         	18.82          	1.752
MS.165         	18.782         	1.559
MS.166         	18.745         	1.728
MS.167         	18.708         	1.593
MS.168         	18.67          	1.48
MS.169         	18.632         	1.547
MS.170         	18.595         	1.452
MS.171         	18.557         	1.364
MS.172         	18.52          	1.166
MS.173         	18.483         	1.396
MS.174         	18.448         	1.497
MS.175         	18.41          	1.213
MS.176         	18.372         	1.271
MS.177         	18.335         	1.033
MS.178         	18.3           	1.192
MS.179         	18.262         	1.259
MS.180         	18.227         	1.309
MS.181         	18.19          	1.309
MS.182         	18.153         	1.112
MS.183         	18.118         	0.755
MS.184         	18.08          	1.15
MS.185         	18.045         	1.047
MS.186         	18.01          	1.098
MS.187         	17.972         	0.9
MS.188         	17.938         	0.796
MS.189         	17.903         	0.687
MS.190         	17.865         	0.731
MS.191         	17.83          	0.761
MS.192         	17.795         	0.82
MS.193         	17.757         	0.743
MS.194         	17.722         	0.693
MS.195         	17.688         	0.586
MS.196         	17.653         	0.584
MS.197         	17.618         	0.649
MS.198         	17.583         	0.516
MS.199         	17.547         	0.5
MS.200         	17.512         	0.453
MS.201         	17.477         	0.354
MS.202         	17.442         	0.338
MS.203         	17.407         	0.318
MS.204         	17.372         	0.314
MS.205         	17.337         	0.409
MS.206         	17.302         	0.336
MS.207         	17.267         	0.29
MS.208         	17.235         	0.31
MS.209         	17.2           	0.314
MS.210         	17.165         	0.256
MS.211         	17.13          	0.246
MS.212         	17.097         	0.268
MS.213         	17.062         	0.228
MS.214         	17.028         	0.268
MS.215         	16.995         	0.232
MS.216         	16.96          	0.153
MS.217         	16.927         	0.211
MS.218         	16.892         	0.248
MS.219         	16.86          	0.22
MS.220         	16.825         	0.218
MS.221         	16.792         	0.252
MS.222         	16.757         	0.167
MS.223         	16.725         	0.216
MS.224         	16.69          	0.173
MS.225         	16.657         	0.294
MS.226         	16.625         	0.224
MS.227         	16.59          	0.226
MS.228         	16.557         	0.234
MS.229         	16.525         	0.224
MS.230         	16.493         	0.159
MS.231         	16.46          	0.139
MS.232         	16.425         	0.143
MS.233         	16.392         	0.224
MS.234         	16.36          	0.127
MS.235         	16.327         	0.075
MS.236         	16.295         	0.095
MS.237         	16.262         	0.167
MS.238         	16.23          	0.149
MS.239         	16.198         	0.121
MS.240         	16.165         	0.099
MS.241         	16.132         	0.238
MS.242         	16.1           	0.06
MS.243         	16.067         	0.093
MS.244         	16.038         	0.147
MS.245         	16.005         	0.085
MS.246         	15.972         	0.058
MS.247         	15.94          	0.032
MS.248         	15.91          	0.099
MS.249         	15.877         	0.038
MS.250         	15.845         	0.038
MS.251         	15.812         	0.073
MS.252         	15.782         	0.095
MS.253         	15.75          	0.03
MS.254         	15.72          	0.089
MS.255         	15.688         	0.026
MS.256         	15.657         	0.03
MS.257         	15.625         	0.03
MS.258         	15.595         	0.153
MS.259         	15.562         	0.032
MS.260         	15.532         	0.026
MS.261         	15.5           	0.034
MS.262         	15.47          	0.016
MS.263         	15.438         	0.026
MS.264         	15.407         	0.022
MS.265         	15.377         	0.018
MS.266         	15.347         	0.042
MS.267         	15.315         	0.018
MS.268         	15.285         	0.022
MS.269         	15.255         	0.024
MS.270         	15.225         	0.016
MS.271         	15.193         	0.018
MS.272         	15.162         	0.018
MS.273         	15.132         	0.02
MS.274         	15.102         	0.022
MS.275         	15.072         	0.02
MS.276         	15.042         	0.02
MS.277         	15.012         	0.02
MS.278         	14.983         	0.02
MS.279         	14.952         	0.018
MS.280         	14.922         	0.02
MS.281         	14.892         	0.012
MS.282         	14.862         	0.018
MS.283         	14.832         	0.016
MS.284         	14.802         	0.012
MS.285         	14.775         	0.018
MS.286         	14.745         	0.014
MS.287         	14.715         	0.014
MS.288         	14.685         	0.014
MS.289         	14.657         	0.014
MS.290         	14.627         	0.018
MS.291         	14.597         	0.018
MS.292         	14.568         	0.02
MS.293         	14.54          	0.02
MS.294         	14.51          	0.014
MS.295         	14.483         	0.018
MS.296         	14.452         	0.014
MS.297         	14.422         	0.014
MS.298         	14.395         	0.014
MS.299         	14.365         	0.018
MS.300         	14.337         	0.018
MS.301         	14.31          	0.014
MS.302         	14.28          	0.016
MS.303         	14.252         	0.014
MS.304         	14.222         	0.016
MS.305         	14.195         	0.012
MS.306         	14.167         	0.014
MS.307         	14.137         	0.012
MS.308         	14.11          	0.012
MS.309         	14.082         	0.008
MS.310         	14.052         	0.014
MS.311         	14.025         	0.02
MS.312         	13.997         	0.014
MS.313         	13.97          	0.012
MS.314         	13.943         	0.016
MS.315         	13.912         	0.014
MS.316         	13.885         	0.016
DERIVED EXCITABILITY VARIABLES
Program = QTracP 3/4/2020
Threshold method = 6 (optimised for CAP, using data for present condition only)
SR method = 1 (using actual data values)
6.                 	0.000               	Peak response\(mV)
9.                 	33.4                	Temperature ( C)
17.                	33                  	Age (years)
18.                	1                   	Sex (M=1, F=2)

EXTRA VARIABLES

MScPeak(mV) = 5.92
MScS5(mA) = 17.24
MScS50(mA) = 19.8
MScS95(mA) = 23.87
MScNSteps = 5
MScSteps(%) = 14.8
MScStepMax(%) = 4.8
MScD50 = 34
MScSlope = 6.41
MSFPeakAmp(mV) = 5.92
MSFNUnits = 85
MSFMeanUnitAmp(uV) = 69.6
MSFHuntTime(m) = 1.7
MSFError(%) = 6.39
MSFNLarge = 23.09
MSFMedianAmp(%) = 0.923
MSFMedianAmp(mV) = 0.0546
MSFHalfAmpAmp(%) = 1.49
MSFHalfAmpAmp(mV) = 0.0883
MSFLargestAmp(%) = 3.34
MSFLargestAmp(mV) = 0.197
MSFMeanRS(%) = 2
MSFOpts = 10106121
MScDuration(min) = 2.8
MSFTraces = 302
MSFSizeLimit(uV) = 14.8
MSFLimitType = 1
MSFSmallestAmp(uV) = 18.2

EXTRA WAVEFORMS


!MScan Model
!85
	1	15.89	1.07	2
	2	16.29	1.18	2
	3	16.54	0.31	2
	4	16.86	1.49	2
	5	17.1	0.63	2
	6	17.18	0.33	1.6
	7	17.29	0.56	2
	8	17.34	0.74	2
	9	17.41	0.64	2
	10	17.45	0.39	2
	11	17.48	0.41	2
	12	17.52	0.47	2
	13	17.56	0.44	2
	14	17.59	0.42	2
	15	17.63	0.51	2
	16	17.66	0.58	2
	17	17.7	0.69	2
	18	17.77	1.01	2
	19	17.83	1.12	2
	20	17.92	1.62	2
	21	18.02	1.3	2
	22	18.14	1.8	2
	23	18.28	2.35	2
	24	18.43	2.38	2
	25	18.55	1.71	2
	26	18.61	0.84	2
	27	18.67	0.74	2
	28	18.73	0.8	2
	29	18.79	0.8	2
	30	18.83	0.54	2
	31	18.86	0.58	2
	32	18.9	0.57	2
	33	18.96	0.92	2
	34	19.2	2.85	2
	35	19.3	2.96	2
	36	19.37	1.54	2
	37	19.43	0.92	2
	38	19.49	2.58	2
	39	19.56	1.9	2
	40	19.62	1.57	2
	41	19.68	1.46	2
	42	19.77	2.93	2
	43	19.89	2.14	2
	44	20.01	3.34	2
	45	20.12	2.24	2
	46	20.17	0.79	2
	47	20.22	0.79	2
	48	20.28	0.83	2
	49	20.33	0.84	2
	50	20.37	0.66	2
	51	20.41	0.48	2
	52	20.45	0.42	2
	53	20.49	0.53	2
	54	20.54	0.68	2
	55	20.59	0.77	2
	56	20.64	0.83	2
	57	20.69	0.8	2
	58	20.74	0.74	2
	59	20.81	1.14	2
	60	20.91	1.23	2
	61	21.03	1.36	2
	62	21.16	1.19	2
	63	21.31	1.86	2
	64	21.43	1.37	2
	65	21.54	1.41	2
	66	21.7	1.83	2
	67	21.86	1.48	2
	68	22.01	1.45	2
	69	22.15	1.74	2
	70	22.37	2	2
	71	22.65	2.44	2
	72	22.94	2.66	2
	73	23.2	1.82	2
	74	23.41	1.6	2
	75	23.51	0.96	2
	76	23.6	0.95	2
	77	23.67	0.62	2
	78	23.74	0.58	2
	79	23.81	0.67	2
	80	23.87	0.72	2
	81	23.93	0.56	2
	82	23.98	0.37	2
	83	24.04	0.39	2
	84	24.14	0.92	2
	85	24.27	1.16	2

