File:              	C:\Qtrac\Data\Daniel M Sørensen\MScan multicentre study\Data from centres\Oxford\Raw data (sorted for use)\ATC01203B.QZD
Name:              	UK.OXF.NC.1.1
Protocol:          	MSCAN-R2
Date:              	3/12/20
Start time:        	16:40:51
Age:               	37
Sex:               	M
Temperature:       	35.2
S/R sites:         	ADM
NC/disease:        	HC
Operator:          	AT
Comments:          	HC first trial
M-SCAN DATA (Repeat 2/2, 8.5-5.8m)
Scanpts: 15, 19, 238, 243
Stim. (mA)     	Amp. (mV)
MS.1           	25.5           	5.251
MS.2           	25.5           	5.247
MS.3           	25.5           	5.247
MS.4           	25.5           	5.249
MS.5           	25.5           	5.239
MS.6           	25.5           	5.186
MS.7           	25.5           	5.203
MS.8           	25.5           	5.213
MS.9           	25.5           	5.305
MS.10          	25.5           	5.249
MS.11          	25.5           	5.249
MS.12          	25.5           	5.166
MS.13          	25.5           	5.245
MS.14          	25.5           	5.265
MS.15          	25.5           	5.215
MS.16          	25.5           	5.17
MS.17          	25.5           	5.253
MS.18          	25.5           	5.229
MS.19          	25.5           	5.219
MS.20          	25.5           	5.184
MS.21          	25.5           	5.193
MS.22          	25.5           	5.193
MS.23          	25.5           	5.201
MS.24          	25.45          	5.197
MS.25          	25.397         	5.186
MS.26          	25.347         	5.104
MS.27          	25.297         	5.146
MS.28          	25.247         	5.162
MS.29          	25.195         	5.116
MS.30          	25.145         	5.18
MS.31          	25.095         	5.152
MS.32          	25.045         	5.013
MS.33          	24.995         	4.947
MS.34          	24.945         	4.945
MS.35          	24.895         	4.995
MS.36          	24.845         	5.041
MS.37          	24.795         	5.003
MS.38          	24.747         	4.931
MS.39          	24.698         	4.83
MS.40          	24.647         	4.671
MS.41          	24.597         	4.868
MS.42          	24.55          	4.713
MS.43          	24.5           	4.631
MS.44          	24.45          	4.782
MS.45          	24.403         	4.534
MS.46          	24.352         	4.504
MS.47          	24.305         	4.451
MS.48          	24.257         	4.397
MS.49          	24.207         	4.492
MS.50          	24.16          	4.459
MS.51          	24.11          	4.449
MS.52          	24.062         	4.24
MS.53          	24.015         	4.429
MS.54          	23.967         	4.246
MS.55          	23.92          	4.296
MS.56          	23.872         	4.214
MS.57          	23.823         	3.986
MS.58          	23.775         	4.111
MS.59          	23.727         	4.093
MS.60          	23.68          	4.195
MS.61          	23.635         	4.167
MS.62          	23.587         	4.034
MS.63          	23.54          	3.881
MS.64          	23.493         	3.996
MS.65          	23.445         	3.926
MS.66          	23.397         	3.847
MS.67          	23.352         	3.716
MS.68          	23.305         	3.813
MS.69          	23.257         	3.883
MS.70          	23.212         	3.799
MS.71          	23.165         	3.746
MS.72          	23.12          	3.617
MS.73          	23.073         	3.255
MS.74          	23.028         	3.354
MS.75          	22.98          	3.597
MS.76          	22.935         	3.196
MS.77          	22.89          	3.297
MS.78          	22.845         	3.203
MS.79          	22.797         	2.993
MS.80          	22.752         	3.198
MS.81          	22.707         	2.937
MS.82          	22.663         	2.83
MS.83          	22.618         	2.965
MS.84          	22.573         	2.937
MS.85          	22.525         	3.17
MS.86          	22.48          	2.882
MS.87          	22.438         	2.524
MS.88          	22.392         	2.602
MS.89          	22.347         	2.86
MS.90          	22.302         	2.369
MS.91          	22.257         	2.689
MS.92          	22.212         	2.189
MS.93          	22.167         	2.308
MS.94          	22.125         	2.429
MS.95          	22.08          	2.387
MS.96          	22.035         	2.117
MS.97          	21.993         	2.31
MS.98          	21.948         	2
MS.99          	21.905         	1.587
MS.100         	21.86          	1.509
MS.101         	21.817         	1.444
MS.102         	21.772         	1.652
MS.103         	21.73          	1.343
MS.104         	21.688         	1.047
MS.105         	21.642         	1.235
MS.106         	21.6           	1.468
MS.107         	21.557         	1.789
MS.108         	21.512         	0.963
MS.109         	21.47          	1.118
MS.110         	21.427         	1.013
MS.111         	21.385         	1.09
MS.112         	21.342         	1.025
MS.113         	21.3           	0.947
MS.114         	21.257         	0.806
MS.115         	21.215         	0.832
MS.116         	21.172         	0.584
MS.117         	21.13          	0.536
MS.118         	21.087         	0.612
MS.119         	21.045         	0.53
MS.120         	21.002         	0.62
MS.121         	20.962         	0.604
MS.122         	20.92          	0.5
MS.123         	20.877         	0.479
MS.124         	20.835         	0.54
MS.125         	20.795         	0.417
MS.126         	20.752         	0.544
MS.127         	20.712         	0.489
MS.128         	20.67          	0.373
MS.129         	20.627         	0.532
MS.130         	20.587         	0.367
MS.131         	20.545         	0.29
MS.132         	20.505         	0.328
MS.133         	20.465         	0.31
MS.134         	20.422         	0.316
MS.135         	20.382         	0.332
MS.136         	20.342         	0.282
MS.137         	20.3           	0.308
MS.138         	20.26          	0.246
MS.139         	20.22          	0.27
MS.140         	20.18          	0.264
MS.141         	20.14          	0.314
MS.142         	20.1           	0.27
MS.143         	20.06          	0.189
MS.144         	20.02          	0.236
MS.145         	19.98          	0.254
MS.146         	19.94          	0.25
MS.147         	19.9           	0.284
MS.148         	19.86          	0.207
MS.149         	19.82          	0.246
MS.150         	19.78          	0.211
MS.151         	19.74          	0.218
MS.152         	19.7           	0.22
MS.153         	19.663         	0.203
MS.154         	19.622         	0.211
MS.155         	19.583         	0.214
MS.156         	19.545         	0.216
MS.157         	19.505         	0.22
MS.158         	19.465         	0.209
MS.159         	19.427         	0.209
MS.160         	19.387         	0.209
MS.161         	19.35          	0.205
MS.162         	19.31          	0.218
MS.163         	19.272         	0.224
MS.164         	19.235         	0.216
MS.165         	19.195         	0.216
MS.166         	19.157         	0.209
MS.167         	19.12          	0.209
MS.168         	19.08          	0.209
MS.169         	19.042         	0.216
MS.170         	19.005         	0.203
MS.171         	18.967         	0.205
MS.172         	18.927         	0.201
MS.173         	18.89          	0.203
MS.174         	18.852         	0.209
MS.175         	18.815         	0.205
MS.176         	18.778         	0.211
MS.177         	18.74          	0.203
MS.178         	18.702         	0.201
MS.179         	18.665         	0.211
MS.180         	18.628         	0.209
MS.181         	18.59          	0.207
MS.182         	18.555         	0.214
MS.183         	18.517         	0.207
MS.184         	18.48          	0.209
MS.185         	18.442         	0.207
MS.186         	18.405         	0.209
MS.187         	18.37          	0.207
MS.188         	18.333         	0.113
MS.189         	18.295         	0.109
MS.190         	18.26          	0.105
MS.191         	18.222         	0.211
MS.192         	18.188         	0.214
MS.193         	18.15          	0.103
MS.194         	18.115         	0.111
MS.195         	18.077         	0.209
MS.196         	18.042         	0.115
MS.197         	18.005         	0.109
MS.198         	17.97          	0.211
MS.199         	17.932         	0.111
MS.200         	17.897         	0.111
MS.201         	17.862         	0.109
MS.202         	17.827         	0.113
MS.203         	17.79          	0.115
MS.204         	17.755         	0.109
MS.205         	17.72          	0.075
MS.206         	17.685         	0.073
MS.207         	17.65          	0.115
MS.208         	17.612         	0.115
MS.209         	17.577         	0.073
MS.210         	17.542         	0.111
MS.211         	17.507         	0.077
MS.212         	17.472         	0.077
MS.213         	17.438         	0.109
MS.214         	17.403         	0.115
MS.215         	17.37          	0.077
MS.216         	17.335         	0.079
MS.217         	17.3           	0.077
MS.218         	17.265         	0.115
MS.219         	17.23          	0.075
MS.220         	17.195         	0.077
MS.221         	17.163         	0.075
MS.222         	17.128         	0.075
MS.223         	17.092         	0.036
MS.224         	17.06          	0.036
MS.225         	17.025         	0.07
MS.226         	16.99          	0.077
MS.227         	16.958         	0.077
MS.228         	16.922         	0.038
MS.229         	16.89          	0.077
MS.230         	16.855         	0.036
MS.231         	16.823         	0.073
MS.232         	16.788         	0.034
MS.233         	16.755         	0.042
MS.234         	16.72          	0.036
MS.235         	16.688         	0.068
MS.236         	16.655         	0.075
MS.237         	16.62          	0.042
MS.238         	16.587         	0.04
MS.239         	16.555         	0.04
MS.240         	16.522         	0.034
MS.241         	16.49          	0.038
MS.242         	16.455         	0.04
MS.243         	16.422         	0.038
MS.244         	16.39          	0.038
MS.245         	16.358         	0.04
MS.246         	16.325         	0.04
MS.247         	16.292         	0.044
MS.248         	16.26          	0.042
MS.249         	16.227         	0.038
MS.250         	16.195         	0.038
MS.251         	16.163         	0.042
MS.252         	16.13          	0.042
MS.253         	16.097         	0.042
MS.254         	16.065         	0.04
MS.255         	16.032         	0.042
MS.256         	16.003         	0.042
MS.257         	15.97          	0.04
MS.258         	15.938         	0.042
MS.259         	15.905         	0.044
MS.260         	15.875         	0.04
MS.261         	15.842         	0.046
MS.262         	15.81          	0.042
MS.263         	15.78          	0.038
MS.264         	15.747         	0.044
MS.265         	15.715         	0.042
MS.266         	15.685         	0.044
MS.267         	15.652         	0.042
MS.268         	15.622         	0.042
MS.269         	15.59          	0.036
MS.270         	15.56          	0.04
MS.271         	15.527         	0.042
MS.272         	15.497         	0.044
MS.273         	15.467         	0.042
MS.274         	15.435         	0.042
MS.275         	15.405         	0.044
MS.276         	15.375         	0.044
MS.277         	15.342         	0.042
MS.278         	15.312         	0.044
MS.279         	15.282         	0.046
MS.280         	15.252         	0.042
MS.281         	15.22          	0.044
MS.282         	15.19          	0.044
MS.283         	15.16          	0.044
MS.284         	15.13          	0.048
MS.285         	15.1           	0.042
MS.286         	15.07          	0.046
MS.287         	15.04          	0.046
MS.288         	15.01          	0.044
MS.289         	14.98          	0.042
MS.290         	14.95          	0.044
MS.291         	14.92          	0.048
MS.292         	14.89          	0.044
MS.293         	14.86          	0.046
MS.294         	14.83          	0.046
MS.295         	14.8           	0.048
MS.296         	14.77          	0.046
MS.297         	14.742         	0.046
MS.298         	14.712         	0.05
MS.299         	14.682         	0.048
MS.300         	14.652         	0.05
MS.301         	14.625         	0.046
MS.302         	14.595         	0.048
MS.303         	14.565         	0.046
MS.304         	14.537         	0.05
MS.305         	14.507         	0.046
MS.306         	14.477         	0.05
MS.307         	14.45          	0.05
MS.308         	14.42          	0.05
MS.309         	14.392         	0.05
MS.310         	14.362         	0.048
DERIVED EXCITABILITY VARIABLES
Program = QTracP 3/4/2020
Threshold method = 6 (optimised for CAP, using data for present condition only)
SR method = 1 (using actual data values)
6.                 	0.000               	Peak response\(mV)
9.                 	35.2                	Temperature ( C)
17.                	37                  	Age (years)
18.                	1                   	Sex (M=1, F=2)

EXTRA VARIABLES

MScPeak(mV) = 5.18
MScS5(mA) = 20.08
MScS50(mA) = 22.34
MScS95(mA) = 24.74
MScNSteps = 3
MScSteps(%) = 12.2
MScStepMax(%) = 4.7
MScD50 = 23
MScSlope = 11.94
MSFPeakAmp(mV) = 5.18
MSFNUnits = 81
MSFMeanUnitAmp(uV) = 63.9
MSFHuntTime(m) = 0.93
MSFError(%) = 5.19
MSFNLarge = 21.82
MSFMedianAmp(%) = 1.05
MSFMedianAmp(mV) = 0.0545
MSFHalfAmpAmp(%) = 1.36
MSFHalfAmpAmp(mV) = 0.0706
MSFLargestAmp(%) = 5.38
MSFLargestAmp(mV) = 0.279
MSFMeanRS(%) = 2
MSFOpts = 10106121
MSFTraces = 229
MSFSizeLimit(uV) = 12.9
MSFLimitType = 1
MSFSmallestAmp(uV) = 20.8

EXTRA WAVEFORMS


!MScan Model
!81
	1	16.99	0.4	2
	2	17.28	0.41	2
	3	17.94	0.97	2
	4	18.41	1.08	2
	5	19.74	0.81	2
	6	20.07	0.57	2
	7	20.32	0.73	2
	8	20.44	0.72	2
	9	20.5	0.6	2
	10	20.57	0.68	2
	11	20.64	0.42	2
	12	20.71	0.56	2
	13	20.83	1.18	2
	14	20.97	1.09	2
	15	21.01	0.47	2
	16	21.07	1.08	2
	17	21.11	0.54	2
	18	21.13	0.54	2
	19	21.15	0.54	2
	20	21.19	0.77	2
	21	21.25	1.41	2
	22	21.31	1.32	2
	23	21.37	2.04	2
	24	21.6	5.38	2
	25	21.69	2.12	2
	26	21.79	4.62	2
	27	21.85	2.17	2
	28	21.9	1.68	2
	29	21.95	1.24	2
	30	21.99	1.85	2
	31	22.05	2.14	2
	32	22.15	4.64	2
	33	22.25	3.5	2
	34	22.34	2.37	2
	35	22.42	1.3	2
	36	22.51	2.13	2
	37	22.58	1.97	2
	38	22.66	1.77	2
	39	22.72	1.38	2
	40	22.76	0.85	2
	41	22.8	0.89	2
	42	22.87	0.89	2
	43	22.91	1.12	2
	44	22.95	1.23	2
	45	23	1.51	2
	46	23.05	1.36	2
	47	23.1	1.17	2
	48	23.15	1.19	2
	49	23.21	1.36	2
	50	23.27	1.55	2
	51	23.33	1.68	2
	52	23.39	0.98	2
	53	23.45	1.05	2
	54	23.58	1.16	2
	55	23.66	1.06	2
	56	23.75	1.54	2
	57	23.84	1.44	2
	58	23.92	1	2
	59	23.99	0.66	2
	60	24.06	0.7	2
	61	24.13	0.88	2
	62	24.18	0.7	2
	63	24.23	0.82	2
	64	24.28	0.89	2
	65	24.33	0.78	2
	66	24.37	0.6	2
	67	24.4	0.47	2
	68	24.43	0.47	2
	69	24.46	0.48	2
	70	24.49	0.5	2
	71	24.52	0.56	2
	72	24.56	0.58	2
	73	24.59	0.58	2
	74	24.64	0.93	2
	75	24.7	1.13	2
	76	24.76	0.52	2
	77	24.82	0.78	2
	78	24.92	1.28	2
	79	25.05	1.34	2
	80	25.23	1.35	2
	81	25.42	0.78	2

