File:              	C:\Qtrac\Data\Daniel M Sørensen\MScan multicentre study\Data from centres\Oxford\Processed data\ATC01211F.QZD
Name:              	UK.OXF.NC.2.2
Protocol:          	MSCAN-R2
Date:              	11/12/20
Start time:        	17:26:33
Age:               	29
Sex:               	M
Temperature:       	31
S/R sites:         	ADM
NC/disease:        	NC
Operator:          	AT
Comments:          	Ulnar N ADM 2nd
M-SCAN DATA (4.5-1.1m)
Scanpts: 3, 7, 361, 383
Stim. (mA)     	Amp. (mV)
MS.1           	20             	4.89
MS.2           	20             	4.892
MS.3           	20             	4.921
MS.4           	20             	4.874
MS.5           	20             	4.88
MS.6           	20             	4.854
MS.7           	20             	4.868
MS.8           	20             	4.886
MS.9           	20             	4.85
MS.10          	20             	4.85
MS.11          	20             	4.782
MS.12          	20             	4.81
MS.13          	20             	4.852
MS.14          	20             	4.792
MS.15          	20             	4.786
MS.16          	20             	4.761
MS.17          	20             	4.759
MS.18          	20             	4.778
MS.19          	20             	4.737
MS.20          	20             	4.838
MS.21          	20             	4.772
MS.22          	20             	4.735
MS.23          	20             	4.727
MS.24          	19.92          	4.745
MS.25          	19.88          	4.751
MS.26          	19.84          	4.679
MS.27          	19.8           	4.751
MS.28          	19.762         	4.788
MS.29          	19.722         	4.812
MS.30          	19.682         	4.81
MS.31          	19.642         	4.778
MS.32          	19.605         	4.753
MS.33          	19.565         	4.766
MS.34          	19.525         	4.647
MS.35          	19.487         	4.794
MS.36          	19.448         	4.808
MS.37          	19.41          	4.784
MS.38          	19.37          	4.79
MS.39          	19.333         	4.808
MS.40          	19.292         	4.693
MS.41          	19.255         	4.681
MS.42          	19.215         	4.687
MS.43          	19.177         	4.731
MS.44          	19.14          	4.592
MS.45          	19.1           	3.901
MS.46          	19.062         	4.385
MS.47          	19.025         	4.004
MS.48          	18.987         	4.274
MS.49          	18.948         	3.938
MS.50          	18.91          	3.787
MS.51          	18.872         	4.391
MS.52          	18.835         	4.04
MS.53          	18.797         	4.294
MS.54          	18.76          	4.02
MS.55          	18.722         	3.952
MS.56          	18.685         	3.907
MS.57          	18.647         	4.04
MS.58          	18.61          	3.732
MS.59          	18.573         	4.109
MS.60          	18.535         	4.232
MS.61          	18.5           	3.909
MS.62          	18.462         	3.996
MS.63          	18.425         	4.119
MS.64          	18.387         	3.883
MS.65          	18.352         	3.821
MS.66          	18.315         	4.367
MS.67          	18.278         	4.618
MS.68          	18.243         	4.238
MS.69          	18.205         	4.286
MS.70          	18.17          	3.823
MS.71          	18.132         	3.474
MS.72          	18.097         	4.117
MS.73          	18.06          	3.402
MS.74          	18.025         	3.446
MS.75          	17.987         	3.623
MS.76          	17.952         	3.644
MS.77          	17.917         	3.474
MS.78          	17.88          	3.476
MS.79          	17.845         	3.474
MS.80          	17.81          	3.43
MS.81          	17.775         	3.323
MS.82          	17.737         	3.364
MS.83          	17.702         	3.487
MS.84          	17.667         	3.482
MS.85          	17.632         	3.265
MS.86          	17.597         	3.432
MS.87          	17.562         	3.239
MS.88          	17.528         	3.468
MS.89          	17.493         	3.346
MS.90          	17.458         	3.291
MS.91          	17.422         	3.055
MS.92          	17.387         	3.146
MS.93          	17.352         	3.064
MS.94          	17.317         	3.027
MS.95          	17.282         	3.013
MS.96          	17.247         	2.941
MS.97          	17.215         	3.068
MS.98          	17.18          	3.047
MS.99          	17.145         	3.029
MS.100         	17.11          	3.035
MS.101         	17.077         	3.041
MS.102         	17.042         	2.61
MS.103         	17.01          	2.788
MS.104         	16.975         	2.933
MS.105         	16.94          	2.624
MS.106         	16.907         	2.655
MS.107         	16.872         	2.703
MS.108         	16.84          	2.707
MS.109         	16.805         	2.423
MS.110         	16.772         	2.409
MS.111         	16.74          	2.3
MS.112         	16.705         	2.612
MS.113         	16.672         	2.457
MS.114         	16.637         	2.473
MS.115         	16.605         	2.357
MS.116         	16.573         	1.94
MS.117         	16.54          	2.099
MS.118         	16.505         	1.811
MS.119         	16.472         	1.881
MS.120         	16.44          	1.954
MS.121         	16.407         	1.789
MS.122         	16.375         	1.817
MS.123         	16.342         	2
MS.124         	16.31          	1.875
MS.125         	16.278         	1.686
MS.126         	16.245         	1.374
MS.127         	16.212         	1.366
MS.128         	16.18          	1.599
MS.129         	16.147         	1.408
MS.130         	16.115         	1.354
MS.131         	16.083         	1.482
MS.132         	16.05          	1.39
MS.133         	16.017         	1.025
MS.134         	15.985         	0.989
MS.135         	15.955         	1.317
MS.136         	15.922         	1.229
MS.137         	15.89          	1.118
MS.138         	15.86          	1.11
MS.139         	15.827         	1.126
MS.140         	15.795         	0.796
MS.141         	15.765         	0.9
MS.142         	15.733         	0.947
MS.143         	15.7           	0.717
MS.144         	15.67          	0.91
MS.145         	15.637         	0.804
MS.146         	15.608         	0.757
MS.147         	15.575         	0.701
MS.148         	15.545         	0.699
MS.149         	15.515         	0.85
MS.150         	15.483         	0.713
MS.151         	15.452         	0.761
MS.152         	15.42          	0.667
MS.153         	15.39          	0.711
MS.154         	15.36          	0.657
MS.155         	15.327         	0.719
MS.156         	15.297         	0.679
MS.157         	15.267         	0.651
MS.158         	15.237         	0.689
MS.159         	15.207         	0.628
MS.160         	15.175         	0.62
MS.161         	15.145         	0.58
MS.162         	15.115         	0.624
MS.163         	15.085         	0.62
MS.164         	15.055         	0.622
MS.165         	15.025         	0.592
MS.166         	14.995         	0.602
MS.167         	14.965         	0.598
MS.168         	14.935         	0.588
MS.169         	14.905         	0.661
MS.170         	14.875         	0.516
MS.171         	14.845         	0.504
MS.172         	14.818         	0.582
MS.173         	14.787         	0.586
MS.174         	14.757         	0.481
MS.175         	14.727         	0.594
MS.176         	14.697         	0.534
MS.177         	14.67          	0.443
MS.178         	14.64          	0.562
MS.179         	14.61          	0.413
MS.180         	14.58          	0.518
MS.181         	14.552         	0.485
MS.182         	14.523         	0.506
MS.183         	14.495         	0.495
MS.184         	14.465         	0.487
MS.185         	14.435         	0.53
MS.186         	14.407         	0.445
MS.187         	14.377         	0.57
MS.188         	14.35          	0.427
MS.189         	14.32          	0.459
MS.190         	14.292         	0.429
MS.191         	14.265         	0.443
MS.192         	14.235         	0.504
MS.193         	14.207         	0.491
MS.194         	14.177         	0.413
MS.195         	14.15          	0.419
MS.196         	14.122         	0.419
MS.197         	14.092         	0.437
MS.198         	14.065         	0.457
MS.199         	14.037         	0.431
MS.200         	14.01          	0.385
MS.201         	13.983         	0.419
MS.202         	13.952         	0.395
MS.203         	13.925         	0.433
MS.204         	13.898         	0.443
MS.205         	13.87          	0.413
MS.206         	13.842         	0.401
MS.207         	13.815         	0.359
MS.208         	13.787         	0.403
MS.209         	13.76          	0.391
MS.210         	13.733         	0.437
MS.211         	13.705         	0.427
MS.212         	13.677         	0.453
MS.213         	13.65          	0.423
MS.214         	13.622         	0.344
MS.215         	13.595         	0.199
MS.216         	13.568         	0.332
MS.217         	13.54          	0.342
MS.218         	13.515         	0.224
MS.219         	13.487         	0.22
MS.220         	13.46          	0.387
MS.221         	13.432         	0.244
MS.222         	13.407         	0.397
MS.223         	13.38          	0.155
MS.224         	13.352         	0.274
MS.225         	13.325         	0.387
MS.226         	13.3           	0.197
MS.227         	13.273         	0.238
MS.228         	13.247         	0.155
MS.229         	13.22          	0.165
MS.230         	13.193         	0.141
MS.231         	13.167         	0.163
MS.232         	13.14          	0.165
MS.233         	13.115         	0.153
MS.234         	13.087         	0.165
MS.235         	13.062         	0.165
MS.236         	13.035         	0.256
MS.237         	13.01          	0.155
MS.238         	12.985         	0.165
MS.239         	12.957         	0.165
MS.240         	12.932         	0.254
MS.241         	12.907         	0.25
MS.242         	12.88          	0.248
MS.243         	12.855         	0.163
MS.244         	12.83          	0.165
MS.245         	12.802         	0.252
MS.246         	12.778         	0.161
MS.247         	12.752         	0.254
MS.248         	12.727         	0.159
MS.249         	12.702         	0.157
MS.250         	12.675         	0.165
MS.251         	12.65          	0.163
MS.252         	12.625         	0.161
MS.253         	12.6           	0.161
MS.254         	12.575         	0.165
MS.255         	12.55          	0.163
MS.256         	12.525         	0.161
MS.257         	12.5           	0.165
MS.258         	12.475         	0.07
MS.259         	12.45          	0.163
MS.260         	12.425         	0.068
MS.261         	12.4           	0.075
MS.262         	12.375         	0.073
MS.263         	12.35          	0.07
MS.264         	12.325         	0.163
MS.265         	12.302         	0.075
MS.266         	12.278         	0.073
MS.267         	12.252         	0.075
MS.268         	12.227         	0.077
MS.269         	12.202         	0.07
MS.270         	12.18          	0.07
MS.271         	12.155         	0.079
MS.272         	12.13          	0.077
MS.273         	12.108         	0.077
MS.274         	12.082         	0.07
MS.275         	12.057         	0.167
MS.276         	12.035         	0.073
MS.277         	12.01          	0.073
MS.278         	11.985         	0.081
MS.279         	11.962         	0.079
MS.280         	11.938         	0.075
MS.281         	11.915         	0.077
MS.282         	11.89          	0.079
MS.283         	11.867         	0.079
MS.284         	11.842         	0.066
MS.285         	11.82          	0.079
MS.286         	11.795         	0.064
MS.287         	11.773         	0.077
MS.288         	11.747         	0.075
MS.289         	11.725         	0.077
MS.290         	11.702         	0.068
MS.291         	11.677         	0.077
MS.292         	11.655         	0.081
MS.293         	11.632         	0.079
MS.294         	11.608         	0.07
MS.295         	11.585         	0.075
MS.296         	11.562         	0.083
MS.297         	11.54          	0.073
MS.298         	11.515         	0.064
MS.299         	11.492         	0.07
MS.300         	11.47          	0.066
MS.301         	11.447         	0.079
MS.302         	11.425         	0.079
MS.303         	11.403         	0.066
MS.304         	11.377         	0.07
MS.305         	11.355         	0.081
MS.306         	11.332         	0.077
MS.307         	11.31          	0.083
MS.308         	11.287         	0.073
MS.309         	11.265         	0.073
MS.310         	11.242         	0.032
MS.311         	11.22          	0.075
MS.312         	11.197         	0.073
MS.313         	11.175         	0.068
MS.314         	11.153         	0.07
MS.315         	11.13          	0.066
MS.316         	11.108         	0.022
MS.317         	11.087         	0.07
MS.318         	11.065         	0.073
MS.319         	11.042         	0.022
MS.320         	11.02          	0.024
MS.321         	10.997         	0.068
MS.322         	10.975         	0.024
MS.323         	10.955         	0.02
MS.324         	10.932         	0.07
MS.325         	10.91          	0.022
MS.326         	10.887         	0.026
MS.327         	10.867         	0.022
MS.328         	10.845         	0.068
MS.329         	10.823         	0.018
MS.330         	10.802         	0.07
MS.331         	10.78          	0.022
MS.332         	10.76          	0.022
MS.333         	10.738         	0.02
MS.334         	10.715         	0.022
MS.335         	10.695         	0.02
MS.336         	10.672         	0.022
MS.337         	10.653         	0.022
MS.338         	10.63          	0.022
MS.339         	10.61          	0.02
MS.340         	10.587         	0.02
MS.341         	10.568         	0.02
MS.342         	10.545         	0.022
MS.343         	10.525         	0.02
MS.344         	10.502         	0.022
MS.345         	10.483         	0.02
MS.346         	10.462         	0.02
MS.347         	10.44          	0.018
MS.348         	10.42          	0.02
MS.349         	10.4           	0.02
MS.350         	10.377         	0.018
MS.351         	10.358         	0.02
MS.352         	10.337         	0.018
MS.353         	10.318         	0.022
MS.354         	10.295         	0.022
MS.355         	10.275         	0.018
MS.356         	10.255         	0.018
MS.357         	10.235         	0.02
MS.358         	10.212         	0.02
MS.359         	10.193         	0.02
MS.360         	10.172         	0.018
MS.361         	10.153         	0.018
MS.362         	10.132         	0.022
MS.363         	10.113         	0.018
MS.364         	10.092         	0.02
MS.365         	10.073         	0.018
MS.366         	10.052         	0.02
MS.367         	10.032         	0.02
MS.368         	10.012         	0.02
MS.369         	9.992          	0.02
MS.370         	9.972          	0.016
MS.371         	9.952          	0.018
MS.372         	9.932          	0.02
MS.373         	9.912          	0.018
MS.374         	9.892          	0.016
MS.375         	9.872          	0.018
MS.376         	9.852          	0.018
MS.377         	9.832          	0.02
MS.378         	9.812          	0.018
MS.379         	9.792          	0.02
MS.380         	9.775          	0.02
MS.381         	9.755          	0.018
MS.382         	9.735          	0.022
MS.383         	9.715          	0.022
DERIVED EXCITABILITY VARIABLES
Program = QTracP 3/4/2020
Threshold method = 6 (optimised for CAP, using data for present condition only)
SR method = 1 (using actual data values)
6.                 	0.000               	Peak response\(mV)
9.                 	31                  	Temperature ( C)
17.                	29                  	Age (years)
18.                	1                   	Sex (M=1, F=2)

EXTRA VARIABLES

MScPeak(mV) = 4.81
MScS5(mA) = 13.15
MScS50(mA) = 16.71
MScS95(mA) = 18.57
MScNSteps = 5
MScSteps(%) = 16.6
MScStepMax(%) = 4.2
MScD50 = 25
MScSlope = 8.01
MSFPeakAmp(mV) = 4.86
MSFNUnits = 61
MSFMeanUnitAmp(uV) = 79.7
MSFHuntTime(m) = 1.75
MSFError(%) = 3.93
MSFNLarge = 17.6
MSFMedianAmp(%) = 1.51
MSFMedianAmp(mV) = 0.0732
MSFHalfAmpAmp(%) = 1.72
MSFHalfAmpAmp(mV) = 0.0838
MSFLargestAmp(%) = 7.15
MSFLargestAmp(mV) = 0.348
MSFMeanRS(%) = 1.96
MSFOpts = 10106121
MScDuration(min) = 3.4
MSFTraces = 381
MSFSizeLimit(uV) = 15.9
MSFLimitType = 3
MSFSmallestAmp(uV) = 24.2

EXTRA WAVEFORMS


!MScan Model
!61
	1	11.08	0.62	2
	2	12.31	0.82	2
	3	12.43	0.65	2
	4	12.68	1.22	2
	5	13.2	0.52	2
	6	13.49	2.44	2
	7	13.66	1.69	2.4
	8	14.14	1.07	2
	9	14.64	1.57	2
	10	14.82	0.84	2
	11	14.99	0.8	2
	12	15.12	0.76	2
	13	15.25	0.54	2
	14	15.35	0.73	2
	15	15.52	1.14	2
	16	15.6	1.07	2
	17	15.68	1.37	2
	18	15.77	1.56	2
	19	15.84	1.39	2
	20	15.89	1.72	2
	21	15.94	1.56	2
	22	15.99	1.6	2
	23	16.05	1.65	2
	24	16.11	1.81	2
	25	16.18	2.17	2
	26	16.25	2.01	2
	27	16.3	1.48	2
	28	16.34	1.14	2
	29	16.38	1.51	2
	30	16.42	1.6	2
	31	16.46	1.53	2
	32	16.49	1.13	2
	33	16.53	0.94	2
	34	16.56	1.21	2
	35	16.6	1.35	2
	36	16.65	1.89	2
	37	16.7	2.01	2
	38	16.75	1.84	2
	39	16.8	1.65	2
	40	16.86	1.45	2
	41	16.92	1.59	2
	42	17	2.29	2
	43	17.09	1.07	2
	44	17.09	0.71	2
	45	17.18	1.72	2
	46	17.26	1.8	2
	47	17.32	1.11	2
	48	17.37	0.82	2
	49	17.41	0.51	2
	50	17.46	0.93	2
	51	17.6	2.25	2
	52	17.86	2.17	2
	53	17.86	0.54	2
	54	17.96	3.79	2
	55	18.11	4.9	1.6
	56	18.88	6.31	1.6
	57	18.92	7.15	2
	58	19	1.93	2
	59	19.09	2.21	2
	60	20.28	1.62	2
	61	20.43	0.5	2

