File:              	C:\Qtrac\Data\Daniel M Sørensen\MScan multicentre study\Data from centres\Oxford\Raw data (sorted for use)\ATC01207J.QZD
Name:              	UK.OXF.NC.5.1
Protocol:          	MSCAN-R2
Date:              	7/12/20
Start time:        	15:32:12
Age:               	48
Sex:               	F
Temperature:       	34.6
S/R sites:         	ADM
NC/disease:        	NC
Operator:          	AT
Comments:          	HC Ulnar N ADM 1st
M-SCAN DATA (10.8-2.1m)
Scanpts: 164, 167, 582, 592
Stim. (mA)     	Amp. (mV)
MS.1           	21.5           	5.891
MS.2           	21.5           	5.807
MS.3           	21.5           	5.962
MS.4           	21.5           	5.855
MS.5           	21.5           	5.863
MS.6           	21.5           	5.899
MS.7           	21.5           	5.847
MS.8           	21.5           	5.736
MS.9           	21.5           	6
MS.10          	21.5           	5.897
MS.11          	21.5           	5.807
MS.12          	21.5           	5.722
MS.13          	21.5           	5.837
MS.14          	21.5           	5.827
MS.15          	21.5           	5.879
MS.16          	21.5           	5.853
MS.17          	21.5           	5.879
MS.18          	21.5           	5.885
MS.19          	21.5           	5.845
MS.20          	21.5           	5.825
MS.21          	21.5           	5.793
MS.22          	21.5           	5.811
MS.23          	21.5           	5.783
MS.24          	21.415         	5.855
MS.25          	21.372         	5.773
MS.26          	21.327         	5.728
MS.27          	21.285         	5.823
MS.28          	21.243         	5.893
MS.29          	21.2           	5.769
MS.30          	21.157         	5.726
MS.31          	21.118         	5.748
MS.32          	21.075         	5.765
MS.33          	21.032         	5.787
MS.34          	20.99          	5.779
MS.35          	20.948         	5.777
MS.36          	20.907         	5.765
MS.37          	20.865         	5.789
MS.38          	20.823         	5.744
MS.39          	20.78          	5.754
MS.40          	20.74          	5.756
MS.41          	20.698         	5.767
MS.42          	20.657         	5.748
MS.43          	20.615         	5.706
MS.44          	20.575         	5.853
MS.45          	20.532         	5.795
MS.46          	20.493         	5.726
MS.47          	20.452         	5.734
MS.48          	20.41          	5.763
MS.49          	20.37          	5.76
MS.50          	20.33          	5.718
MS.51          	20.288         	5.744
MS.52          	20.247         	5.76
MS.53          	20.208         	5.714
MS.54          	20.167         	5.732
MS.55          	20.127         	5.738
MS.56          	20.087         	5.744
MS.57          	20.047         	5.758
MS.58          	20.007         	5.765
MS.59          	19.967         	5.791
MS.60          	19.927         	5.746
MS.61          	19.887         	5.763
MS.62          	19.847         	5.728
MS.63          	19.807         	5.783
MS.64          	19.767         	5.825
MS.65          	19.727         	5.797
MS.66          	19.69          	5.763
MS.67          	19.65          	5.732
MS.68          	19.61          	5.752
MS.69          	19.57          	5.706
MS.70          	19.532         	5.811
MS.71          	19.493         	5.773
MS.72          	19.455         	5.791
MS.73          	19.415         	5.765
MS.74          	19.377         	5.807
MS.75          	19.337         	5.787
MS.76          	19.3           	5.771
MS.77          	19.26          	5.777
MS.78          	19.222         	5.769
MS.79          	19.182         	5.801
MS.80          	19.145         	5.837
MS.81          	19.108         	5.813
MS.82          	19.067         	5.767
MS.83          	19.03          	5.811
MS.84          	18.993         	5.791
MS.85          	18.955         	5.744
MS.86          	18.917         	5.765
MS.87          	18.88          	5.805
MS.88          	18.842         	5.791
MS.89          	18.802         	5.785
MS.90          	18.765         	5.777
MS.91          	18.727         	5.756
MS.92          	18.69          	5.799
MS.93          	18.655         	5.795
MS.94          	18.618         	5.74
MS.95          	18.58          	5.754
MS.96          	18.542         	5.771
MS.97          	18.505         	5.821
MS.98          	18.467         	5.791
MS.99          	18.432         	5.744
MS.100         	18.395         	5.765
MS.101         	18.358         	5.807
MS.102         	18.32          	5.777
MS.103         	18.285         	5.775
MS.104         	18.247         	5.773
MS.105         	18.212         	5.787
MS.106         	18.175         	5.787
MS.107         	18.137         	5.835
MS.108         	18.102         	5.809
MS.109         	18.067         	5.787
MS.110         	18.03          	5.785
MS.111         	17.995         	5.754
MS.112         	17.958         	5.797
MS.113         	17.922         	5.821
MS.114         	17.887         	5.791
MS.115         	17.85          	5.783
MS.116         	17.815         	5.817
MS.117         	17.78          	5.817
MS.118         	17.745         	5.797
MS.119         	17.708         	5.813
MS.120         	17.672         	5.807
MS.121         	17.637         	5.781
MS.122         	17.602         	5.789
MS.123         	17.567         	5.793
MS.124         	17.532         	5.76
MS.125         	17.497         	5.807
MS.126         	17.462         	5.813
MS.127         	17.427         	5.773
MS.128         	17.392         	5.777
MS.129         	17.358         	5.773
MS.130         	17.323         	5.746
MS.131         	17.288         	5.773
MS.132         	17.255         	5.752
MS.133         	17.22          	5.754
MS.134         	17.185         	5.793
MS.135         	17.15          	5.795
MS.136         	17.118         	5.803
MS.137         	17.083         	5.807
MS.138         	17.047         	5.789
MS.139         	17.015         	5.76
MS.140         	16.98          	5.748
MS.141         	16.948         	5.777
MS.142         	16.913         	5.765
MS.143         	16.878         	5.769
MS.144         	16.845         	5.752
MS.145         	16.812         	5.767
MS.146         	16.778         	5.805
MS.147         	16.745         	5.746
MS.148         	16.71          	5.813
MS.149         	16.677         	5.795
MS.150         	16.645         	5.835
MS.151         	16.61          	5.809
MS.152         	16.577         	5.797
MS.153         	16.545         	5.797
MS.154         	16.512         	5.805
MS.155         	16.477         	5.785
MS.156         	16.445         	5.855
MS.157         	16.413         	5.732
MS.158         	16.38          	5.881
MS.159         	16.347         	5.819
MS.160         	16.315         	5.809
MS.161         	16.282         	5.817
MS.162         	16.25          	5.851
MS.163         	16.217         	5.851
MS.164         	16.185         	5.767
MS.165         	16.153         	5.809
MS.166         	16.12          	5.825
MS.167         	16.087         	5.825
MS.168         	16.055         	5.833
MS.169         	16.022         	5.803
MS.170         	15.992         	5.785
MS.171         	15.96          	5.811
MS.172         	15.927         	5.779
MS.173         	15.895         	5.821
MS.174         	15.865         	5.831
MS.175         	15.832         	5.821
MS.176         	15.8           	5.829
MS.177         	15.77          	5.811
MS.178         	15.737         	5.773
MS.179         	15.705         	5.793
MS.180         	15.675         	5.74
MS.181         	15.642         	5.803
MS.182         	15.612         	5.756
MS.183         	15.58          	5.746
MS.184         	15.55          	5.777
MS.185         	15.52          	5.797
MS.186         	15.487         	5.75
MS.187         	15.457         	5.746
MS.188         	15.425         	5.775
MS.189         	15.395         	5.791
MS.190         	15.365         	5.734
MS.191         	15.332         	5.722
MS.192         	15.302         	5.728
MS.193         	15.273         	5.797
MS.194         	15.242         	5.765
MS.195         	15.212         	5.781
MS.196         	15.18          	5.7
MS.197         	15.15          	5.668
MS.198         	15.12          	5.652
MS.199         	15.09          	5.684
MS.200         	15.06          	5.662
MS.201         	15.03          	5.626
MS.202         	15             	5.644
MS.203         	14.97          	5.672
MS.204         	14.94          	5.561
MS.205         	14.91          	5.543
MS.206         	14.88          	5.628
MS.207         	14.85          	5.71
MS.208         	14.82          	5.519
MS.209         	14.792         	5.507
MS.210         	14.762         	5.479
MS.211         	14.733         	5.613
MS.212         	14.702         	5.505
MS.213         	14.672         	5.366
MS.214         	14.645         	5.481
MS.215         	14.615         	5.511
MS.216         	14.585         	5.521
MS.217         	14.557         	5.497
MS.218         	14.527         	5.485
MS.219         	14.497         	5.362
MS.220         	14.47          	5.466
MS.221         	14.44          	5.452
MS.222         	14.412         	5.456
MS.223         	14.382         	5.354
MS.224         	14.355         	5.289
MS.225         	14.325         	5.319
MS.226         	14.297         	5.408
MS.227         	14.267         	5.291
MS.228         	14.24          	5.247
MS.229         	14.212         	5.235
MS.230         	14.182         	5.271
MS.231         	14.155         	5.255
MS.232         	14.127         	5.271
MS.233         	14.097         	5.213
MS.234         	14.07          	5.156
MS.235         	14.042         	5.166
MS.236         	14.015         	5.082
MS.237         	13.985         	4.985
MS.238         	13.957         	5.068
MS.239         	13.93          	5.144
MS.240         	13.903         	5.094
MS.241         	13.875         	5.056
MS.242         	13.847         	5.064
MS.243         	13.82          	5.003
MS.244         	13.792         	4.985
MS.245         	13.765         	5.019
MS.246         	13.737         	4.852
MS.247         	13.71          	4.862
MS.248         	13.682         	4.888
MS.249         	13.655         	5.031
MS.250         	13.627         	4.864
MS.251         	13.6           	4.832
MS.252         	13.572         	4.874
MS.253         	13.545         	4.852
MS.254         	13.517         	4.763
MS.255         	13.492         	4.8
MS.256         	13.465         	4.824
MS.257         	13.438         	4.802
MS.258         	13.41          	4.78
MS.259         	13.385         	4.802
MS.260         	13.358         	4.699
MS.261         	13.33          	4.772
MS.262         	13.305         	4.802
MS.263         	13.278         	4.703
MS.264         	13.25          	4.719
MS.265         	13.225         	4.766
MS.266         	13.197         	4.733
MS.267         	13.172         	4.731
MS.268         	13.145         	4.677
MS.269         	13.12          	4.663
MS.270         	13.092         	4.713
MS.271         	13.068         	4.731
MS.272         	13.04          	4.596
MS.273         	13.015         	4.572
MS.274         	12.987         	4.526
MS.275         	12.962         	4.592
MS.276         	12.938         	4.502
MS.277         	12.91          	4.451
MS.278         	12.885         	4.401
MS.279         	12.86          	4.411
MS.280         	12.832         	4.475
MS.281         	12.807         	4.437
MS.282         	12.782         	4.328
MS.283         	12.757         	4.282
MS.284         	12.73          	4.298
MS.285         	12.705         	4.383
MS.286         	12.68          	4.187
MS.287         	12.655         	4.21
MS.288         	12.63          	4.193
MS.289         	12.605         	4.161
MS.290         	12.58          	4.125
MS.291         	12.555         	4.183
MS.292         	12.53          	4.137
MS.293         	12.505         	4.044
MS.294         	12.48          	4.075
MS.295         	12.455         	4.103
MS.296         	12.43          	4.04
MS.297         	12.405         	4.099
MS.298         	12.38          	4.018
MS.299         	12.355         	3.934
MS.300         	12.33          	4.014
MS.301         	12.305         	3.95
MS.302         	12.28          	3.972
MS.303         	12.257         	3.807
MS.304         	12.233         	3.948
MS.305         	12.207         	3.809
MS.306         	12.182         	3.716
MS.307         	12.157         	3.771
MS.308         	12.135         	3.756
MS.309         	12.11          	3.789
MS.310         	12.085         	3.617
MS.311         	12.062         	3.742
MS.312         	12.037         	3.712
MS.313         	12.012         	3.744
MS.314         	11.99          	3.841
MS.315         	11.965         	3.706
MS.316         	11.943         	3.577
MS.317         	11.917         	3.589
MS.318         	11.895         	3.442
MS.319         	11.87          	3.597
MS.320         	11.847         	3.45
MS.321         	11.822         	3.482
MS.322         	11.8           	3.432
MS.323         	11.775         	3.438
MS.324         	11.752         	3.43
MS.325         	11.73          	3.352
MS.326         	11.705         	3.241
MS.327         	11.682         	3.301
MS.328         	11.657         	3.247
MS.329         	11.635         	3.358
MS.330         	11.613         	3.156
MS.331         	11.59          	3.237
MS.332         	11.565         	3.112
MS.333         	11.542         	3.192
MS.334         	11.52          	3.027
MS.335         	11.497         	3.138
MS.336         	11.472         	2.904
MS.337         	11.45          	2.884
MS.338         	11.427         	3.064
MS.339         	11.405         	2.991
MS.340         	11.382         	2.665
MS.341         	11.36          	2.85
MS.342         	11.337         	2.912
MS.343         	11.315         	2.679
MS.344         	11.292         	2.814
MS.345         	11.27          	2.655
MS.346         	11.247         	2.596
MS.347         	11.225         	2.594
MS.348         	11.202         	2.731
MS.349         	11.18          	2.518
MS.350         	11.157         	2.741
MS.351         	11.135         	2.514
MS.352         	11.113         	2.63
MS.353         	11.09          	2.463
MS.354         	11.068         	2.361
MS.355         	11.045         	2.483
MS.356         	11.023         	2.342
MS.357         	11.002         	2.228
MS.358         	10.98          	2.332
MS.359         	10.957         	2.28
MS.360         	10.935         	2.238
MS.361         	10.915         	2.29
MS.362         	10.892         	2.01
MS.363         	10.87          	1.992
MS.364         	10.847         	1.968
MS.365         	10.827         	2.062
MS.366         	10.805         	1.899
MS.367         	10.785         	1.851
MS.368         	10.762         	1.664
MS.369         	10.74          	1.629
MS.370         	10.72          	1.635
MS.371         	10.698         	1.561
MS.372         	10.677         	1.609
MS.373         	10.655         	1.539
MS.374         	10.635         	1.674
MS.375         	10.613         	1.664
MS.376         	10.592         	1.458
MS.377         	10.57          	1.563
MS.378         	10.55          	1.36
MS.379         	10.528         	1.569
MS.380         	10.507         	1.44
MS.381         	10.485         	1.452
MS.382         	10.465         	1.337
MS.383         	10.445         	1.18
MS.384         	10.422         	1.303
MS.385         	10.403         	1.102
MS.386         	10.382         	1.301
MS.387         	10.36          	1.051
MS.388         	10.34          	1.086
MS.389         	10.32          	1.311
MS.390         	10.3           	1.017
MS.391         	10.278         	0.761
MS.392         	10.257         	0.836
MS.393         	10.238         	0.85
MS.394         	10.217         	0.745
MS.395         	10.198         	0.87
MS.396         	10.175         	0.765
MS.397         	10.155         	0.858
MS.398         	10.135         	0.681
MS.399         	10.115         	0.588
MS.400         	10.095         	0.671
MS.401         	10.075         	0.63
MS.402         	10.055         	0.463
MS.403         	10.035         	0.489
MS.404         	10.015         	0.643
MS.405         	9.995          	0.582
MS.406         	9.975          	0.495
MS.407         	9.955          	0.606
MS.408         	9.935          	0.516
MS.409         	9.915          	0.475
MS.410         	9.895          	0.506
MS.411         	9.875          	0.457
MS.412         	9.855          	0.413
MS.413         	9.835          	0.455
MS.414         	9.818          	0.485
MS.415         	9.797          	0.459
MS.416         	9.778          	0.451
MS.417         	9.757          	0.449
MS.418         	9.738          	0.375
MS.419         	9.717          	0.493
MS.420         	9.7            	0.518
MS.421         	9.68           	0.354
MS.422         	9.66           	0.441
MS.423         	9.64           	0.3
MS.424         	9.622          	0.417
MS.425         	9.602          	0.363
MS.426         	9.582          	0.33
MS.427         	9.565          	0.348
MS.428         	9.545          	0.419
MS.429         	9.525          	0.316
MS.430         	9.507          	0.276
MS.431         	9.488          	0.413
MS.432         	9.47           	0.234
MS.433         	9.45           	0.256
MS.434         	9.432          	0.288
MS.435         	9.412          	0.185
MS.436         	9.395          	0.306
MS.437         	9.375          	0.26
MS.438         	9.358          	0.216
MS.439         	9.337          	0.248
MS.440         	9.32           	0.238
MS.441         	9.3            	0.228
MS.442         	9.283          	0.191
MS.443         	9.262          	0.25
MS.444         	9.245          	0.214
MS.445         	9.225          	0.23
MS.446         	9.207          	0.201
MS.447         	9.19           	0.193
MS.448         	9.17           	0.177
MS.449         	9.153          	0.183
MS.450         	9.135          	0.185
MS.451         	9.115          	0.191
MS.452         	9.097          	0.165
MS.453         	9.08           	0.199
MS.454         	9.062          	0.161
MS.455         	9.042          	0.171
MS.456         	9.025          	0.183
MS.457         	9.007          	0.195
MS.458         	8.99           	0.135
MS.459         	8.972          	0.141
MS.460         	8.952          	0.159
MS.461         	8.935          	0.183
MS.462         	8.917          	0.169
MS.463         	8.9            	0.113
MS.464         	8.882          	0.159
MS.465         	8.865          	0.157
MS.466         	8.847          	0.121
MS.467         	8.83           	0.139
MS.468         	8.812          	0.131
MS.469         	8.795          	0.117
MS.470         	8.775          	0.119
MS.471         	8.757          	0.117
MS.472         	8.74           	0.127
MS.473         	8.722          	0.115
MS.474         	8.707          	0.103
MS.475         	8.69           	0.107
MS.476         	8.672          	0.105
MS.477         	8.655          	0.131
MS.478         	8.637          	0.117
MS.479         	8.62           	0.099
MS.480         	8.602          	0.111
MS.481         	8.585          	0.107
MS.482         	8.568          	0.101
MS.483         	8.55           	0.097
MS.484         	8.535          	0.103
MS.485         	8.517          	0.101
MS.486         	8.5            	0.103
MS.487         	8.483          	0.095
MS.488         	8.465          	0.095
MS.489         	8.45           	0.097
MS.490         	8.432          	0.095
MS.491         	8.415          	0.099
MS.492         	8.398          	0.097
MS.493         	8.382          	0.107
MS.494         	8.365          	0.089
MS.495         	8.347          	0.103
MS.496         	8.332          	0.101
MS.497         	8.315          	0.099
MS.498         	8.297          	0.097
MS.499         	8.283          	0.099
MS.500         	8.265          	0.099
MS.501         	8.247          	0.093
MS.502         	8.233          	0.097
MS.503         	8.215          	0.093
MS.504         	8.2            	0.093
MS.505         	8.182          	0.095
MS.506         	8.167          	0.089
MS.507         	8.15           	0.101
MS.508         	8.135          	0.095
MS.509         	8.117          	0.091
MS.510         	8.102          	0.087
MS.511         	8.085          	0.101
MS.512         	8.07           	0.093
MS.513         	8.052          	0.089
MS.514         	8.037          	0.093
MS.515         	8.02           	0.099
MS.516         	8.005          	0.099
MS.517         	7.99           	0.093
MS.518         	7.972          	0.095
MS.519         	7.957          	0.085
MS.520         	7.94           	0.093
MS.521         	7.925          	0.091
MS.522         	7.91           	0.099
MS.523         	7.892          	0.089
MS.524         	7.878          	0.097
MS.525         	7.862          	0.097
MS.526         	7.847          	0.091
MS.527         	7.83           	0.091
MS.528         	7.815          	0.101
MS.529         	7.8            	0.099
MS.530         	7.785          	0.093
MS.531         	7.767          	0.095
MS.532         	7.753          	0.097
MS.533         	7.737          	0.093
MS.534         	7.722          	0.077
MS.535         	7.707          	0.097
MS.536         	7.69           	0.093
MS.537         	7.675          	0.089
MS.538         	7.66           	0.097
MS.539         	7.645          	0.105
MS.540         	7.63           	0.085
MS.541         	7.615          	0.081
MS.542         	7.6            	0.095
MS.543         	7.585          	0.087
MS.544         	7.57           	0.087
MS.545         	7.555          	0.095
MS.546         	7.537          	0.099
MS.547         	7.523          	0.075
MS.548         	7.507          	0.087
MS.549         	7.492          	0.085
MS.550         	7.477          	0.083
MS.551         	7.462          	0.085
MS.552         	7.45           	0.087
MS.553         	7.435          	0.083
MS.554         	7.42           	0.087
MS.555         	7.405          	0.093
MS.556         	7.39           	0.083
MS.557         	7.375          	0.075
MS.558         	7.36           	0.077
MS.559         	7.345          	0.081
MS.560         	7.33           	0.091
MS.561         	7.315          	0.079
MS.562         	7.302          	0.085
MS.563         	7.287          	0.075
MS.564         	7.273          	0.079
MS.565         	7.257          	0.085
MS.566         	7.242          	0.087
MS.567         	7.227          	0.079
MS.568         	7.215          	0.095
MS.569         	7.2            	0.083
MS.570         	7.185          	0.081
MS.571         	7.17           	0.083
MS.572         	7.157          	0.083
MS.573         	7.142          	0.087
MS.574         	7.128          	0.079
MS.575         	7.115          	0.062
MS.576         	7.1            	0.07
MS.577         	7.085          	0.075
MS.578         	7.072          	0.079
MS.579         	7.057          	0.079
MS.580         	7.043          	0.077
MS.581         	7.03           	0.073
MS.582         	7.015          	0.07
MS.583         	7              	0.081
MS.584         	6.987          	0.077
MS.585         	6.972          	0.07
MS.586         	6.96           	0.083
MS.587         	6.945          	0.07
MS.588         	6.932          	0.077
MS.589         	6.918          	0.079
MS.590         	6.902          	0.081
MS.591         	6.89           	0.075
MS.592         	6.875          	0.079
MS.593         	6.862          	0.077
MS.594         	6.847          	0.083
MS.595         	6.835          	0.083
MS.596         	6.822          	0.066
MS.597         	6.807          	0.079
MS.598         	6.795          	0.075
MS.599         	6.78           	0.081
MS.600         	6.767          	0.089
MS.601         	6.753          	0.081
MS.602         	6.74           	0.075
MS.603         	6.727          	0.077
MS.604         	6.712          	0.073
MS.605         	6.7            	0.079
MS.606         	6.685          	0.079
MS.607         	6.672          	0.081
MS.608         	6.66           	0.083
MS.609         	6.645          	0.068
MS.610         	6.632          	0.073
MS.611         	6.62           	0.066
MS.612         	6.608          	0.066
MS.613         	6.592          	0.075
MS.614         	6.58           	0.081
MS.615         	6.567          	0.068
MS.616         	6.555          	0.073
MS.617         	6.54           	0.068
MS.618         	6.527          	0.091
MS.619         	6.515          	0.079
MS.620         	6.503          	0.073
MS.621         	6.487          	0.068
MS.622         	6.475          	0.066
MS.623         	6.462          	0.066
MS.624         	6.45           	0.077
MS.625         	6.438          	0.077
MS.626         	6.425          	0.083
MS.627         	6.41           	0.07
MS.628         	6.398          	0.068
MS.629         	6.385          	0.077
MS.630         	6.372          	0.089
MS.631         	6.36           	0.068
MS.632         	6.347          	0.075
MS.633         	6.335          	0.075
MS.634         	6.322          	0.066
MS.635         	6.31           	0.083
MS.636         	6.297          	0.077
MS.637         	6.285          	0.07
MS.638         	6.273          	0.075
MS.639         	6.26           	0.081
MS.640         	6.247          	0.07
MS.641         	6.235          	0.073
MS.642         	6.222          	0.068
MS.643         	6.21           	0.081
MS.644         	6.197          	0.068
MS.645         	6.185          	0.075
MS.646         	6.172          	0.077
MS.647         	6.16           	0.079
MS.648         	6.148          	0.075
MS.649         	6.135          	0.073
MS.650         	6.122          	0.068
MS.651         	6.11           	0.073
MS.652         	6.097          	0.07
MS.653         	6.088          	0.081
MS.654         	6.075          	0.062
MS.655         	6.062          	0.075
MS.656         	6.05           	0.077
MS.657         	6.037          	0.075
MS.658         	6.025          	0.079
MS.659         	6.015          	0.075
MS.660         	6.003          	0.083
MS.661         	5.99           	0.081
MS.662         	5.977          	0.07
MS.663         	5.965          	0.075
MS.664         	5.955          	0.077
MS.665         	5.942          	0.091
MS.666         	5.93           	0.064
MS.667         	5.918          	0.083
MS.668         	5.907          	0.064
MS.669         	5.895          	0.075
MS.670         	5.882          	0.06
MS.671         	5.87           	0.079
MS.672         	5.86           	0.073
MS.673         	5.847          	0.058
MS.674         	5.835          	0.083
MS.675         	5.825          	0.062
MS.676         	5.812          	0.06
MS.677         	5.8            	0.101
MS.678         	5.79           	0.083
MS.679         	5.777          	0.079
MS.680         	5.767          	0.068
MS.681         	5.755          	0.089
MS.682         	5.742          	0.056
MS.683         	5.733          	0.083
MS.684         	5.72           	0.064
MS.685         	5.71           	0.064
MS.686         	5.697          	0.058
MS.687         	5.685          	0.066
MS.688         	5.675          	0.056
MS.689         	5.662          	0.064
MS.690         	5.652          	0.075
MS.691         	5.64           	0.052
MS.692         	5.63           	0.075
MS.693         	5.617          	0.073
MS.694         	5.608          	0.068
MS.695         	5.595          	0.066
MS.696         	5.585          	0.058
MS.697         	5.572          	0.064
MS.698         	5.562          	0.085
MS.699         	5.552          	0.064
MS.700         	5.54           	0.07
MS.701         	5.53           	0.099
MS.702         	5.517          	0.06
MS.703         	5.507          	0.075
MS.704         	5.495          	0.073
MS.705         	5.485          	0.083
MS.706         	5.475          	0.058
MS.707         	5.463          	0.075
MS.708         	5.452          	0.075
MS.709         	5.443          	0.066
MS.710         	5.43           	0.07
MS.711         	5.42           	0.066
MS.712         	5.41           	0.064
MS.713         	5.398          	0.079
MS.714         	5.387          	0.075
MS.715         	5.378          	0.068
MS.716         	5.365          	0.066
MS.717         	5.355          	0.068
MS.718         	5.345          	0.064
MS.719         	5.332          	0.066
MS.720         	5.322          	0.066
MS.721         	5.312          	0.06
MS.722         	5.302          	0.073
MS.723         	5.29           	0.073
MS.724         	5.28           	0.068
MS.725         	5.27           	0.068
MS.726         	5.26           	0.064
MS.727         	5.25           	0.073
MS.728         	5.237          	0.068
MS.729         	5.227          	0.062
MS.730         	5.217          	0.079
MS.731         	5.207          	0.068
MS.732         	5.197          	0.064
MS.733         	5.188          	0.068
MS.734         	5.175          	0.064
MS.735         	5.165          	0.054
MS.736         	5.155          	0.073
MS.737         	5.145          	0.075
MS.738         	5.135          	0.097
MS.739         	5.125          	0.075
MS.740         	5.115          	0.066
MS.741         	5.105          	0.064
MS.742         	5.095          	0.079
MS.743         	5.082          	0.07
MS.744         	5.072          	0.058
MS.745         	5.062          	0.066
MS.746         	5.052          	0.056
MS.747         	5.043          	0.062
MS.748         	5.032          	0.073
MS.749         	5.023          	0.085
MS.750         	5.012          	0.081
MS.751         	5.003          	0.06
MS.752         	4.992          	0.073
MS.753         	4.983          	0.081
MS.754         	4.972          	0.085
MS.755         	4.963          	0.093
MS.756         	4.952          	0.073
MS.757         	4.943          	0.068
MS.758         	4.932          	0.073
MS.759         	4.922          	0.089
MS.760         	4.915          	0.066
MS.761         	4.905          	0.077
MS.762         	4.895          	0.068
MS.763         	4.885          	0.073
MS.764         	4.875          	0.073
MS.765         	4.865          	0.073
MS.766         	4.855          	0.073
MS.767         	4.845          	0.081
MS.768         	4.835          	0.081
MS.769         	4.825          	0.068
MS.770         	4.818          	0.064
MS.771         	4.807          	0.062
MS.772         	4.797          	0.07
MS.773         	4.787          	0.077
MS.774         	4.777          	0.058
MS.775         	4.767          	0.06
MS.776         	4.76           	0.075
MS.777         	4.75           	0.079
MS.778         	4.74           	0.077
MS.779         	4.73           	0.075
MS.780         	4.72           	0.091
MS.781         	4.713          	0.066
MS.782         	4.702          	0.064
MS.783         	4.693          	0.079
MS.784         	4.682          	0.066
MS.785         	4.675          	0.068
MS.786         	4.665          	0.075
MS.787         	4.655          	0.056
MS.788         	4.645          	0.077
MS.789         	4.637          	0.06
MS.790         	4.628          	0.06
MS.791         	4.617          	0.087
MS.792         	4.61           	0.06
MS.793         	4.6            	0.062
MS.794         	4.59           	0.064
MS.795         	4.582          	0.052
MS.796         	4.572          	0.048
MS.797         	4.562          	0.058
MS.798         	4.555          	0.064
MS.799         	4.545          	0.073
MS.800         	4.535          	0.062
MS.801         	4.527          	0.06
MS.802         	4.517          	0.06
MS.803         	4.51           	0.054
MS.804         	4.5            	0.064
MS.805         	4.49           	0.064
MS.806         	4.483          	0.054
MS.807         	4.472          	0.046
MS.808         	4.465          	0.05
MS.809         	4.455          	0.05
MS.810         	4.445          	0.052
MS.811         	4.438          	0.06
MS.812         	4.427          	0.062
MS.813         	4.42           	0.064
MS.814         	4.41           	0.046
MS.815         	4.402          	0.044
MS.816         	4.392          	0.075
MS.817         	4.385          	0.052
MS.818         	4.375          	0.046
MS.819         	4.367          	0.058
MS.820         	4.358          	0.062
MS.821         	4.35           	0.042
MS.822         	4.34           	0.073
MS.823         	4.332          	0.056
MS.824         	4.322          	0.058
MS.825         	4.315          	0.062
MS.826         	4.305          	0.07
MS.827         	4.298          	0.048
MS.828         	4.29           	0.06
MS.829         	4.28           	0.056
MS.830         	4.273          	0.04
MS.831         	4.262          	0.052
MS.832         	4.255          	0.058
MS.833         	4.247          	0.05
MS.834         	4.237          	0.048
MS.835         	4.23           	0.05
MS.836         	4.22           	0.054
MS.837         	4.213          	0.052
MS.838         	4.205          	0.056
MS.839         	4.195          	0.052
MS.840         	4.188          	0.046
MS.841         	4.18           	0.046
MS.842         	4.17           	0.052
MS.843         	4.162          	0.062
MS.844         	4.155          	0.05
MS.845         	4.145          	0.052
MS.846         	4.137          	0.058
MS.847         	4.13           	0.068
MS.848         	4.12           	0.046
MS.849         	4.112          	0.066
MS.850         	4.105          	0.05
MS.851         	4.095          	0.052
MS.852         	4.088          	0.052
MS.853         	4.08           	0.056
MS.854         	4.072          	0.058
MS.855         	4.062          	0.044
MS.856         	4.055          	0.054
MS.857         	4.048          	0.05
MS.858         	4.04           	0.085
MS.859         	4.03           	0.048
MS.860         	4.023          	0.052
MS.861         	4.015          	0.052
MS.862         	4.007          	0.06
MS.863         	4              	0.048
MS.864         	3.99           	0.058
MS.865         	3.982          	0.058
MS.866         	3.975          	0.036
MS.867         	3.967          	0.05
MS.868         	3.96           	0.056
MS.869         	3.952          	0.044
MS.870         	3.942          	0.046
MS.871         	3.935          	0.062
MS.872         	3.928          	0.054
MS.873         	3.92           	0.058
MS.874         	3.912          	0.056
MS.875         	3.905          	0.054
MS.876         	3.897          	0.038
MS.877         	3.887          	0.048
MS.878         	3.88           	0.056
MS.879         	3.872          	0.048
MS.880         	3.865          	0.038
MS.881         	3.857          	0.028
MS.882         	3.85           	0.048
MS.883         	3.842          	0.048
MS.884         	3.835          	0.062
MS.885         	3.827          	0.079
MS.886         	3.82           	0.044
MS.887         	3.812          	0.042
MS.888         	3.805          	0.062
MS.889         	3.797          	0.04
MS.890         	3.79           	0.064
MS.891         	3.78           	0.052
MS.892         	3.772          	0.058
MS.893         	3.765          	0.056
MS.894         	3.757          	0.056
MS.895         	3.75           	0.044
MS.896         	3.742          	0.048
MS.897         	3.735          	0.046
MS.898         	3.727          	0.03
MS.899         	3.72           	0.034
MS.900         	3.715          	0.097
MS.901         	3.707          	0.036
MS.902         	3.7            	0.038
MS.903         	3.692          	0.046
MS.904         	3.685          	0.042
MS.905         	3.678          	0.042
MS.906         	3.67           	0.042
MS.907         	3.662          	0.034
MS.908         	3.655          	0.075
MS.909         	3.647          	0.028
MS.910         	3.64           	0.03
MS.911         	3.632          	0.036
MS.912         	3.625          	0.034
MS.913         	3.617          	0.06
DERIVED EXCITABILITY VARIABLES
Program = QTracP 3/4/2020
Threshold method = 6 (optimised for CAP, using data for present condition only)
SR method = 1 (using actual data values)
6.                 	0.000               	Peak response\(mV)
9.                 	34.6                	Temperature ( C)
17.                	48                  	Age (years)
18.                	2                   	Sex (M=1, F=2)

EXTRA VARIABLES

MScPeak(mV) = 5.8
MScS5(mA) = 9.46
MScS50(mA) = 11.4
MScS95(mA) = 14.69
MScNSteps = 3
MScSteps(%) = 7.5
MScStepMax(%) = 2.8
MScD50 = 42
MScSlope = 5.14
MSFPeakAmp(mV) = 5.73
MSFNUnits = 149
MSFMeanUnitAmp(uV) = 38.5
MSFHuntTime(m) = 2.53
MSFError(%) = 2.58
MSFNLarge = 47.2
MSFMedianAmp(%) = 0.554
MSFMedianAmp(mV) = 0.0318
MSFHalfAmpAmp(%) = 0.753
MSFHalfAmpAmp(mV) = 0.0431
MSFLargestAmp(%) = 1.79
MSFLargestAmp(mV) = 0.102
MSFMeanRS(%) = 2
MSFOpts = 10106121
MScDuration(min) = 8.7
MSFTraces = 429
MSFSizeLimit(uV) = 14.3
MSFLimitType = 1
MSFSmallestAmp(uV) = 14.7

EXTRA WAVEFORMS


!MScan Model
!149
	1	7.76	0.38	2
	2	8.71	0.35	2
	3	8.82	0.28	2
	4	8.9	0.26	2
	5	9.04	0.44	2
	6	9.2	0.54	2
	7	9.37	0.86	2
	8	9.46	0.71	2
	9	9.57	1.06	2
	10	9.75	1.35	2
	11	9.88	0.89	2
	12	9.96	0.88	2
	13	10	0.78	2
	14	10.05	0.81	2
	15	10.1	0.49	2
	16	10.14	1.09	2
	17	10.18	0.74	2
	18	10.21	1.56	2
	19	10.24	1	2
	20	10.27	0.85	2
	21	10.29	0.54	2
	22	10.32	1.01	2
	23	10.35	0.99	2
	24	10.38	1.26	2
	25	10.41	1.16	2
	26	10.45	1.18	2
	27	10.49	1.38	2
	28	10.53	1.03	2
	29	10.58	1.01	2
	30	10.63	1.66	2
	31	10.66	0.8	2
	32	10.68	0.41	2
	33	10.7	0.45	2
	34	10.71	0.45	2
	35	10.73	0.54	2
	36	10.75	0.63	2
	37	10.76	0.62	2
	38	10.77	0.43	2
	39	10.79	0.44	2
	40	10.8	0.52	2
	41	10.83	0.62	2
	42	10.84	0.58	2
	43	10.85	0.53	2
	44	10.87	0.51	2
	45	10.88	0.66	2
	46	10.9	0.72	2
	47	10.91	0.7	2
	48	10.93	0.8	2
	49	10.95	0.65	2
	50	10.96	0.59	2
	51	10.98	0.6	2
	52	11.02	1.39	2
	53	11.06	1.13	2
	54	11.1	1.05	2
	55	11.17	1.62	2
	56	11.22	1.12	2
	57	11.27	1.51	2
	58	11.32	1.03	2
	59	11.35	0.75	2
	60	11.38	0.5	2
	61	11.41	0.87	2
	62	11.44	0.86	2
	63	11.48	0.87	2
	64	11.51	0.72	2
	65	11.54	0.83	2
	66	11.56	0.55	2
	67	11.58	0.51	2
	68	11.6	0.56	2
	69	11.62	0.53	2
	70	11.64	0.46	2
	71	11.66	0.48	2
	72	11.69	0.5	2
	73	11.71	0.5	2
	74	11.73	0.61	2
	75	11.75	0.44	2
	76	11.78	0.48	2
	77	11.81	0.75	2
	78	11.85	0.76	2
	79	11.89	0.76	2
	80	11.96	1.39	2
	81	12.05	1.21	2
	82	12.14	1.79	2
	83	12.17	0.44	2
	84	12.23	0.57	2
	85	12.26	0.58	2
	86	12.29	0.58	2
	87	12.35	0.81	2
	88	12.38	0.51	2
	89	12.41	0.51	2
	90	12.44	0.53	2
	91	12.47	0.54	2
	92	12.5	0.43	2
	93	12.52	0.28	2
	94	12.54	0.28	2
	95	12.58	0.5	2
	96	12.6	0.34	2
	97	12.62	0.33	2
	98	12.64	0.33	2
	99	12.66	0.34	2
	100	12.68	0.37	2
	101	12.72	0.44	2
	102	12.74	0.37	2
	103	12.76	0.35	2
	104	12.78	0.39	2
	105	12.8	0.39	2
	106	12.82	0.4	2
	107	12.85	0.41	2
	108	12.87	0.41	2
	109	12.89	0.41	2
	110	12.91	0.39	2
	111	12.93	0.39	2
	112	12.95	0.31	2
	113	12.97	0.27	2
	114	12.99	0.28	2
	115	13.01	0.32	2
	116	13.04	0.32	2
	117	13.09	0.79	2
	118	13.15	0.69	2
	119	13.26	0.98	2
	120	13.36	0.58	2
	121	13.44	0.37	2
	122	13.52	0.48	2
	123	13.59	0.64	2
	124	13.63	0.39	2
	125	13.67	0.48	2
	126	13.71	0.54	2
	127	13.8	0.79	2
	128	13.87	0.74	2
	129	13.91	0.48	2
	130	13.95	0.78	2
	131	14	0.49	2
	132	14.05	0.55	2
	133	14.1	0.48	2
	134	14.15	0.53	2
	135	14.19	0.46	2
	136	14.23	0.7	2
	137	14.27	0.4	2
	138	14.31	0.44	2
	139	14.35	0.4	2
	140	14.4	0.46	2
	141	14.5	0.82	2
	142	14.71	1.58	2
	143	14.83	0.8	2
	144	14.92	0.67	2
	145	14.99	0.55	2
	146	15.05	0.46	2
	147	15.15	0.52	2
	148	15.25	0.65	2
	149	15.58	0.9	2

