File:              	C:\Qtrac\Data\Daniel M Sørensen\MScan multicentre study\Data from centres\Aarhus\Processed data\DMSC00930B.QZD
Name:              	DK.AAR.NC.10.2
Protocol:          	MSCAN-R2
Date:              	30/9/20
Start time:        	15:10:56
Age:               	70
Sex:               	m
Temperature:       	34,8
S/R sites:         	ADM
NC/disease:        	NC
Operator:          	DS
Comments:
M-SCAN DATA (6.2-1.7m)
Scanpts: 14, 21, 473, 494
Stim. (mA)     	Amp. (mV)
MS.1           	49             	2.483
MS.2           	49             	2.476
MS.3           	49             	2.473
MS.4           	49             	2.473
MS.5           	49             	2.48
MS.6           	49             	2.49
MS.7           	49             	2.489
MS.8           	49             	2.493
MS.9           	49             	2.511
MS.10          	49             	2.481
MS.11          	49             	2.491
MS.12          	49             	2.485
MS.13          	49             	2.485
MS.14          	49             	2.49
MS.15          	49             	2.492
MS.16          	49             	2.48
MS.17          	49             	2.48
MS.18          	49             	2.485
MS.19          	49             	2.481
MS.20          	49             	2.487
MS.21          	49             	2.488
MS.22          	49             	2.487
MS.23          	49             	2.486
MS.24          	48.805         	2.476
MS.25          	48.708         	2.484
MS.26          	48.61          	2.482
MS.27          	48.513         	2.49
MS.28          	48.415         	2.482
MS.29          	48.317         	2.5
MS.30          	48.222         	2.477
MS.31          	48.125         	2.502
MS.32          	48.03          	2.431
MS.33          	47.932         	2.507
MS.34          	47.837         	2.506
MS.35          	47.743         	2.496
MS.36          	47.647         	2.497
MS.37          	47.552         	2.446
MS.38          	47.458         	2.499
MS.39          	47.362         	2.435
MS.40          	47.267         	2.505
MS.41          	47.173         	2.449
MS.42          	47.077         	2.504
MS.43          	46.985         	2.5
MS.44          	46.89          	2.443
MS.45          	46.798         	2.465
MS.46          	46.702         	2.459
MS.47          	46.61          	2.439
MS.48          	46.517         	2.446
MS.49          	46.425         	2.43
MS.50          	46.33          	2.529
MS.51          	46.237         	2.457
MS.52          	46.147         	2.44
MS.53          	46.055         	2.438
MS.54          	45.962         	2.46
MS.55          	45.87          	2.455
MS.56          	45.778         	2.463
MS.57          	45.688         	2.411
MS.58          	45.595         	2.473
MS.59          	45.505         	2.46
MS.60          	45.415         	2.467
MS.61          	45.322         	2.476
MS.62          	45.232         	2.479
MS.63          	45.142         	2.476
MS.64          	45.052         	2.477
MS.65          	44.962         	2.463
MS.66          	44.872         	2.476
MS.67          	44.782         	2.471
MS.68          	44.692         	2.474
MS.69          	44.602         	2.474
MS.70          	44.515         	2.457
MS.71          	44.425         	2.455
MS.72          	44.337         	2.465
MS.73          	44.247         	2.422
MS.74          	44.16          	2.394
MS.75          	44.072         	2.403
MS.76          	43.982         	2.421
MS.77          	43.895         	2.42
MS.78          	43.807         	2.376
MS.79          	43.72          	2.372
MS.80          	43.632         	2.412
MS.81          	43.545         	2.388
MS.82          	43.46          	2.411
MS.83          	43.372         	2.362
MS.84          	43.285         	2.282
MS.85          	43.2           	2.32
MS.86          	43.112         	2.352
MS.87          	43.028         	2.338
MS.88          	42.94          	2.3
MS.89          	42.855         	2.315
MS.90          	42.77          	2.312
MS.91          	42.682         	2.286
MS.92          	42.597         	2.297
MS.93          	42.513         	2.289
MS.94          	42.427         	2.228
MS.95          	42.342         	2.26
MS.96          	42.26          	2.224
MS.97          	42.175         	2.339
MS.98          	42.09          	2.197
MS.99          	42.005         	2.207
MS.100         	41.923         	2.229
MS.101         	41.837         	2.182
MS.102         	41.755         	2.192
MS.103         	41.673         	2.184
MS.104         	41.587         	2.218
MS.105         	41.505         	2.159
MS.106         	41.423         	2.167
MS.107         	41.34          	2.184
MS.108         	41.257         	2.172
MS.109         	41.175         	2.158
MS.110         	41.092         	2.161
MS.111         	41.01          	2.148
MS.112         	40.927         	2.138
MS.113         	40.847         	2.126
MS.114         	40.765         	2.129
MS.115         	40.682         	2.139
MS.116         	40.603         	2.131
MS.117         	40.52          	2.115
MS.118         	40.44          	2.089
MS.119         	40.36          	2.11
MS.120         	40.278         	2.109
MS.121         	40.197         	2.111
MS.122         	40.118         	2.074
MS.123         	40.037         	2.106
MS.124         	39.958         	2.055
MS.125         	39.877         	2.082
MS.126         	39.798         	1.955
MS.127         	39.717         	1.967
MS.128         	39.64          	1.938
MS.129         	39.56          	2.026
MS.130         	39.48          	2.037
MS.131         	39.403         	1.968
MS.132         	39.322         	1.932
MS.133         	39.245         	1.959
MS.134         	39.167         	1.995
MS.135         	39.087         	1.945
MS.136         	39.01          	1.955
MS.137         	38.932         	1.938
MS.138         	38.855         	1.926
MS.139         	38.778         	1.961
MS.140         	38.7           	1.9
MS.141         	38.622         	1.937
MS.142         	38.545         	1.876
MS.143         	38.467         	1.914
MS.144         	38.39          	1.816
MS.145         	38.315         	1.883
MS.146         	38.237         	1.845
MS.147         	38.16          	1.869
MS.148         	38.085         	1.849
MS.149         	38.01          	1.829
MS.150         	37.932         	1.87
MS.151         	37.857         	1.88
MS.152         	37.782         	1.823
MS.153         	37.705         	1.864
MS.154         	37.63          	1.84
MS.155         	37.555         	1.848
MS.156         	37.48          	1.832
MS.157         	37.405         	1.875
MS.158         	37.33          	1.835
MS.159         	37.255         	1.794
MS.160         	37.182         	1.81
MS.161         	37.107         	1.791
MS.162         	37.032         	1.715
MS.163         	36.96          	1.655
MS.164         	36.885         	1.681
MS.165         	36.812         	1.632
MS.166         	36.737         	1.544
MS.167         	36.665         	1.575
MS.168         	36.592         	1.693
MS.169         	36.517         	1.509
MS.170         	36.445         	1.691
MS.171         	36.372         	1.625
MS.172         	36.3           	1.501
MS.173         	36.228         	1.526
MS.174         	36.155         	1.453
MS.175         	36.083         	1.546
MS.176         	36.01          	1.409
MS.177         	35.94          	1.356
MS.178         	35.868         	1.373
MS.179         	35.795         	1.406
MS.180         	35.725         	1.372
MS.181         	35.653         	1.402
MS.182         	35.58          	1.436
MS.183         	35.51          	1.323
MS.184         	35.44          	1.371
MS.185         	35.368         	1.359
MS.186         	35.298         	1.282
MS.187         	35.228         	1.311
MS.188         	35.157         	1.305
MS.189         	35.087         	1.285
MS.190         	35.017         	1.211
MS.191         	34.947         	1.274
MS.192         	34.877         	1.213
MS.193         	34.807         	1.248
MS.194         	34.737         	1.181
MS.195         	34.667         	1.243
MS.196         	34.597         	1.164
MS.197         	34.53          	1.226
MS.198         	34.46          	1.126
MS.199         	34.392         	1.132
MS.200         	34.322         	1.174
MS.201         	34.255         	1.175
MS.202         	34.185         	1.184
MS.203         	34.118         	1.146
MS.204         	34.05          	1.104
MS.205         	33.982         	0.999
MS.206         	33.912         	1.122
MS.207         	33.845         	0.983
MS.208         	33.778         	0.905
MS.209         	33.71          	0.928
MS.210         	33.642         	0.883
MS.211         	33.575         	0.87
MS.212         	33.51          	0.85
MS.213         	33.443         	0.866
MS.214         	33.375         	0.848
MS.215         	33.307         	0.785
MS.216         	33.243         	0.795
MS.217         	33.175         	0.755
MS.218         	33.11          	0.754
MS.219         	33.042         	0.72
MS.220         	32.978         	0.787
MS.221         	32.912         	0.682
MS.222         	32.845         	0.745
MS.223         	32.78          	0.762
MS.224         	32.715         	0.718
MS.225         	32.65          	0.737
MS.226         	32.585         	0.649
MS.227         	32.517         	0.74
MS.228         	32.455         	0.658
MS.229         	32.39          	0.686
MS.230         	32.325         	0.625
MS.231         	32.26          	0.599
MS.232         	32.195         	0.616
MS.233         	32.13          	0.573
MS.234         	32.068         	0.617
MS.235         	32.002         	0.599
MS.236         	31.938         	0.645
MS.237         	31.875         	0.609
MS.238         	31.81          	0.594
MS.239         	31.747         	0.616
MS.240         	31.685         	0.568
MS.241         	31.62          	0.578
MS.242         	31.557         	0.621
MS.243         	31.495         	0.536
MS.244         	31.432         	0.551
MS.245         	31.37          	0.541
MS.246         	31.305         	0.491
MS.247         	31.242         	0.554
MS.248         	31.18          	0.481
MS.249         	31.12          	0.506
MS.250         	31.057         	0.491
MS.251         	30.995         	0.479
MS.252         	30.932         	0.475
MS.253         	30.87          	0.525
MS.254         	30.81          	0.543
MS.255         	30.747         	0.482
MS.256         	30.688         	0.485
MS.257         	30.625         	0.456
MS.258         	30.565         	0.487
MS.259         	30.502         	0.471
MS.260         	30.442         	0.439
MS.261         	30.38          	0.472
MS.262         	30.32          	0.447
MS.263         	30.26          	0.43
MS.264         	30.2           	0.414
MS.265         	30.14          	0.431
MS.266         	30.077         	0.43
MS.267         	30.017         	0.43
MS.268         	29.957         	0.424
MS.269         	29.897         	0.4
MS.270         	29.84          	0.38
MS.271         	29.78          	0.427
MS.272         	29.72          	0.392
MS.273         	29.66          	0.416
MS.274         	29.6           	0.361
MS.275         	29.542         	0.354
MS.276         	29.483         	0.37
MS.277         	29.425         	0.377
MS.278         	29.365         	0.381
MS.279         	29.307         	0.369
MS.280         	29.247         	0.398
MS.281         	29.19          	0.363
MS.282         	29.132         	0.339
MS.283         	29.073         	0.288
MS.284         	29.015         	0.347
MS.285         	28.957         	0.291
MS.286         	28.9           	0.316
MS.287         	28.842         	0.287
MS.288         	28.785         	0.292
MS.289         	28.727         	0.296
MS.290         	28.67          	0.278
MS.291         	28.612         	0.273
MS.292         	28.555         	0.288
MS.293         	28.497         	0.26
MS.294         	28.44          	0.283
MS.295         	28.382         	0.241
MS.296         	28.327         	0.272
MS.297         	28.27          	0.21
MS.298         	28.215         	0.24
MS.299         	28.157         	0.237
MS.300         	28.102         	0.241
MS.301         	28.045         	0.168
MS.302         	27.99          	0.151
MS.303         	27.932         	0.167
MS.304         	27.877         	0.183
MS.305         	27.823         	0.135
MS.306         	27.765         	0.147
MS.307         	27.71          	0.17
MS.308         	27.655         	0.122
MS.309         	27.6           	0.172
MS.310         	27.545         	0.158
MS.311         	27.49          	0.17
MS.312         	27.435         	0.169
MS.313         	27.38          	0.163
MS.314         	27.325         	0.162
MS.315         	27.27          	0.137
MS.316         	27.217         	0.139
MS.317         	27.162         	0.143
MS.318         	27.108         	0.098
MS.319         	27.052         	0.126
MS.320         	27             	0.112
MS.321         	26.945         	0.123
MS.322         	26.892         	0.12
MS.323         	26.837         	0.11
MS.324         	26.785         	0.12
MS.325         	26.73          	0.106
MS.326         	26.677         	0.129
MS.327         	26.625         	0.106
MS.328         	26.57          	0.112
MS.329         	26.517         	0.125
MS.330         	26.465         	0.109
MS.331         	26.412         	0.104
MS.332         	26.36          	0.105
MS.333         	26.307         	0.091
MS.334         	26.255         	0.109
MS.335         	26.202         	0.107
MS.336         	26.15          	0.096
MS.337         	26.097         	0.09
MS.338         	26.045         	0.089
MS.339         	25.993         	0.103
MS.340         	25.94          	0.078
MS.341         	25.89          	0.104
MS.342         	25.837         	0.078
MS.343         	25.785         	0.099
MS.344         	25.735         	0.086
MS.345         	25.682         	0.09
MS.346         	25.632         	0.082
MS.347         	25.58          	0.082
MS.348         	25.53          	0.081
MS.349         	25.477         	0.085
MS.350         	25.427         	0.072
MS.351         	25.377         	0.079
MS.352         	25.325         	0.078
MS.353         	25.275         	0.077
MS.354         	25.225         	0.085
MS.355         	25.175         	0.078
MS.356         	25.125         	0.074
MS.357         	25.073         	0.074
MS.358         	25.022         	0.074
MS.359         	24.972         	0.068
MS.360         	24.922         	0.064
MS.361         	24.875         	0.075
MS.362         	24.825         	0.072
MS.363         	24.775         	0.071
MS.364         	24.725         	0.071
MS.365         	24.675         	0.076
MS.366         	24.627         	0.074
MS.367         	24.577         	0.074
MS.368         	24.528         	0.079
MS.369         	24.48          	0.07
MS.370         	24.43          	0.064
MS.371         	24.382         	0.056
MS.372         	24.332         	0.064
MS.373         	24.285         	0.063
MS.374         	24.235         	0.062
MS.375         	24.188         	0.07
MS.376         	24.137         	0.063
MS.377         	24.09          	0.069
MS.378         	24.042         	0.059
MS.379         	23.995         	0.059
MS.380         	23.948         	0.061
MS.381         	23.897         	0.087
MS.382         	23.85          	0.05
MS.383         	23.802         	0.059
MS.384         	23.755         	0.056
MS.385         	23.707         	0.046
MS.386         	23.66          	0.05
MS.387         	23.612         	0.044
MS.388         	23.567         	0.063
MS.389         	23.52          	0.056
MS.390         	23.472         	0.059
MS.391         	23.425         	0.047
MS.392         	23.377         	0.046
MS.393         	23.332         	0.022
MS.394         	23.285         	0.034
MS.395         	23.237         	0.045
MS.396         	23.192         	0.027
MS.397         	23.145         	0.025
MS.398         	23.1           	0.029
MS.399         	23.052         	0.036
MS.400         	23.007         	0.027
MS.401         	22.962         	0.031
MS.402         	22.915         	0.017
MS.403         	22.87          	0.032
MS.404         	22.825         	0.021
MS.405         	22.778         	0.018
MS.406         	22.733         	0.024
MS.407         	22.688         	0.022
MS.408         	22.642         	0.023
MS.409         	22.597         	0.022
MS.410         	22.552         	0.028
MS.411         	22.507         	0.027
MS.412         	22.462         	0.026
MS.413         	22.417         	0.024
MS.414         	22.372         	0.025
MS.415         	22.327         	0.023
MS.416         	22.282         	0.021
MS.417         	22.237         	0.024
MS.418         	22.195         	0.018
MS.419         	22.15          	0.021
MS.420         	22.105         	0.024
MS.421         	22.06          	0.023
MS.422         	22.017         	0.023
MS.423         	21.972         	0.02
MS.424         	21.93          	0.021
MS.425         	21.885         	0.022
MS.426         	21.842         	0.02
MS.427         	21.797         	0.021
MS.428         	21.755         	0.014
MS.429         	21.71          	0.021
MS.430         	21.667         	0.02
MS.431         	21.625         	0.016
MS.432         	21.58          	0.018
MS.433         	21.538         	0.013
MS.434         	21.495         	0.018
MS.435         	21.452         	0.018
MS.436         	21.41          	0.016
MS.437         	21.368         	0.015
MS.438         	21.323         	0.018
MS.439         	21.28          	0.017
MS.440         	21.237         	0.012
MS.441         	21.195         	0.013
MS.442         	21.153         	0.01
MS.443         	21.112         	0.014
MS.444         	21.07          	0.01
MS.445         	21.028         	0.006
MS.446         	20.985         	0.012
MS.447         	20.942         	0.009
MS.448         	20.903         	0.01
MS.449         	20.86          	0.012
MS.450         	20.817         	0.012
MS.451         	20.778         	0.01
MS.452         	20.735         	0.009
MS.453         	20.692         	0.01
MS.454         	20.653         	0.009
MS.455         	20.61          	0.009
MS.456         	20.57          	0.009
MS.457         	20.528         	0.007
MS.458         	20.487         	0.008
MS.459         	20.448         	0.008
MS.460         	20.405         	0.008
MS.461         	20.365         	0.009
MS.462         	20.325         	0.008
MS.463         	20.282         	0.007
MS.464         	20.243         	0.007
MS.465         	20.202         	0.007
MS.466         	20.163         	0.007
MS.467         	20.122         	0.005
MS.468         	20.083         	0.007
MS.469         	20.042         	0.007
MS.470         	20.002         	0.005
MS.471         	19.962         	0.007
MS.472         	19.922         	0.005
MS.473         	19.882         	0.006
MS.474         	19.842         	0.007
MS.475         	19.802         	0.006
MS.476         	19.762         	0.007
MS.477         	19.722         	0.006
MS.478         	19.685         	0.006
MS.479         	19.645         	0.005
MS.480         	19.605         	0.005
MS.481         	19.567         	0.004
MS.482         	19.528         	0.007
MS.483         	19.487         	0.007
MS.484         	19.45          	0.005
MS.485         	19.41          	0.006
MS.486         	19.372         	0.005
MS.487         	19.333         	0.007
MS.488         	19.295         	0.004
MS.489         	19.255         	0.006
MS.490         	19.217         	0.008
MS.491         	19.18          	0.004
MS.492         	19.14          	0.004
MS.493         	19.102         	0.005
MS.494         	19.065         	0.005
DERIVED EXCITABILITY VARIABLES
Program = QTracP 9/10/2021
Threshold method = 6 (optimised for CAP, using data for present condition only)
SR method = 1 (using actual data values)
6.                 	0.000               	Peak response\(mV)
9.                 	34                  	Temperature ( C)
17.                	70                  	Age (years)
18.                	1                   	Sex (M=1, F=2)

EXTRA VARIABLES

MScPeak(mV) = 2.48
MScS5(mA) = 26.99
MScS50(mA) = 34.84
MScS95(mA) = 43.37
MScNSteps = 4
MScSteps(%) = 11.5
MScStepMax(%) = 4.3
MScD50 = 45
MScSlope = 5.73
MScDuration(min) = 4.5
MSFTraces = 481
MSFPeakAmp(mV) = 2.48
MSFNUnits = 128
MSFMeanUnitAmp(uV) = 19.4
MSFHuntTime(m) = 1.93
MSFError(%) = 2.32
MSFNLarge = 34.88
MSFMedianAmp(%) = 0.591
MSFMedianAmp(mV) = 0.0147
MSFHalfAmpAmp(%) = 0.918
MSFHalfAmpAmp(mV) = 0.0228
MSFLargestAmp(%) = 2.8
MSFLargestAmp(mV) = 0.0695
MSFMeanRS(%) = 2
MSFSizeLimit(uV) = 6.2
MSFLimitType = 1
MSFSmallestAmp(uV) = 6.97
MSFOpts = 10106121

EXTRA WAVEFORMS


!MScan Model
!128
	1	21.53	0.59	2
	2	23.12	0.5	2
	3	23.31	0.28	2
	4	23.55	0.38	2
	5	24.21	0.62	2
	6	24.93	0.41	2
	7	25.65	0.49	2
	8	25.95	0.31	2
	9	26.21	0.31	2
	10	26.47	0.32	2
	11	26.9	0.54	2
	12	27.15	0.54	2
	13	27.73	1.37	2
	14	27.92	0.47	2
	15	28.01	0.6	2
	16	28.09	0.49	2
	17	28.16	0.35	2
	18	28.22	0.33	2
	19	28.3	0.47	2
	20	28.4	0.64	2
	21	28.5	0.59	2
	22	28.6	0.43	2
	23	28.7	0.47	2
	24	28.81	0.58	2
	25	28.94	0.68	2
	26	29.09	0.49	2
	27	29.28	0.93	2
	28	29.51	0.93	2
	29	29.68	0.59	2
	30	29.83	0.47	2
	31	29.96	0.48	2
	32	30.07	0.38	2
	33	30.16	0.33	2
	34	30.26	0.4	2
	35	30.35	0.42	2
	36	30.53	0.56	2
	37	30.93	1.34	2
	38	31.2	1.12	2
	39	31.34	0.6	2
	40	31.45	0.4	2
	41	31.56	0.57	2
	42	31.84	1.29	2
	43	32.07	0.88	2
	44	32.27	1.21	2
	45	32.42	0.56	2
	46	32.6	1.15	2
	47	32.82	1.66	2
	48	32.95	0.7	2
	49	33.02	0.42	2
	50	33.09	0.59	2
	51	33.16	0.58	2
	52	33.21	0.36	2
	53	33.25	0.32	2
	54	33.29	0.32	2
	55	33.33	0.3	2
	56	33.37	0.28	2
	57	33.41	0.49	2
	58	33.45	0.54	2
	59	33.49	0.57	2
	60	33.53	0.57	2
	61	33.57	0.57	2
	62	33.61	0.65	2
	63	33.66	0.67	2
	64	33.71	0.68	2
	65	33.75	0.74	2
	66	33.8	0.74	2
	67	33.85	0.75	2
	68	33.96	1.41	2
	69	34.11	2.8	2
	70	34.37	2.45	2
	71	34.57	1.5	2
	72	34.65	0.39	2
	73	34.72	0.33	2
	74	34.8	0.48	2
	75	34.87	0.6	2
	76	34.95	0.61	2
	77	35.01	0.53	2
	78	35.08	0.43	2
	79	35.14	0.44	2
	80	35.21	0.52	2
	81	35.37	1.34	2
	82	35.57	1.41	2
	83	35.76	1.34	2
	84	35.94	1.93	2
	85	36.12	1.63	2
	86	36.3	1.49	2
	87	36.47	1.78	2
	88	36.61	1.9	2
	89	36.72	1.1	2
	90	36.79	0.84	2
	91	36.87	0.58	2
	92	36.95	0.62	2
	93	37.03	0.92	2
	94	37.1	0.96	2
	95	37.24	1.87	2
	96	37.37	1.36	2
	97	38.11	1.77	2
	98	38.26	0.46	2
	99	38.49	0.57	2
	100	38.61	0.59	2
	101	38.77	0.69	2
	102	38.93	0.65	2
	103	39.46	1.9	2
	104	39.67	1.18	2
	105	39.85	1.03	2
	106	40.02	0.54	2
	107	40.18	0.91	2
	108	40.37	1.19	2
	109	40.54	0.65	2
	110	40.77	0.52	2
	111	40.93	0.57	2
	112	41.12	0.43	2
	113	41.37	0.59	2
	114	41.75	1.29	2
	115	42.03	0.98	2
	116	42.35	1.38	2
	117	42.73	1.24	2
	118	42.89	0.74	2
	119	43.08	0.83	2
	120	43.32	0.91	2
	121	43.56	0.78	2
	122	43.76	0.76	2
	123	43.93	0.65	2
	124	44.03	0.37	2
	125	44.12	0.3	2
	126	44.32	0.47	2
	127	44.42	0.31	2
	128	46.67	0.86	2

