File:              	C:\Qtrac\Data\Daniel M Sørensen\MScan multicentre study\Data from centres\Ankara\Processed data\EBC00825B.QZD
Name:              	TR.ANK.NC.4.1
Protocol:          	MSCAN-R2
Date:              	25/8/20
Start time:        	15:10:43
Age:               	38
Sex:               	m
Temperature:
S/R sites:         	ADM
NC/disease:        	NC
Operator:          	nt
Comments:
M-SCAN DATA (6.6-0.9m)
Scanpts: 143, 149, 594, 606
Stim. (mA)     	Amp. (mV)
MS.1           	18             	8.816
MS.2           	18             	8.831
MS.3           	18             	8.806
MS.4           	18             	8.794
MS.5           	18             	8.813
MS.6           	18             	8.799
MS.7           	18             	8.788
MS.8           	18             	8.785
MS.9           	18             	8.787
MS.10          	18             	9.097
MS.11          	18             	8.969
MS.12          	18             	8.799
MS.13          	18             	8.799
MS.14          	18             	8.807
MS.15          	18             	8.832
MS.16          	18             	8.779
MS.17          	18             	8.726
MS.18          	18             	8.779
MS.19          	18             	8.751
MS.20          	18             	8.76
MS.21          	18             	8.761
MS.22          	18             	8.743
MS.23          	18             	8.756
MS.24          	17.927         	8.761
MS.25          	17.892         	8.766
MS.26          	17.858         	8.726
MS.27          	17.82          	8.743
MS.28          	17.785         	8.79
MS.29          	17.75          	8.79
MS.30          	17.715         	8.79
MS.31          	17.68          	8.804
MS.32          	17.642         	8.783
MS.33          	17.608         	8.785
MS.34          	17.573         	8.759
MS.35          	17.538         	8.793
MS.36          	17.503         	8.744
MS.37          	17.467         	8.723
MS.38          	17.432         	8.737
MS.39          	17.397         	8.735
MS.40          	17.362         	8.757
MS.41          	17.33          	8.817
MS.42          	17.295         	8.857
MS.43          	17.26          	8.877
MS.44          	17.225         	8.887
MS.45          	17.19          	8.896
MS.46          	17.157         	8.905
MS.47          	17.122         	8.867
MS.48          	17.087         	8.837
MS.49          	17.052         	8.815
MS.50          	17.02          	8.881
MS.51          	16.985         	8.817
MS.52          	16.952         	8.842
MS.53          	16.917         	8.865
MS.54          	16.885         	8.843
MS.55          	16.85          	8.82
MS.56          	16.817         	8.842
MS.57          	16.782         	8.85
MS.58          	16.75          	8.848
MS.59          	16.715         	8.783
MS.60          	16.682         	8.752
MS.61          	16.65          	8.746
MS.62          	16.615         	8.748
MS.63          	16.583         	8.761
MS.64          	16.55          	8.815
MS.65          	16.517         	8.843
MS.66          	16.483         	8.894
MS.67          	16.45          	8.925
MS.68          	16.417         	8.942
MS.69          	16.385         	8.859
MS.70          	16.352         	8.875
MS.71          	16.32          	8.865
MS.72          	16.288         	8.878
MS.73          	16.255         	8.848
MS.74          	16.222         	8.829
MS.75          	16.19          	8.829
MS.76          	16.157         	8.872
MS.77          	16.125         	8.794
MS.78          	16.092         	8.855
MS.79          	16.06          	8.845
MS.80          	16.028         	8.822
MS.81          	15.997         	8.86
MS.82          	15.965         	8.812
MS.83          	15.932         	8.817
MS.84          	15.9           	8.804
MS.85          	15.87          	8.816
MS.86          	15.837         	8.796
MS.87          	15.805         	8.754
MS.88          	15.775         	8.862
MS.89          	15.742         	8.843
MS.90          	15.71          	8.824
MS.91          	15.68          	8.849
MS.92          	15.648         	8.783
MS.93          	15.617         	8.763
MS.94          	15.585         	8.757
MS.95          	15.555         	8.754
MS.96          	15.523         	8.712
MS.97          	15.492         	8.763
MS.98          	15.462         	8.809
MS.99          	15.43          	8.805
MS.100         	15.4           	8.807
MS.101         	15.37          	8.89
MS.102         	15.337         	8.895
MS.103         	15.307         	8.878
MS.104         	15.277         	8.822
MS.105         	15.247         	8.79
MS.106         	15.217         	8.811
MS.107         	15.185         	8.782
MS.108         	15.155         	8.796
MS.109         	15.125         	8.746
MS.110         	15.095         	8.828
MS.111         	15.065         	8.805
MS.112         	15.035         	8.829
MS.113         	15.005         	8.843
MS.114         	14.975         	8.896
MS.115         	14.945         	8.861
MS.116         	14.915         	8.846
MS.117         	14.885         	8.817
MS.118         	14.855         	8.855
MS.119         	14.825         	8.851
MS.120         	14.795         	8.896
MS.121         	14.767         	8.896
MS.122         	14.737         	8.86
MS.123         	14.707         	8.859
MS.124         	14.677         	8.788
MS.125         	14.65          	8.74
MS.126         	14.62          	8.79
MS.127         	14.59          	8.826
MS.128         	14.562         	8.853
MS.129         	14.532         	8.827
MS.130         	14.502         	8.844
MS.131         	14.475         	8.813
MS.132         	14.445         	8.837
MS.133         	14.417         	8.915
MS.134         	14.387         	8.866
MS.135         	14.36          	8.866
MS.136         	14.33          	8.982
MS.137         	14.302         	8.995
MS.138         	14.273         	8.865
MS.139         	14.245         	8.856
MS.140         	14.215         	8.9
MS.141         	14.188         	8.87
MS.142         	14.16          	8.87
MS.143         	14.13          	8.907
MS.144         	14.102         	8.857
MS.145         	14.075         	8.824
MS.146         	14.047         	8.772
MS.147         	14.017         	8.889
MS.148         	13.99          	8.933
MS.149         	13.962         	8.905
MS.150         	13.935         	8.86
MS.151         	13.907         	8.835
MS.152         	13.88          	8.92
MS.153         	13.85          	8.848
MS.154         	13.822         	8.883
MS.155         	13.795         	8.859
MS.156         	13.767         	8.828
MS.157         	13.74          	8.899
MS.158         	13.712         	8.842
MS.159         	13.685         	8.827
MS.160         	13.657         	8.927
MS.161         	13.632         	8.849
MS.162         	13.605         	8.828
MS.163         	13.577         	8.757
MS.164         	13.55          	8.749
MS.165         	13.523         	8.778
MS.166         	13.495         	8.719
MS.167         	13.467         	8.73
MS.168         	13.443         	8.778
MS.169         	13.415         	8.733
MS.170         	13.387         	8.779
MS.171         	13.362         	8.834
MS.172         	13.335         	8.779
MS.173         	13.307         	8.754
MS.174         	13.282         	8.823
MS.175         	13.255         	8.866
MS.176         	13.227         	8.851
MS.177         	13.202         	8.77
MS.178         	13.175         	8.784
MS.179         	13.15          	8.793
MS.180         	13.122         	8.715
MS.181         	13.097         	8.76
MS.182         	13.07          	8.693
MS.183         	13.045         	8.762
MS.184         	13.017         	8.789
MS.185         	12.992         	8.741
MS.186         	12.967         	8.649
MS.187         	12.94          	8.633
MS.188         	12.915         	8.658
MS.189         	12.89          	8.691
MS.190         	12.862         	8.783
MS.191         	12.837         	8.77
MS.192         	12.812         	8.724
MS.193         	12.785         	8.652
MS.194         	12.76          	8.551
MS.195         	12.735         	8.663
MS.196         	12.71          	8.584
MS.197         	12.685         	8.573
MS.198         	12.66          	8.582
MS.199         	12.632         	8.619
MS.200         	12.608         	8.752
MS.201         	12.582         	8.676
MS.202         	12.557         	8.661
MS.203         	12.532         	8.665
MS.204         	12.507         	8.516
MS.205         	12.483         	8.618
MS.206         	12.457         	8.612
MS.207         	12.432         	8.604
MS.208         	12.407         	8.436
MS.209         	12.382         	8.523
MS.210         	12.36          	8.516
MS.211         	12.335         	8.483
MS.212         	12.31          	8.439
MS.213         	12.285         	8.447
MS.214         	12.26          	8.359
MS.215         	12.235         	8.342
MS.216         	12.212         	8.452
MS.217         	12.188         	8.394
MS.218         	12.162         	8.413
MS.219         	12.137         	8.494
MS.220         	12.115         	8.448
MS.221         	12.09          	8.389
MS.222         	12.065         	8.279
MS.223         	12.042         	8.342
MS.224         	12.017         	8.37
MS.225         	11.992         	8.295
MS.226         	11.97          	8.45
MS.227         	11.945         	8.35
MS.228         	11.922         	8.27
MS.229         	11.898         	8.336
MS.230         	11.875         	8.385
MS.231         	11.85          	8.34
MS.232         	11.827         	8.474
MS.233         	11.802         	8.103
MS.234         	11.78          	8.066
MS.235         	11.755         	8.452
MS.236         	11.733         	8.53
MS.237         	11.71          	8.555
MS.238         	11.685         	8.525
MS.239         	11.662         	8.363
MS.240         	11.64          	8.387
MS.241         	11.615         	8.268
MS.242         	11.592         	8.333
MS.243         	11.57          	8.252
MS.244         	11.547         	8.419
MS.245         	11.523         	8.344
MS.246         	11.5           	8.359
MS.247         	11.477         	8.32
MS.248         	11.455         	8.481
MS.249         	11.432         	8.538
MS.250         	11.407         	8.25
MS.251         	11.385         	8.474
MS.252         	11.363         	8.274
MS.253         	11.34          	8.53
MS.254         	11.318         	8.226
MS.255         	11.295         	8.419
MS.256         	11.273         	8.215
MS.257         	11.25          	8.505
MS.258         	11.227         	8.44
MS.259         	11.205         	8.402
MS.260         	11.182         	8.308
MS.261         	11.16          	8.295
MS.262         	11.137         	8.329
MS.263         	11.115         	8.19
MS.264         	11.092         	8.101
MS.265         	11.073         	8.295
MS.266         	11.05          	8.181
MS.267         	11.028         	8.188
MS.268         	11.005         	8.301
MS.269         	10.983         	8.218
MS.270         	10.962         	8.276
MS.271         	10.94          	8.45
MS.272         	10.917         	8.289
MS.273         	10.895         	8.317
MS.274         	10.875         	8.274
MS.275         	10.852         	8.34
MS.276         	10.83          	8.311
MS.277         	10.81          	8.474
MS.278         	10.787         	8.348
MS.279         	10.765         	8.226
MS.280         	10.745         	8.182
MS.281         	10.722         	8.148
MS.282         	10.702         	8.12
MS.283         	10.68          	8.119
MS.284         	10.657         	8.127
MS.285         	10.637         	8.256
MS.286         	10.615         	8.102
MS.287         	10.595         	8.123
MS.288         	10.573         	8.314
MS.289         	10.552         	8.127
MS.290         	10.532         	8.119
MS.291         	10.51          	8.038
MS.292         	10.49          	8.081
MS.293         	10.467         	8.311
MS.294         	10.448         	8.123
MS.295         	10.427         	8.295
MS.296         	10.405         	8.225
MS.297         	10.385         	8.245
MS.298         	10.365         	8.024
MS.299         	10.342         	8.142
MS.300         	10.323         	7.924
MS.301         	10.302         	8.131
MS.302         	10.282         	8.102
MS.303         	10.26          	7.861
MS.304         	10.24          	7.949
MS.305         	10.22          	8.037
MS.306         	10.2           	7.904
MS.307         	10.18          	8.043
MS.308         	10.16          	8.048
MS.309         	10.14          	8.107
MS.310         	10.117         	8.058
MS.311         	10.097         	8.099
MS.312         	10.077         	7.96
MS.313         	10.057         	7.981
MS.314         	10.037         	8.074
MS.315         	10.017         	7.834
MS.316         	9.997          	7.877
MS.317         	9.977          	7.808
MS.318         	9.957          	7.886
MS.319         	9.938          	7.711
MS.320         	9.917          	7.737
MS.321         	9.898          	7.77
MS.322         	9.877          	7.614
MS.323         	9.86           	7.809
MS.324         	9.84           	7.587
MS.325         	9.82           	7.583
MS.326         	9.8            	7.573
MS.327         	9.78           	7.62
MS.328         	9.76           	7.542
MS.329         	9.74           	7.462
MS.330         	9.722          	7.433
MS.331         	9.702          	7.506
MS.332         	9.682          	7.725
MS.333         	9.662          	7.639
MS.334         	9.645          	7.65
MS.335         	9.625          	7.616
MS.336         	9.605          	7.632
MS.337         	9.587          	7.562
MS.338         	9.568          	7.391
MS.339         	9.547          	7.422
MS.340         	9.53           	7.489
MS.341         	9.51           	7.44
MS.342         	9.49           	7.578
MS.343         	9.472          	7.445
MS.344         	9.452          	7.439
MS.345         	9.435          	7.468
MS.346         	9.415          	7.423
MS.347         	9.398          	7.467
MS.348         	9.377          	7.413
MS.349         	9.36           	7.504
MS.350         	9.34           	7.482
MS.351         	9.323          	7.638
MS.352         	9.302          	7.542
MS.353         	9.285          	7.533
MS.354         	9.265          	7.458
MS.355         	9.247          	7.533
MS.356         	9.23           	7.557
MS.357         	9.21           	7.56
MS.358         	9.193          	7.555
MS.359         	9.175          	7.566
MS.360         	9.155          	7.444
MS.361         	9.137          	7.567
MS.362         	9.12           	7.571
MS.363         	9.1            	7.571
MS.364         	9.082          	7.532
MS.365         	9.065          	7.554
MS.366         	9.047          	7.584
MS.367         	9.028          	7.644
MS.368         	9.01           	7.588
MS.369         	8.992          	7.598
MS.370         	8.975          	7.588
MS.371         	8.957          	7.64
MS.372         	8.938          	7.512
MS.373         	8.92           	7.423
MS.374         	8.903          	7.673
MS.375         	8.885          	7.46
MS.376         	8.867          	7.628
MS.377         	8.85           	7.701
MS.378         	8.832          	7.413
MS.379         	8.815          	7.533
MS.380         	8.797          	7.567
MS.381         	8.78           	7.571
MS.382         	8.762          	7.628
MS.383         	8.745          	7.637
MS.384         	8.727          	7.572
MS.385         	8.71           	7.527
MS.386         	8.693          	7.495
MS.387         	8.675          	7.606
MS.388         	8.658          	7.534
MS.389         	8.64           	7.501
MS.390         	8.622          	7.771
MS.391         	8.605          	7.599
MS.392         	8.587          	7.454
MS.393         	8.57           	7.563
MS.394         	8.552          	7.428
MS.395         	8.537          	7.501
MS.396         	8.52           	7.505
MS.397         	8.502          	7.419
MS.398         	8.485          	7.515
MS.399         	8.467          	7.454
MS.400         	8.452          	7.463
MS.401         	8.435          	7.346
MS.402         	8.417          	7.391
MS.403         	8.4            	7.455
MS.404         	8.385          	7.295
MS.405         	8.367          	7.455
MS.406         	8.35           	7.534
MS.407         	8.335          	7.452
MS.408         	8.318          	7.399
MS.409         	8.3            	7.377
MS.410         	8.285          	7.428
MS.411         	8.267          	7.401
MS.412         	8.252          	7.295
MS.413         	8.235          	7.343
MS.414         	8.217          	7.375
MS.415         	8.202          	7.394
MS.416         	8.185          	7.338
MS.417         	8.17           	7.395
MS.418         	8.153          	7.34
MS.419         	8.137          	7.209
MS.420         	8.12           	7.257
MS.421         	8.105          	7.31
MS.422         	8.087          	7.318
MS.423         	8.073          	7.184
MS.424         	8.055          	7.094
MS.425         	8.04           	7.144
MS.426         	8.023          	7.163
MS.427         	8.007          	7.067
MS.428         	7.992          	7.124
MS.429         	7.975          	6.957
MS.430         	7.96           	6.821
MS.431         	7.942          	6.94
MS.432         	7.927          	6.346
MS.433         	7.912          	6.857
MS.434         	7.895          	6.648
MS.435         	7.88           	6.462
MS.436         	7.865          	6.503
MS.437         	7.85           	5.969
MS.438         	7.832          	6.05
MS.439         	7.817          	5.955
MS.440         	7.802          	5.658
MS.441         	7.787          	5.691
MS.442         	7.77           	6.119
MS.443         	7.755          	6.914
MS.444         	7.74           	6.683
MS.445         	7.725          	6.874
MS.446         	7.71           	6.813
MS.447         	7.692          	6.608
MS.448         	7.677          	6.519
MS.449         	7.662          	6.01
MS.450         	7.648          	5.847
MS.451         	7.632          	5.068
MS.452         	7.617          	5.364
MS.453         	7.602          	5.946
MS.454         	7.587          	6.571
MS.455         	7.572          	5.87
MS.456         	7.555          	5.956
MS.457         	7.54           	5.343
MS.458         	7.525          	6.096
MS.459         	7.51           	5.936
MS.460         	7.495          	6.024
MS.461         	7.48           	5.419
MS.462         	7.465          	5.231
MS.463         	7.45           	5.425
MS.464         	7.438          	5.366
MS.465         	7.422          	4.885
MS.466         	7.407          	5.361
MS.467         	7.392          	4.896
MS.468         	7.378          	4.666
MS.469         	7.362          	4.723
MS.470         	7.347          	3.639
MS.471         	7.332          	3.715
MS.472         	7.317          	4.502
MS.473         	7.302          	3.872
MS.474         	7.29           	3.848
MS.475         	7.275          	3.502
MS.476         	7.26           	3.153
MS.477         	7.245          	3.134
MS.478         	7.23           	3.497
MS.479         	7.217          	3.188
MS.480         	7.202          	2.969
MS.481         	7.188          	3.378
MS.482         	7.172          	3.009
MS.483         	7.16           	2.926
MS.484         	7.145          	3.231
MS.485         	7.13           	2.163
MS.486         	7.115          	2.042
MS.487         	7.102          	1.99
MS.488         	7.087          	1.713
MS.489         	7.072          	1.652
MS.490         	7.06           	2.014
MS.491         	7.045          	2.271
MS.492         	7.032          	1.965
MS.493         	7.017          	2.325
MS.494         	7.003          	2.228
MS.495         	6.99           	2.742
MS.496         	6.975          	2.537
MS.497         	6.962          	2.825
MS.498         	6.947          	2.413
MS.499         	6.932          	2.152
MS.500         	6.92           	1.776
MS.501         	6.905          	1.495
MS.502         	6.892          	1.631
MS.503         	6.878          	1.385
MS.504         	6.865          	1.313
MS.505         	6.85           	1.031
MS.506         	6.837          	1.023
MS.507         	6.822          	0.901
MS.508         	6.81           	0.964
MS.509         	6.795          	1.066
MS.510         	6.782          	1.024
MS.511         	6.77           	1.213
MS.512         	6.755          	0.972
MS.513         	6.742          	0.912
MS.514         	6.727          	1.25
MS.515         	6.715          	0.83
MS.516         	6.702          	1.08
MS.517         	6.688          	0.981
MS.518         	6.675          	0.703
MS.519         	6.662          	1.012
MS.520         	6.648          	0.687
MS.521         	6.635          	0.707
MS.522         	6.622          	0.767
MS.523         	6.608          	0.559
MS.524         	6.595          	0.428
MS.525         	6.582          	0.325
MS.526         	6.57           	0.394
MS.527         	6.555          	0.474
MS.528         	6.543          	0.446
MS.529         	6.53           	0.436
MS.530         	6.517          	0.25
MS.531         	6.503          	0.363
MS.532         	6.49           	0.273
MS.533         	6.477          	0.264
MS.534         	6.465          	0.242
MS.535         	6.452          	0.266
MS.536         	6.44           	0.266
MS.537         	6.425          	0.198
MS.538         	6.412          	0.278
MS.539         	6.4            	0.3
MS.540         	6.387          	0.291
MS.541         	6.375          	0.111
MS.542         	6.362          	0.259
MS.543         	6.35           	0.205
MS.544         	6.338          	0.222
MS.545         	6.325          	0.288
MS.546         	6.312          	0.104
MS.547         	6.3            	0.155
MS.548         	6.287          	0.164
MS.549         	6.273          	0.094
MS.550         	6.26           	0.249
MS.551         	6.247          	0.183
MS.552         	6.235          	0.177
MS.553         	6.222          	0.135
MS.554         	6.213          	0.084
MS.555         	6.2            	0.164
MS.556         	6.188          	0.172
MS.557         	6.175          	0.103
MS.558         	6.162          	0.087
MS.559         	6.15           	0.087
MS.560         	6.137          	0.07
MS.561         	6.125          	0.085
MS.562         	6.112          	0.098
MS.563         	6.1            	0.026
MS.564         	6.088          	0.021
MS.565         	6.075          	0.02
MS.566         	6.065          	0.021
MS.567         	6.052          	0.021
MS.568         	6.04           	0.05
MS.569         	6.027          	0.14
MS.570         	6.015          	0.017
MS.571         	6.003          	0.029
MS.572         	5.992          	0.084
MS.573         	5.98           	0.018
MS.574         	5.967          	0.02
MS.575         	5.955          	0.02
MS.576         	5.945          	0.079
MS.577         	5.932          	0.071
MS.578         	5.92           	0.084
MS.579         	5.907          	0.02
MS.580         	5.898          	0.026
MS.581         	5.885          	0.022
MS.582         	5.872          	0.017
MS.583         	5.862          	0.013
MS.584         	5.85           	0.018
MS.585         	5.838          	0.017
MS.586         	5.825          	0.022
MS.587         	5.815          	0.015
MS.588         	5.802          	0.023
MS.589         	5.793          	0.02
MS.590         	5.78           	0.027
MS.591         	5.767          	0.021
MS.592         	5.757          	0.021
MS.593         	5.745          	0.021
MS.594         	5.733          	0.018
MS.595         	5.722          	0.018
MS.596         	5.71           	0.015
MS.597         	5.7            	0.018
MS.598         	5.688          	0.017
MS.599         	5.677          	0.022
MS.600         	5.665          	0.022
MS.601         	5.655          	0.021
MS.602         	5.642          	0.018
MS.603         	5.632          	0.022
MS.604         	5.62           	0.02
MS.605         	5.61           	0.021
MS.606         	5.597          	0.021
MS.607         	5.588          	0.017
MS.608         	5.575          	0.021
MS.609         	5.565          	0.02
DERIVED EXCITABILITY VARIABLES
Program = QTracP 3/4/2020
Threshold method = 6 (optimised for CAP, using data for present condition only)
SR method = 1 (using actual data values)
6.                 	0.000               	Peak response\(mV)
17.                	38                  	Age (years)
18.                	1                   	Sex (M=1, F=2)

EXTRA VARIABLES

MScPeak(mV) = 8.79
MScS5(mA) = 6.56
MScS50(mA) = 7.33
MScS95(mA) = 11.56
MScNSteps = 3
MScSteps(%) = 11.9
MScStepMax(%) = 7.2
MScD50 = 29
MScSlope = 9.13
MSFPeakAmp(mV) = 8.85
MSFNUnits = 95
MSFMeanUnitAmp(uV) = 93.2
MSFHuntTime(m) = 2.73
MSFError(%) = 5.62
MSFNLarge = 20.96
MSFMedianAmp(%) = 0.776
MSFMedianAmp(mV) = 0.0687
MSFHalfAmpAmp(%) = 1.51
MSFHalfAmpAmp(mV) = 0.134
MSFLargestAmp(%) = 5.33
MSFLargestAmp(mV) = 0.472
MSFMeanRS(%) = 2
MSFOpts = 10106121
MScDuration(min) = 5.7
MSFTraces = 464
MSFSizeLimit(uV) = 22.1
MSFLimitType = 1
MSFSmallestAmp(uV) = 23.7

EXTRA WAVEFORMS


!MScan Model
!95
	1	6.08	0.36	2
	2	6.14	0.46	2
	3	6.19	0.4	2
	4	6.35	0.92	2
	5	6.47	0.78	2
	6	6.51	0.71	2
	7	6.54	0.6	2
	8	6.56	0.55	2
	9	6.58	0.53	2
	10	6.59	0.42	2
	11	6.61	0.42	2
	12	6.62	0.41	2
	13	6.63	0.56	2
	14	6.67	1.81	2
	15	6.77	2.29	2
	16	6.81	0.53	2
	17	6.83	0.99	2
	18	6.85	0.96	2
	19	6.86	0.53	2
	20	6.86	0.42	2
	21	6.87	0.92	2
	22	6.88	0.92	2
	23	6.89	0.87	2
	24	6.9	1.07	2
	25	6.95	5.33	2
	26	7.1	0.46	2
	27	7.11	0.66	2
	28	7.12	1.05	2
	29	7.14	1.84	2
	30	7.17	3.98	2
	31	7.2	2.79	2
	32	7.23	1.77	2
	33	7.25	1.51	2
	34	7.27	1.81	2
	35	7.29	1.32	2
	36	7.3	1.21	2
	37	7.31	1.62	2
	38	7.33	1.71	2
	39	7.34	1.65	2
	40	7.35	1.6	2
	41	7.36	1.54	2
	42	7.38	1.6	2
	43	7.39	0.89	2
	44	7.4	1.02	2
	45	7.41	1.09	2
	46	7.42	1.34	2
	47	7.46	4.95	2
	48	7.58	3.13	2
	49	7.65	3.99	2
	50	7.65	1	2
	51	7.86	2.02	2
	52	7.88	1.21	2
	53	7.9	1.6	2
	54	7.92	1.53	2
	55	7.94	1.44	2
	56	7.96	0.9	2
	57	7.98	0.79	2
	58	7.99	0.61	2
	59	8.01	0.55	2
	60	8.02	0.52	2
	61	8.04	0.33	2
	62	8.06	0.4	2
	63	8.07	0.41	2
	64	8.09	0.38	2
	65	8.11	0.31	2
	66	8.13	0.38	2
	67	8.16	0.6	2
	68	8.37	0.92	2
	69	8.51	0.64	2
	70	9.75	1.05	2
	71	9.82	0.4	2
	72	9.84	0.34	2
	73	9.86	0.35	2
	74	9.89	0.4	2
	75	9.91	0.37	2
	76	9.93	0.4	2
	77	9.95	0.35	2
	78	9.96	0.28	2
	79	10	0.49	2
	80	10.01	0.33	2
	81	10.28	1.47	2
	82	10.64	1.42	2
	83	10.7	0.31	2
	84	10.76	0.68	2
	85	11.15	0.39	2
	86	11.95	0.58	2
	87	12.25	1.06	2
	88	12.34	0.45	2
	89	12.37	0.27	2
	90	12.46	0.8	2
	91	12.66	0.67	2
	92	12.91	0.79	2
	93	13.42	0.76	2
	94	13.57	0.27	2
	95	13.68	0.47	2

