File:              	C:\Qtrac\Data\CKMC00909D.QZD
Name:              	RHS02
Protocol:          	MSCAN-R2
Date:              	9/9/20
Start time:        	13:33:40
Age:               	34
Sex:               	F
Temperature:       	37.8
S/R sites:         	RUlnar Wr-ADQ
NC/disease:        	NC
Operator:          	CK
Comments:          	CG
M-SCAN DATA (5.7-1.4m)
Scanpts: 8, 12, 455, 474
Stim. (mA)     	Amp. (mV)
MS.1           	19             	9.663
MS.2           	19             	9.636
MS.3           	19             	9.665
MS.4           	19             	9.683
MS.5           	19             	9.698
MS.6           	19             	9.705
MS.7           	19             	9.737
MS.8           	19             	9.721
MS.9           	19             	9.714
MS.10          	19             	9.764
MS.11          	19             	9.769
MS.12          	19             	9.756
MS.13          	19             	9.727
MS.14          	19             	9.709
MS.15          	19             	9.688
MS.16          	19             	9.665
MS.17          	19             	9.695
MS.18          	19             	9.688
MS.19          	19             	9.717
MS.20          	19             	9.738
MS.21          	19             	9.657
MS.22          	19             	9.7
MS.23          	19             	9.676
MS.24          	18.925         	9.634
MS.25          	18.885         	9.599
MS.26          	18.85          	9.596
MS.27          	18.81          	9.59
MS.28          	18.775         	9.607
MS.29          	18.735         	9.55
MS.30          	18.7           	9.526
MS.31          	18.66          	9.518
MS.32          	18.625         	9.537
MS.33          	18.585         	9.518
MS.34          	18.55          	9.496
MS.35          	18.51          	9.503
MS.36          	18.475         	9.544
MS.37          	18.44          	9.5
MS.38          	18.4           	9.386
MS.39          	18.365         	9.389
MS.40          	18.33          	9.441
MS.41          	18.29          	9.43
MS.42          	18.255         	9.409
MS.43          	18.22          	9.36
MS.44          	18.18          	9.427
MS.45          	18.145         	9.416
MS.46          	18.11          	9.428
MS.47          	18.075         	9.433
MS.48          	18.035         	9.43
MS.49          	18             	9.447
MS.50          	17.965         	9.384
MS.51          	17.93          	9.338
MS.52          	17.895         	9.37
MS.53          	17.86          	9.386
MS.54          	17.82          	9.358
MS.55          	17.785         	9.367
MS.56          	17.75          	9.346
MS.57          	17.715         	9.315
MS.58          	17.68          	9.303
MS.59          	17.645         	9.251
MS.60          	17.61          	9.264
MS.61          	17.575         	9.303
MS.62          	17.54          	9.242
MS.63          	17.505         	9.334
MS.64          	17.47          	9.268
MS.65          	17.435         	9.293
MS.66          	17.4           	9.34
MS.67          	17.365         	9.386
MS.68          	17.33          	9.328
MS.69          	17.295         	9.308
MS.70          	17.26          	9.291
MS.71          	17.225         	9.267
MS.72          	17.19          	9.286
MS.73          	17.155         	9.241
MS.74          	17.125         	9.271
MS.75          	17.09          	9.219
MS.76          	17.055         	9.276
MS.77          	17.02          	9.222
MS.78          	16.985         	9.268
MS.79          	16.955         	9.293
MS.80          	16.92          	9.224
MS.81          	16.885         	9.21
MS.82          	16.85          	9.18
MS.83          	16.82          	9.158
MS.84          	16.785         	9.218
MS.85          	16.75          	9.149
MS.86          	16.715         	9.082
MS.87          	16.685         	9.172
MS.88          	16.65          	9.079
MS.89          	16.615         	9.158
MS.90          	16.585         	9.132
MS.91          	16.55          	8.9
MS.92          	16.52          	8.9
MS.93          	16.485         	8.868
MS.94          	16.45          	8.92
MS.95          	16.42          	8.867
MS.96          	16.385         	8.94
MS.97          	16.355         	8.974
MS.98          	16.32          	8.902
MS.99          	16.29          	8.939
MS.100         	16.255         	8.975
MS.101         	16.225         	8.878
MS.102         	16.19          	8.89
MS.103         	16.16          	8.9
MS.104         	16.125         	8.896
MS.105         	16.095         	8.823
MS.106         	16.06          	8.885
MS.107         	16.03          	8.894
MS.108         	16             	8.865
MS.109         	15.965         	8.902
MS.110         	15.935         	8.884
MS.111         	15.9           	8.875
MS.112         	15.87          	8.844
MS.113         	15.84          	8.864
MS.114         	15.805         	8.835
MS.115         	15.775         	8.815
MS.116         	15.745         	8.82
MS.117         	15.71          	8.867
MS.118         	15.68          	8.781
MS.119         	15.65          	8.82
MS.120         	15.62          	8.824
MS.121         	15.585         	8.792
MS.122         	15.555         	8.777
MS.123         	15.525         	8.813
MS.124         	15.495         	8.743
MS.125         	15.465         	8.755
MS.126         	15.43          	8.733
MS.127         	15.4           	8.681
MS.128         	15.37          	8.727
MS.129         	15.34          	8.655
MS.130         	15.31          	8.713
MS.131         	15.28          	8.708
MS.132         	15.25          	8.606
MS.133         	15.215         	8.684
MS.134         	15.185         	8.533
MS.135         	15.155         	8.618
MS.136         	15.125         	8.612
MS.137         	15.095         	8.556
MS.138         	15.065         	8.662
MS.139         	15.035         	8.643
MS.140         	15.005         	8.586
MS.141         	14.975         	8.508
MS.142         	14.945         	8.505
MS.143         	14.915         	8.42
MS.144         	14.885         	8.502
MS.145         	14.855         	8.275
MS.146         	14.825         	8.167
MS.147         	14.795         	8.424
MS.148         	14.77          	8.391
MS.149         	14.74          	8.215
MS.150         	14.71          	8.424
MS.151         	14.68          	8.279
MS.152         	14.65          	8.109
MS.153         	14.62          	8.331
MS.154         	14.59          	8.07
MS.155         	14.56          	8.086
MS.156         	14.535         	8.369
MS.157         	14.505         	8.177
MS.158         	14.475         	8.188
MS.159         	14.445         	8.246
MS.160         	14.415         	8.006
MS.161         	14.39          	8.136
MS.162         	14.36          	8.08
MS.163         	14.33          	8.046
MS.164         	14.305         	8.075
MS.165         	14.275         	7.899
MS.166         	14.245         	8.07
MS.167         	14.215         	8
MS.168         	14.19          	7.84
MS.169         	14.16          	7.776
MS.170         	14.13          	7.944
MS.171         	14.105         	7.82
MS.172         	14.075         	7.928
MS.173         	14.045         	7.849
MS.174         	14.02          	7.823
MS.175         	13.99          	7.764
MS.176         	13.965         	7.88
MS.177         	13.935         	7.788
MS.178         	13.91          	7.71
MS.179         	13.88          	7.71
MS.180         	13.85          	7.689
MS.181         	13.825         	7.623
MS.182         	13.795         	7.66
MS.183         	13.77          	7.628
MS.184         	13.74          	7.544
MS.185         	13.715         	7.533
MS.186         	13.685         	7.541
MS.187         	13.66          	7.584
MS.188         	13.63          	7.555
MS.189         	13.605         	7.39
MS.190         	13.58          	7.373
MS.191         	13.55          	7.597
MS.192         	13.525         	7.657
MS.193         	13.495         	7.487
MS.194         	13.47          	7.509
MS.195         	13.445         	7.362
MS.196         	13.415         	7.388
MS.197         	13.39          	7.358
MS.198         	13.36          	7.292
MS.199         	13.335         	7.315
MS.200         	13.31          	7.259
MS.201         	13.28          	7.008
MS.202         	13.255         	7.199
MS.203         	13.23          	7.288
MS.204         	13.205         	6.906
MS.205         	13.175         	6.973
MS.206         	13.15          	6.981
MS.207         	13.125         	6.985
MS.208         	13.1           	7.019
MS.209         	13.07          	6.886
MS.210         	13.045         	6.865
MS.211         	13.02          	6.715
MS.212         	12.995         	6.807
MS.213         	12.965         	6.72
MS.214         	12.94          	6.68
MS.215         	12.915         	6.677
MS.216         	12.89          	6.596
MS.217         	12.865         	6.57
MS.218         	12.84          	6.262
MS.219         	12.815         	6.4
MS.220         	12.785         	6.239
MS.221         	12.76          	6.548
MS.222         	12.735         	6.352
MS.223         	12.71          	6.323
MS.224         	12.685         	6.203
MS.225         	12.66          	6.05
MS.226         	12.635         	5.888
MS.227         	12.61          	5.757
MS.228         	12.585         	6.065
MS.229         	12.56          	5.827
MS.230         	12.535         	5.807
MS.231         	12.51          	5.612
MS.232         	12.485         	5.771
MS.233         	12.46          	5.54
MS.234         	12.435         	5.701
MS.235         	12.41          	5.472
MS.236         	12.385         	5.629
MS.237         	12.36          	5.388
MS.238         	12.335         	5.511
MS.239         	12.31          	5.363
MS.240         	12.285         	5.295
MS.241         	12.26          	5.173
MS.242         	12.235         	5.214
MS.243         	12.21          	5.431
MS.244         	12.19          	5.066
MS.245         	12.165         	5.139
MS.246         	12.14          	5.107
MS.247         	12.115         	4.985
MS.248         	12.09          	4.857
MS.249         	12.065         	4.764
MS.250         	12.04          	4.724
MS.251         	12.02          	4.807
MS.252         	11.995         	4.637
MS.253         	11.97          	4.552
MS.254         	11.945         	4.788
MS.255         	11.925         	4.532
MS.256         	11.9           	4.773
MS.257         	11.875         	4.382
MS.258         	11.85          	4.515
MS.259         	11.83          	4.419
MS.260         	11.805         	4.384
MS.261         	11.78          	4.303
MS.262         	11.755         	4.182
MS.263         	11.735         	4.164
MS.264         	11.71          	4.14
MS.265         	11.685         	4.373
MS.266         	11.665         	4.216
MS.267         	11.64          	3.941
MS.268         	11.615         	3.88
MS.269         	11.595         	3.624
MS.270         	11.57          	4.048
MS.271         	11.545         	3.647
MS.272         	11.525         	3.864
MS.273         	11.5           	3.777
MS.274         	11.48          	3.578
MS.275         	11.455         	3.88
MS.276         	11.43          	3.665
MS.277         	11.41          	3.192
MS.278         	11.385         	3.372
MS.279         	11.365         	3.448
MS.280         	11.34          	3.403
MS.281         	11.32          	3.047
MS.282         	11.295         	3.102
MS.283         	11.275         	2.774
MS.284         	11.25          	3.246
MS.285         	11.23          	2.797
MS.286         	11.205         	2.838
MS.287         	11.185         	2.672
MS.288         	11.16          	2.446
MS.289         	11.14          	2.545
MS.290         	11.115         	2.251
MS.291         	11.095         	2.467
MS.292         	11.07          	2.303
MS.293         	11.05          	2.092
MS.294         	11.03          	2.515
MS.295         	11.005         	2.475
MS.296         	10.985         	2.405
MS.297         	10.96          	2.185
MS.298         	10.94          	1.999
MS.299         	10.92          	1.976
MS.300         	10.895         	1.839
MS.301         	10.875         	1.833
MS.302         	10.855         	1.794
MS.303         	10.83          	1.804
MS.304         	10.81          	2.089
MS.305         	10.79          	1.784
MS.306         	10.765         	1.814
MS.307         	10.745         	1.848
MS.308         	10.725         	1.477
MS.309         	10.7           	1.588
MS.310         	10.68          	1.645
MS.311         	10.66          	1.717
MS.312         	10.64          	1.544
MS.313         	10.615         	1.605
MS.314         	10.595         	1.45
MS.315         	10.575         	1.451
MS.316         	10.555         	1.578
MS.317         	10.53          	1.448
MS.318         	10.51          	1.323
MS.319         	10.49          	1.411
MS.320         	10.47          	1.324
MS.321         	10.45          	1.205
MS.322         	10.425         	1.21
MS.323         	10.405         	1.14
MS.324         	10.385         	1.035
MS.325         	10.365         	1.166
MS.326         	10.345         	1.007
MS.327         	10.325         	1.089
MS.328         	10.305         	1.237
MS.329         	10.28          	1.088
MS.330         	10.26          	1.175
MS.331         	10.24          	0.893
MS.332         	10.22          	0.995
MS.333         	10.2           	0.978
MS.334         	10.18          	1.003
MS.335         	10.16          	0.996
MS.336         	10.14          	0.661
MS.337         	10.12          	0.83
MS.338         	10.1           	0.824
MS.339         	10.08          	0.952
MS.340         	10.06          	0.656
MS.341         	10.04          	0.851
MS.342         	10.02          	0.562
MS.343         	10             	0.592
MS.344         	9.98           	0.587
MS.345         	9.96           	0.604
MS.346         	9.94           	0.537
MS.347         	9.92           	0.6
MS.348         	9.9            	0.591
MS.349         	9.88           	0.497
MS.350         	9.86           	0.545
MS.351         	9.84           	0.42
MS.352         	9.82           	0.243
MS.353         	9.8            	0.542
MS.354         	9.78           	0.452
MS.355         	9.76           	0.462
MS.356         	9.74           	0.424
MS.357         	9.72           	0.433
MS.358         	9.705          	0.417
MS.359         	9.685          	0.345
MS.360         	9.665          	0.215
MS.361         	9.645          	0.22
MS.362         	9.625          	0.395
MS.363         	9.605          	0.261
MS.364         	9.585          	0.212
MS.365         	9.57           	0.177
MS.366         	9.55           	0.337
MS.367         	9.53           	0.139
MS.368         	9.51           	0.319
MS.369         	9.49           	0.232
MS.370         	9.475          	0.197
MS.371         	9.455          	0.174
MS.372         	9.435          	0.151
MS.373         	9.415          	0.151
MS.374         	9.395          	0.125
MS.375         	9.38           	0.139
MS.376         	9.36           	0.197
MS.377         	9.34           	0.101
MS.378         	9.325          	0.131
MS.379         	9.305          	0.148
MS.380         	9.285          	0.346
MS.381         	9.265          	0.128
MS.382         	9.25           	0.13
MS.383         	9.23           	0.095
MS.384         	9.21           	0.244
MS.385         	9.195          	0.128
MS.386         	9.175          	0.145
MS.387         	9.155          	0.093
MS.388         	9.14           	0.125
MS.389         	9.12           	0.114
MS.390         	9.1            	0.114
MS.391         	9.085          	0.076
MS.392         	9.065          	0.092
MS.393         	9.045          	0.133
MS.394         	9.03           	0.087
MS.395         	9.01           	0.078
MS.396         	8.995          	0.073
MS.397         	8.975          	0.105
MS.398         	8.955          	0.107
MS.399         	8.94           	0.092
MS.400         	8.92           	0.073
MS.401         	8.905          	0.099
MS.402         	8.885          	0.092
MS.403         	8.87           	0.078
MS.404         	8.85           	0.085
MS.405         	8.83           	0.063
MS.406         	8.815          	0.101
MS.407         	8.795          	0.06
MS.408         	8.78           	0.07
MS.409         	8.76           	0.073
MS.410         	8.745          	0.072
MS.411         	8.725          	0.082
MS.412         	8.71           	0.069
MS.413         	8.69           	0.099
MS.414         	8.675          	0.07
MS.415         	8.66           	0.066
MS.416         	8.64           	0.067
MS.417         	8.625          	0.064
MS.418         	8.605          	0.055
MS.419         	8.59           	0.047
MS.420         	8.57           	0.05
MS.421         	8.555          	0.06
MS.422         	8.535          	0.066
MS.423         	8.52           	0.05
MS.424         	8.505          	0.043
MS.425         	8.485          	0.069
MS.426         	8.47           	0.06
MS.427         	8.45           	0.049
MS.428         	8.435          	0.061
MS.429         	8.42           	0.044
MS.430         	8.4            	0.05
MS.431         	8.385          	0.06
MS.432         	8.37           	0.047
MS.433         	8.35           	0.063
MS.434         	8.335          	0.056
MS.435         	8.32           	0.049
MS.436         	8.3            	0.044
MS.437         	8.285          	0.056
MS.438         	8.27           	0.038
MS.439         	8.25           	0.049
MS.440         	8.235          	0.052
MS.441         	8.22           	0.05
MS.442         	8.2            	0.047
MS.443         	8.185          	0.049
MS.444         	8.17           	0.044
MS.445         	8.155          	0.049
MS.446         	8.135          	0.067
MS.447         	8.12           	0.07
MS.448         	8.105          	0.05
MS.449         	8.09           	0.055
MS.450         	8.07           	0.046
MS.451         	8.055          	0.034
MS.452         	8.04           	0.049
MS.453         	8.025          	0.052
MS.454         	8.01           	0.05
MS.455         	7.99           	0.044
MS.456         	7.975          	0.06
MS.457         	7.96           	0.05
MS.458         	7.945          	0.049
MS.459         	7.93           	0.055
MS.460         	7.91           	0.049
MS.461         	7.895          	0.038
MS.462         	7.88           	0.053
MS.463         	7.865          	0.044
MS.464         	7.85           	0.06
MS.465         	7.835          	0.041
MS.466         	7.82           	0.035
MS.467         	7.8            	0.055
MS.468         	7.785          	0.047
MS.469         	7.77           	0.041
MS.470         	7.755          	0.052
MS.471         	7.74           	0.049
MS.472         	7.725          	0.047
MS.473         	7.71           	0.038
MS.474         	7.695          	0.044
DERIVED EXCITABILITY VARIABLES
Program = QTracP 6/7/2018
Threshold method = 6 (optimised for CAP, using data for present condition only)
SR method = 1 (using actual data values)
6.                 	0.000               	Peak response\(mV)
9.                 	37.8                	Temperature ( C)
17.                	34                  	Age (years)
18.                	2                   	Sex (M=1, F=2)

EXTRA VARIABLES

MScPeak(mV) = 9.66
MScS5(mA) = 9.81
MScS50(mA) = 12.08
MScS95(mA) = 16.8
MScNSteps = 1
MScSteps(%) = 2.2
MScStepMax(%) = 2.2
MSFPeakAmp(mV) = 9.7
MSFNUnits = 147
MSFMeanUnitAmp(uV) = 66
MSFHuntTime(m) = 2.55
MSFError(%) = 3.1
MSFNLarge = 40.41
MSFMedianAmp(%) = 0.528
MSFMedianAmp(mV) = 0.0512
MSFHalfAmpAmp(%) = 0.75
MSFHalfAmpAmp(mV) = 0.0727
MSFLargestAmp(%) = 2.54
MSFLargestAmp(mV) = 0.246
MSFMeanRS(%) = 2
MSFOpts = 10106121
MScDuration(min) = 4.3
MSFTraces = 467
MSFSizeLimit(uV) = 24.2
MSFLimitType = 1
MSFSmallestAmp(uV) = 24.4

EXTRA WAVEFORMS


!MScan Model
!147
	1	8.62	0.49	2
	2	9.31	0.69	2
	3	9.46	0.31	2
	4	9.62	1.05	2
	5	9.67	0.39	2
	6	9.75	0.93	2
	7	9.87	0.81	2
	8	9.92	0.44	2
	9	9.96	0.65	2
	10	10	0.64	2
	11	10.04	0.53	2
	12	10.09	0.67	2
	13	10.2	2.54	2
	14	10.32	0.59	2
	15	10.37	0.77	2
	16	10.41	0.44	2
	17	10.44	0.34	2
	18	10.46	0.39	2
	19	10.48	0.26	2
	20	10.5	0.56	2
	21	10.62	1.88	2
	22	10.68	1.03	2
	23	10.76	1.33	2
	24	10.85	0.99	2
	25	10.9	1.63	2
	26	10.99	2.09	2
	27	11.07	1.31	2
	28	11.1	0.8	2
	29	11.13	1.05	2
	30	11.15	0.61	2
	31	11.17	0.49	2
	32	11.18	0.49	2
	33	11.2	0.62	2
	34	11.21	0.58	2
	35	11.23	0.51	2
	36	11.24	0.59	2
	37	11.26	0.6	2
	38	11.27	0.6	2
	39	11.31	1.26	2
	40	11.34	1.36	2
	41	11.4	1.8	2
	42	11.48	2.11	2
	43	11.54	1.2	2
	44	11.58	1.16	2
	45	11.61	0.84	2
	46	11.64	0.67	2
	47	11.67	0.36	2
	48	11.7	0.59	2
	49	11.73	0.76	2
	50	11.75	0.63	2
	51	11.77	0.42	2
	52	11.79	0.37	2
	53	11.81	0.42	2
	54	11.84	0.66	2
	55	11.9	1.25	2
	56	11.96	0.97	2
	57	11.99	0.38	2
	58	12	0.35	2
	59	12.02	0.45	2
	60	12.04	0.53	2
	61	12.06	0.5	2
	62	12.08	0.49	2
	63	12.1	0.49	2
	64	12.12	0.47	2
	65	12.14	0.32	2
	66	12.15	0.32	2
	67	12.17	0.37	2
	68	12.19	0.44	2
	69	12.21	0.46	2
	70	12.25	0.87	2
	71	12.29	0.77	2
	72	12.32	0.54	2
	73	12.34	0.4	2
	74	12.37	0.43	2
	75	12.39	0.49	2
	76	12.41	0.48	2
	77	12.43	0.46	2
	78	12.46	0.46	2
	79	12.48	0.5	2
	80	12.51	0.42	2
	81	12.53	0.4	2
	82	12.56	0.55	2
	83	12.6	0.98	2
	84	12.64	1.06	2
	85	12.69	1.02	2
	86	12.74	1.06	2
	87	12.79	1.65	2
	88	12.82	0.6	2
	89	12.84	0.25	2
	90	12.85	0.25	2
	91	12.87	0.25	2
	92	12.89	0.42	2
	93	12.92	0.48	2
	94	12.94	0.32	2
	95	12.95	0.32	2
	96	12.97	0.37	2
	97	13	0.61	2
	98	13.03	0.45	2
	99	13.06	0.54	2
	100	13.1	0.6	2
	101	13.14	0.71	2
	102	13.19	0.69	2
	103	13.23	0.64	2
	104	13.27	0.52	2
	105	13.3	0.49	2
	106	13.35	1.26	2
	107	13.6	2.02	2
	108	13.73	0.44	2
	109	13.76	0.26	2
	110	13.79	0.31	2
	111	13.82	0.26	2
	112	13.85	0.31	2
	113	13.88	0.32	2
	114	14.07	1.26	2
	115	14.16	0.81	2
	116	14.21	0.33	2
	117	14.3	0.64	2
	118	14.39	0.95	2
	119	14.71	1.77	2
	120	14.77	0.47	2
	121	14.81	0.33	2
	122	14.85	0.36	2
	123	14.89	0.51	2
	124	14.96	0.82	2
	125	15.11	0.96	2
	126	15.31	0.69	2
	127	15.38	0.4	2
	128	15.47	0.33	2
	129	15.53	0.26	2
	130	15.62	0.36	2
	131	15.83	0.51	2
	132	16.29	0.75	2
	133	16.45	0.35	1.6
	134	16.53	0.59	2
	135	16.69	1.5	2
	136	16.84	0.51	2
	137	17.1	0.7	2
	138	17.72	0.62	2
	139	17.85	0.37	2
	140	18.26	0.5	2
	141	18.4	0.47	2
	142	18.52	0.33	2
	143	18.65	0.48	2
	144	18.76	0.38	2
	145	18.86	0.42	2
	146	19	0.56	2
	147	19.24	0.4	2

