File:              	C:\Qtrac\Data\CKMC01111B.QZD
Name:              	RHS07
Protocol:          	MSCAN-R2
Date:              	11/11/20
Start time:        	09:35:09
Age:               	73
Sex:               	M
Temperature:       	37.2
S/R sites:         	RUln Wr-ADQ
NC/disease:        	NC
Operator:          	CK
Comments:          	CG
M-SCAN DATA (6.9-2.1m)
Scanpts: 56, 60, 502, 521
Stim. (mA)     	Amp. (mV)
MS.1           	34             	7.306
MS.2           	34             	7.28
MS.3           	34             	7.319
MS.4           	34             	7.311
MS.5           	34             	7.308
MS.6           	34             	7.289
MS.7           	34             	7.249
MS.8           	34             	7.242
MS.9           	34             	7.261
MS.10          	34             	7.273
MS.11          	34             	7.261
MS.12          	34             	7.308
MS.13          	34             	7.309
MS.14          	34             	7.274
MS.15          	34             	7.316
MS.16          	34             	7.338
MS.17          	34             	7.339
MS.18          	34             	7.311
MS.19          	34             	7.348
MS.20          	34             	7.351
MS.21          	34             	7.316
MS.22          	34             	7.344
MS.23          	34             	7.338
MS.24          	33.865         	7.285
MS.25          	33.795         	7.291
MS.26          	33.73          	7.35
MS.27          	33.66          	7.399
MS.28          	33.595         	7.316
MS.29          	33.525         	7.331
MS.30          	33.46          	7.428
MS.31          	33.395         	7.426
MS.32          	33.325         	7.452
MS.33          	33.26          	7.454
MS.34          	33.195         	7.496
MS.35          	33.125         	7.462
MS.36          	33.06          	7.476
MS.37          	32.995         	7.501
MS.38          	32.93          	7.444
MS.39          	32.865         	7.477
MS.40          	32.8           	7.542
MS.41          	32.73          	7.534
MS.42          	32.665         	7.531
MS.43          	32.6           	7.535
MS.44          	32.535         	7.527
MS.45          	32.47          	7.518
MS.46          	32.405         	7.495
MS.47          	32.34          	7.551
MS.48          	32.275         	7.554
MS.49          	32.215         	7.493
MS.50          	32.15          	7.822
MS.51          	32.085         	7.892
MS.52          	32.02          	7.872
MS.53          	31.955         	7.838
MS.54          	31.89          	7.811
MS.55          	31.83          	7.861
MS.56          	31.765         	7.879
MS.57          	31.7           	7.843
MS.58          	31.64          	7.918
MS.59          	31.575         	7.861
MS.60          	31.51          	7.893
MS.61          	31.45          	7.885
MS.62          	31.385         	7.866
MS.63          	31.325         	7.894
MS.64          	31.26          	7.848
MS.65          	31.2           	7.867
MS.66          	31.135         	7.872
MS.67          	31.075         	7.822
MS.68          	31.01          	7.816
MS.69          	30.95          	7.886
MS.70          	30.89          	7.859
MS.71          	30.825         	7.899
MS.72          	30.765         	7.881
MS.73          	30.705         	7.85
MS.74          	30.64          	7.878
MS.75          	30.58          	7.838
MS.76          	30.52          	7.835
MS.77          	30.46          	7.742
MS.78          	30.395         	7.869
MS.79          	30.335         	7.782
MS.80          	30.275         	7.871
MS.81          	30.215         	7.734
MS.82          	30.155         	7.659
MS.83          	30.095         	7.784
MS.84          	30.035         	7.726
MS.85          	29.975         	7.712
MS.86          	29.915         	7.773
MS.87          	29.855         	7.767
MS.88          	29.795         	7.697
MS.89          	29.735         	7.769
MS.90          	29.675         	7.727
MS.91          	29.615         	7.708
MS.92          	29.56          	7.82
MS.93          	29.5           	7.77
MS.94          	29.44          	7.598
MS.95          	29.38          	7.695
MS.96          	29.325         	7.652
MS.97          	29.265         	7.526
MS.98          	29.205         	7.476
MS.99          	29.145         	7.606
MS.100         	29.09          	7.605
MS.101         	29.03          	7.561
MS.102         	28.975         	7.527
MS.103         	28.915         	7.468
MS.104         	28.855         	7.523
MS.105         	28.8           	7.418
MS.106         	28.74          	7.39
MS.107         	28.685         	7.42
MS.108         	28.625         	7.466
MS.109         	28.57          	7.329
MS.110         	28.515         	7.411
MS.111         	28.455         	7.285
MS.112         	28.4           	7.185
MS.113         	28.34          	7.242
MS.114         	28.285         	7.22
MS.115         	28.23          	7.139
MS.116         	28.175         	7.256
MS.117         	28.115         	7.241
MS.118         	28.06          	7.213
MS.119         	28.005         	7.129
MS.120         	27.95          	7.078
MS.121         	27.89          	6.834
MS.122         	27.835         	7.108
MS.123         	27.78          	6.961
MS.124         	27.725         	7.125
MS.125         	27.67          	6.88
MS.126         	27.615         	7.018
MS.127         	27.56          	7.029
MS.128         	27.505         	6.788
MS.129         	27.45          	6.76
MS.130         	27.395         	6.893
MS.131         	27.34          	6.908
MS.132         	27.285         	6.494
MS.133         	27.23          	6.49
MS.134         	27.175         	6.584
MS.135         	27.12          	6.901
MS.136         	27.07          	6.551
MS.137         	27.015         	6.451
MS.138         	26.96          	6.393
MS.139         	26.905         	6.393
MS.140         	26.85          	6.426
MS.141         	26.8           	6.449
MS.142         	26.745         	6.44
MS.143         	26.69          	6.058
MS.144         	26.64          	6.341
MS.145         	26.585         	6.422
MS.146         	26.53          	5.999
MS.147         	26.48          	6.382
MS.148         	26.425         	6.177
MS.149         	26.375         	5.956
MS.150         	26.32          	6.071
MS.151         	26.27          	5.922
MS.152         	26.215         	5.842
MS.153         	26.165         	6.127
MS.154         	26.11          	5.684
MS.155         	26.06          	5.939
MS.156         	26.005         	5.792
MS.157         	25.955         	5.391
MS.158         	25.905         	5.295
MS.159         	25.85          	5.811
MS.160         	25.8           	5.421
MS.161         	25.75          	5.37
MS.162         	25.695         	5.613
MS.163         	25.645         	4.976
MS.164         	25.595         	5.427
MS.165         	25.545         	5.247
MS.166         	25.49          	4.788
MS.167         	25.44          	4.868
MS.168         	25.39          	4.713
MS.169         	25.34          	4.742
MS.170         	25.29          	4.686
MS.171         	25.24          	4.595
MS.172         	25.19          	4.451
MS.173         	25.135         	4.719
MS.174         	25.085         	4.317
MS.175         	25.035         	4.246
MS.176         	24.985         	4.387
MS.177         	24.935         	4.411
MS.178         	24.885         	4.266
MS.179         	24.84          	4.23
MS.180         	24.79          	4.326
MS.181         	24.74          	4.114
MS.182         	24.69          	4.272
MS.183         	24.64          	3.983
MS.184         	24.59          	4.077
MS.185         	24.54          	3.995
MS.186         	24.49          	4.115
MS.187         	24.445         	4.029
MS.188         	24.395         	3.836
MS.189         	24.345         	3.807
MS.190         	24.295         	3.816
MS.191         	24.25          	3.743
MS.192         	24.2           	3.805
MS.193         	24.15          	3.773
MS.194         	24.105         	3.708
MS.195         	24.055         	3.727
MS.196         	24.005         	3.721
MS.197         	23.96          	3.652
MS.198         	23.91          	3.608
MS.199         	23.865         	3.722
MS.200         	23.815         	3.568
MS.201         	23.77          	3.604
MS.202         	23.72          	3.629
MS.203         	23.675         	3.563
MS.204         	23.625         	3.629
MS.205         	23.58          	3.511
MS.206         	23.53          	3.599
MS.207         	23.485         	3.455
MS.208         	23.44          	3.344
MS.209         	23.39          	3.356
MS.210         	23.345         	3.502
MS.211         	23.3           	3.299
MS.212         	23.25          	3.143
MS.213         	23.205         	2.921
MS.214         	23.16          	3.13
MS.215         	23.11          	3.035
MS.216         	23.065         	3.075
MS.217         	23.02          	2.998
MS.218         	22.975         	3.112
MS.219         	22.93          	2.8
MS.220         	22.88          	3.023
MS.221         	22.835         	2.838
MS.222         	22.79          	2.918
MS.223         	22.745         	2.664
MS.224         	22.7           	2.621
MS.225         	22.655         	2.753
MS.226         	22.61          	2.81
MS.227         	22.565         	2.57
MS.228         	22.52          	2.443
MS.229         	22.475         	2.474
MS.230         	22.43          	2.455
MS.231         	22.385         	2.294
MS.232         	22.34          	2.281
MS.233         	22.295         	2.336
MS.234         	22.25          	2.209
MS.235         	22.205         	2.297
MS.236         	22.16          	2.184
MS.237         	22.115         	2.167
MS.238         	22.075         	2.065
MS.239         	22.03          	2.089
MS.240         	21.985         	2.183
MS.241         	21.94          	2.125
MS.242         	21.895         	1.973
MS.243         	21.855         	1.99
MS.244         	21.81          	1.918
MS.245         	21.765         	1.827
MS.246         	21.725         	1.95
MS.247         	21.68          	1.989
MS.248         	21.635         	1.887
MS.249         	21.595         	1.762
MS.250         	21.55          	1.863
MS.251         	21.505         	1.869
MS.252         	21.465         	1.761
MS.253         	21.42          	1.835
MS.254         	21.38          	1.584
MS.255         	21.335         	1.713
MS.256         	21.295         	1.933
MS.257         	21.25          	1.7
MS.258         	21.21          	1.729
MS.259         	21.165         	1.643
MS.260         	21.125         	1.632
MS.261         	21.08          	1.555
MS.262         	21.04          	1.315
MS.263         	20.995         	1.476
MS.264         	20.955         	1.552
MS.265         	20.915         	1.522
MS.266         	20.87          	1.498
MS.267         	20.83          	1.476
MS.268         	20.79          	1.321
MS.269         	20.745         	1.304
MS.270         	20.705         	1.34
MS.271         	20.665         	1.288
MS.272         	20.62          	1.268
MS.273         	20.58          	1.251
MS.274         	20.54          	1.353
MS.275         	20.5           	1.274
MS.276         	20.46          	1.276
MS.277         	20.415         	1.234
MS.278         	20.375         	1.289
MS.279         	20.335         	1.25
MS.280         	20.295         	1.157
MS.281         	20.255         	1.037
MS.282         	20.215         	1.162
MS.283         	20.175         	1.105
MS.284         	20.135         	1.082
MS.285         	20.095         	1.16
MS.286         	20.055         	1.002
MS.287         	20.01          	0.979
MS.288         	19.975         	0.856
MS.289         	19.935         	1.027
MS.290         	19.895         	0.972
MS.291         	19.855         	1.104
MS.292         	19.815         	0.993
MS.293         	19.775         	0.845
MS.294         	19.735         	0.964
MS.295         	19.695         	0.955
MS.296         	19.655         	0.917
MS.297         	19.615         	0.803
MS.298         	19.575         	0.934
MS.299         	19.54          	0.854
MS.300         	19.5           	0.855
MS.301         	19.46          	0.775
MS.302         	19.42          	0.844
MS.303         	19.38          	0.686
MS.304         	19.345         	0.68
MS.305         	19.305         	0.76
MS.306         	19.265         	0.659
MS.307         	19.23          	0.649
MS.308         	19.19          	0.621
MS.309         	19.15          	0.676
MS.310         	19.115         	0.618
MS.311         	19.075         	0.587
MS.312         	19.035         	0.578
MS.313         	19             	0.63
MS.314         	18.96          	0.579
MS.315         	18.925         	0.54
MS.316         	18.885         	0.518
MS.317         	18.845         	0.577
MS.318         	18.81          	0.491
MS.319         	18.77          	0.553
MS.320         	18.735         	0.514
MS.321         	18.695         	0.499
MS.322         	18.66          	0.505
MS.323         	18.62          	0.456
MS.324         	18.585         	0.497
MS.325         	18.55          	0.46
MS.326         	18.51          	0.477
MS.327         	18.475         	0.416
MS.328         	18.435         	0.439
MS.329         	18.4           	0.439
MS.330         	18.365         	0.342
MS.331         	18.325         	0.407
MS.332         	18.29          	0.353
MS.333         	18.255         	0.402
MS.334         	18.215         	0.345
MS.335         	18.18          	0.276
MS.336         	18.145         	0.433
MS.337         	18.11          	0.296
MS.338         	18.07          	0.389
MS.339         	18.035         	0.281
MS.340         	18             	0.322
MS.341         	17.965         	0.273
MS.342         	17.93          	0.289
MS.343         	17.89          	0.285
MS.344         	17.855         	0.309
MS.345         	17.82          	0.259
MS.346         	17.785         	0.327
MS.347         	17.75          	0.328
MS.348         	17.715         	0.289
MS.349         	17.68          	0.289
MS.350         	17.645         	0.282
MS.351         	17.61          	0.183
MS.352         	17.575         	0.29
MS.353         	17.54          	0.287
MS.354         	17.505         	0.284
MS.355         	17.47          	0.213
MS.356         	17.435         	0.2
MS.357         	17.4           	0.264
MS.358         	17.365         	0.199
MS.359         	17.33          	0.195
MS.360         	17.295         	0.186
MS.361         	17.26          	0.285
MS.362         	17.225         	0.187
MS.363         	17.19          	0.199
MS.364         	17.155         	0.193
MS.365         	17.12          	0.171
MS.366         	17.09          	0.201
MS.367         	17.055         	0.181
MS.368         	17.02          	0.177
MS.369         	16.985         	0.19
MS.370         	16.95          	0.192
MS.371         	16.92          	0.173
MS.372         	16.885         	0.188
MS.373         	16.85          	0.186
MS.374         	16.815         	0.174
MS.375         	16.785         	0.17
MS.376         	16.75          	0.175
MS.377         	16.715         	0.181
MS.378         	16.68          	0.172
MS.379         	16.65          	0.161
MS.380         	16.615         	0.176
MS.381         	16.585         	0.179
MS.382         	16.55          	0.175
MS.383         	16.515         	0.178
MS.384         	16.485         	0.178
MS.385         	16.45          	0.141
MS.386         	16.42          	0.181
MS.387         	16.385         	0.175
MS.388         	16.35          	0.17
MS.389         	16.32          	0.17
MS.390         	16.285         	0.175
MS.391         	16.255         	0.143
MS.392         	16.22          	0.146
MS.393         	16.19          	0.163
MS.394         	16.155         	0.176
MS.395         	16.125         	0.189
MS.396         	16.095         	0.158
MS.397         	16.06          	0.17
MS.398         	16.03          	0.167
MS.399         	15.995         	0.175
MS.400         	15.965         	0.174
MS.401         	15.93          	0.166
MS.402         	15.9           	0.141
MS.403         	15.87          	0.145
MS.404         	15.835         	0.172
MS.405         	15.805         	0.161
MS.406         	15.775         	0.169
MS.407         	15.74          	0.139
MS.408         	15.71          	0.142
MS.409         	15.68          	0.145
MS.410         	15.65          	0.145
MS.411         	15.615         	0.035
MS.412         	15.585         	0.046
MS.413         	15.555         	0.15
MS.414         	15.525         	0.176
MS.415         	15.495         	0.042
MS.416         	15.46          	0.037
MS.417         	15.43          	0.046
MS.418         	15.4           	0.036
MS.419         	15.37          	0.045
MS.420         	15.34          	0.039
MS.421         	15.31          	0.037
MS.422         	15.275         	0.028
MS.423         	15.245         	0.01
MS.424         	15.215         	0.039
MS.425         	15.185         	0.018
MS.426         	15.155         	0.042
MS.427         	15.125         	0.023
MS.428         	15.095         	0.012
MS.429         	15.065         	0.016
MS.430         	15.035         	0.025
MS.431         	15.005         	0.026
MS.432         	14.975         	0.02
MS.433         	14.945         	0.034
MS.434         	14.915         	0.018
MS.435         	14.885         	0.051
MS.436         	14.855         	0.015
MS.437         	14.825         	0.02
MS.438         	14.795         	0.016
MS.439         	14.765         	0.021
MS.440         	14.735         	0.028
MS.441         	14.705         	0.018
MS.442         	14.68          	0.056
MS.443         	14.65          	0.025
MS.444         	14.62          	0.045
MS.445         	14.59          	0.03
MS.446         	14.56          	0.049
MS.447         	14.53          	0.026
MS.448         	14.505         	0.018
MS.449         	14.475         	0.048
MS.450         	14.445         	0.021
MS.451         	14.415         	0.021
MS.452         	14.385         	0.023
MS.453         	14.36          	0.03
MS.454         	14.33          	0.047
MS.455         	14.3           	0.021
MS.456         	14.275         	0.033
MS.457         	14.245         	0.034
MS.458         	14.215         	0.024
MS.459         	14.185         	0.029
MS.460         	14.16          	0.031
MS.461         	14.13          	0.032
MS.462         	14.105         	0.031
MS.463         	14.075         	0.036
MS.464         	14.045         	0.029
MS.465         	14.02          	0.028
MS.466         	13.99          	0.028
MS.467         	13.96          	0.025
MS.468         	13.935         	0.017
MS.469         	13.905         	0.026
MS.470         	13.88          	0.029
MS.471         	13.85          	0.025
MS.472         	13.825         	0.037
MS.473         	13.795         	0.026
MS.474         	13.77          	0.012
MS.475         	13.74          	0.034
MS.476         	13.715         	0.029
MS.477         	13.685         	0.026
MS.478         	13.66          	0.034
MS.479         	13.63          	0.02
MS.480         	13.605         	-0.008
MS.481         	13.575         	0.027
MS.482         	13.55          	-0.016
MS.483         	13.525         	-0.015
MS.484         	13.495         	0.033
MS.485         	13.47          	-0.016
MS.486         	13.44          	-0.014
MS.487         	13.415         	-0.017
MS.488         	13.39          	-0.009
MS.489         	13.36          	-0.013
MS.490         	13.335         	-0.017
MS.491         	13.31          	-0.012
MS.492         	13.28          	-0.012
MS.493         	13.255         	-0.01
MS.494         	13.23          	-0.014
MS.495         	13.2           	-0.013
MS.496         	13.175         	-0.012
MS.497         	13.15          	-0.011
MS.498         	13.125         	-0.017
MS.499         	13.095         	-0.012
MS.500         	13.07          	-0.016
MS.501         	13.045         	-0.007
MS.502         	13.02          	-0.007
MS.503         	12.99          	-0.013
MS.504         	12.965         	-0.018
MS.505         	12.94          	-0.005
MS.506         	12.915         	-0.015
MS.507         	12.89          	-0.021
MS.508         	12.865         	-0.012
MS.509         	12.835         	-0.019
MS.510         	12.81          	-0.008
MS.511         	12.785         	-0.01
MS.512         	12.76          	-0.01
MS.513         	12.735         	-0.014
MS.514         	12.71          	-0.013
MS.515         	12.685         	-0.012
MS.516         	12.66          	-0.014
MS.517         	12.635         	-0.01
MS.518         	12.61          	-0.015
MS.519         	12.585         	-0.007
MS.520         	12.56          	-0.014
MS.521         	12.535         	-0.012
DERIVED EXCITABILITY VARIABLES
Program = QTracP 20/9/2019
Threshold method = 6 (optimised for CAP, using data for present condition only)
SR method = 1 (using actual data values)
6.                 	0.000               	Peak response\(mV)
9.                 	37.2                	Temperature ( C)
17.                	73                  	Age (years)
18.                	1                   	Sex (M=1, F=2)

EXTRA VARIABLES

MScPeak(mV) = 7.31
MScS5(mA) = 18.22
MScS50(mA) = 23.9
MScS95(mA) = 27.73
MScNSteps = 4
MScSteps(%) = 8.8
MScStepMax(%) = 2.4
MScD50 = 45
Height = 174
MSFPeakAmp(mV) = 7.89
MSFNUnits = 128
MSFMeanUnitAmp(uV) = 61.7
MSFHuntTime(m) = 2.42
MSFError(%) = 3.32
MSFNLarge = 41.6
MSFMedianAmp(%) = 0.702
MSFMedianAmp(mV) = 0.0554
MSFHalfAmpAmp(%) = 0.823
MSFHalfAmpAmp(mV) = 0.065
MSFLargestAmp(%) = 2
MSFLargestAmp(mV) = 0.158
MSFMeanRS(%) = 2
MSFOpts = 10106121
MScDuration(min) = 4.8
MSFTraces = 466
MSFSizeLimit(uV) = 19.7
MSFLimitType = 1
MSFSmallestAmp(uV) = 22.1

EXTRA WAVEFORMS


!MScan Model
!128
	1	13.72	0.34	2
	2	15.33	0.69	2
	3	15.55	0.32	2
	4	15.91	1.02	2
	5	17.1	0.4	2
	6	17.43	0.47	2
	7	17.83	0.76	2
	8	18.05	0.54	2
	9	18.19	0.42	2
	10	18.32	0.37	2
	11	18.42	0.3	2
	12	18.52	0.33	2
	13	18.61	0.33	2
	14	18.7	0.34	2
	15	18.77	0.28	2
	16	18.83	0.3	2
	17	18.9	0.31	2
	18	18.96	0.29	2
	19	19.02	0.32	2
	20	19.08	0.33	2
	21	19.15	0.34	2
	22	19.22	0.37	2
	23	19.3	0.42	2
	24	19.4	0.5	2
	25	19.5	0.49	2
	26	19.6	0.57	2
	27	19.7	0.58	2
	28	19.8	0.61	2
	29	19.9	0.71	2
	30	20.02	0.66	2
	31	20.12	0.57	2
	32	20.22	0.58	2
	33	20.34	0.7	2
	34	20.47	0.73	2
	35	20.57	0.68	2
	36	20.67	0.76	2
	37	20.78	0.72	2
	38	20.88	0.7	2
	39	20.99	0.7	2
	40	21.09	0.69	2
	41	21.19	0.69	2
	42	21.29	0.74	2
	43	21.4	0.84	2
	44	21.5	0.8	2
	45	21.61	0.78	2
	46	21.72	0.82	2
	47	21.8	0.68	2
	48	21.88	0.74	2
	49	21.95	0.67	2
	50	22	0.45	2
	51	22.05	0.42	2
	52	22.1	0.47	2
	53	22.15	0.49	2
	54	22.19	0.46	2
	55	22.24	0.45	2
	56	22.28	0.46	2
	57	22.33	0.49	2
	58	22.37	0.47	2
	59	22.42	0.53	2
	60	22.47	0.58	2
	61	22.53	0.59	2
	62	22.58	0.59	2
	63	22.63	0.59	2
	64	22.68	0.6	2
	65	22.73	0.61	2
	66	22.79	0.62	2
	67	22.84	0.63	2
	68	22.9	0.71	2
	69	22.96	0.7	2
	70	23.02	0.69	2
	71	23.08	0.73	2
	72	23.15	0.85	2
	73	23.23	0.79	2
	74	23.3	0.75	2
	75	23.39	0.9	2
	76	23.48	0.83	2
	77	23.58	0.79	2
	78	23.68	0.66	2
	79	23.77	1	2
	80	23.88	1	2
	81	23.99	0.76	2
	82	24.1	0.89	2
	83	24.31	0.74	2
	84	24.41	0.75	2
	85	24.5	0.8	2
	86	24.58	0.71	2
	87	24.66	0.78	2
	88	24.74	0.85	2
	89	24.82	1.07	2
	90	24.91	1.15	2
	91	25	1.16	2
	92	25.09	1.17	2
	93	25.17	1.2	2
	94	25.18	0.89	2
	95	25.25	1.13	2
	96	25.33	1.15	2
	97	25.41	1.24	2
	98	25.49	1.2	2
	99	25.58	1.24	2
	100	25.66	1.25	2
	101	25.75	1.39	2
	102	25.84	1.48	2
	103	25.9	1.7	2
	104	25.94	1.41	2
	105	26.06	1.71	2
	106	26.18	1.6	2
	107	26.33	1.93	2
	108	26.49	1.89	2
	109	26.64	1.61	2
	110	26.79	1.08	2
	111	27.15	2	2
	112	27.32	1.37	2
	113	27.47	1.03	2
	114	27.62	1.05	2
	115	27.78	1.2	2
	116	27.93	1.03	2
	117	28.08	0.92	2
	118	28.22	0.9	2
	119	28.36	0.79	2
	120	28.48	0.64	2
	121	28.6	0.6	2
	122	28.72	0.65	2
	123	28.84	0.64	2
	124	28.97	0.57	2
	125	29.14	0.65	2
	126	29.34	0.68	2
	127	29.65	1.02	2
	128	30.15	1.15	2

