File:              	C:\Qtrac\Data\Daniel M Sørensen\MScan multicentre study\Data from centres\Oslo\IronKey\Oslo_NC_first examination\SZC00430B.QZD
Name:              	NO.OSL.NC.5.1
Protocol:          	MSCAN-R2
Date:              	30/4/20
Start time:        	12:53:27
Age:               	56
Sex:               	F
Temperature:       	32.7
S/R sites:         	Ulnar Wr-ADM
NC/disease:        	NC5
Operator:          	SZ
Comments:          	Test1
M-SCAN DATA (9.7-3.8m)
Scanpts: 22, 29, 610, 632
Stim. (mA)     	Amp. (mV)
MS.1           	22             	10.546
MS.2           	22             	10.536
MS.3           	22             	10.512
MS.4           	22             	10.57
MS.5           	22             	10.57
MS.6           	22             	10.619
MS.7           	22             	10.621
MS.8           	22             	10.631
MS.9           	22             	10.617
MS.10          	22             	10.639
MS.11          	22             	10.651
MS.12          	22             	10.635
MS.13          	22             	10.647
MS.14          	22             	10.649
MS.15          	22             	10.673
MS.16          	22             	10.663
MS.17          	22             	10.657
MS.18          	22             	10.683
MS.19          	22             	10.673
MS.20          	22             	10.699
MS.21          	22             	10.661
MS.22          	22             	10.663
MS.23          	22             	10.623
MS.24          	21.913         	10.639
MS.25          	21.868         	10.675
MS.26          	21.825         	10.689
MS.27          	21.78          	10.677
MS.28          	21.737         	10.687
MS.29          	21.695         	10.695
MS.30          	21.65          	10.687
MS.31          	21.608         	10.679
MS.32          	21.565         	10.649
MS.33          	21.52          	10.633
MS.34          	21.477         	10.663
MS.35          	21.435         	10.655
MS.36          	21.392         	10.643
MS.37          	21.35          	10.679
MS.38          	21.307         	10.629
MS.39          	21.265         	10.627
MS.40          	21.222         	10.643
MS.41          	21.18          	10.633
MS.42          	21.137         	10.629
MS.43          	21.095         	10.641
MS.44          	21.052         	10.627
MS.45          	21.01          	10.627
MS.46          	20.97          	10.645
MS.47          	20.927         	10.643
MS.48          	20.885         	10.651
MS.49          	20.842         	10.621
MS.50          	20.802         	10.639
MS.51          	20.76          	10.617
MS.52          	20.717         	10.596
MS.53          	20.677         	10.607
MS.54          	20.635         	10.582
MS.55          	20.595         	10.588
MS.56          	20.552         	10.582
MS.57          	20.512         	10.566
MS.58          	20.472         	10.59
MS.59          	20.43          	10.599
MS.60          	20.39          	10.582
MS.61          	20.35          	10.572
MS.62          	20.307         	10.578
MS.63          	20.267         	10.574
MS.64          	20.227         	10.601
MS.65          	20.188         	10.592
MS.66          	20.147         	10.596
MS.67          	20.108         	10.578
MS.68          	20.065         	10.59
MS.69          	20.025         	10.572
MS.70          	19.985         	10.584
MS.71          	19.945         	10.58
MS.72          	19.907         	10.601
MS.73          	19.868         	10.59
MS.74          	19.827         	10.59
MS.75          	19.788         	10.56
MS.76          	19.747         	10.57
MS.77          	19.708         	10.572
MS.78          	19.67          	10.58
MS.79          	19.63          	10.538
MS.80          	19.59          	10.562
MS.81          	19.55          	10.536
MS.82          	19.512         	10.546
MS.83          	19.472         	10.538
MS.84          	19.435         	10.524
MS.85          	19.395         	10.544
MS.86          	19.358         	10.542
MS.87          	19.317         	10.516
MS.88          	19.28          	10.536
MS.89          	19.24          	10.51
MS.90          	19.202         	10.522
MS.91          	19.165         	10.5
MS.92          	19.125         	10.488
MS.93          	19.087         	10.514
MS.94          	19.05          	10.478
MS.95          	19.012         	10.476
MS.96          	18.972         	10.472
MS.97          	18.935         	10.466
MS.98          	18.897         	10.464
MS.99          	18.86          	10.498
MS.100         	18.823         	10.48
MS.101         	18.785         	10.472
MS.102         	18.747         	10.476
MS.103         	18.71          	10.462
MS.104         	18.672         	10.451
MS.105         	18.635         	10.484
MS.106         	18.597         	10.466
MS.107         	18.56          	10.484
MS.108         	18.522         	10.464
MS.109         	18.487         	10.456
MS.110         	18.45          	10.466
MS.111         	18.413         	10.464
MS.112         	18.375         	10.411
MS.113         	18.34          	10.449
MS.114         	18.302         	10.401
MS.115         	18.265         	10.409
MS.116         	18.23          	10.417
MS.117         	18.192         	10.385
MS.118         	18.157         	10.397
MS.119         	18.12          	10.419
MS.120         	18.085         	10.425
MS.121         	18.047         	10.421
MS.122         	18.012         	10.381
MS.123         	17.975         	10.365
MS.124         	17.94          	10.427
MS.125         	17.905         	10.397
MS.126         	17.868         	10.421
MS.127         	17.833         	10.411
MS.128         	17.797         	10.405
MS.129         	17.762         	10.351
MS.130         	17.725         	10.401
MS.131         	17.69          	10.409
MS.132         	17.655         	10.343
MS.133         	17.62          	10.383
MS.134         	17.585         	10.373
MS.135         	17.55          	10.375
MS.136         	17.515         	10.349
MS.137         	17.48          	10.361
MS.138         	17.445         	10.339
MS.139         	17.41          	10.345
MS.140         	17.375         	10.345
MS.141         	17.34          	10.349
MS.142         	17.305         	10.337
MS.143         	17.27          	10.355
MS.144         	17.237         	10.355
MS.145         	17.202         	10.327
MS.146         	17.167         	10.29
MS.147         	17.132         	10.329
MS.148         	17.1           	10.327
MS.149         	17.065         	10.353
MS.150         	17.03          	10.302
MS.151         	16.997         	10.274
MS.152         	16.962         	10.298
MS.153         	16.93          	10.278
MS.154         	16.895         	10.317
MS.155         	16.862         	10.288
MS.156         	16.827         	10.306
MS.157         	16.795         	10.282
MS.158         	16.76          	10.31
MS.159         	16.727         	10.272
MS.160         	16.695         	10.304
MS.161         	16.66          	10.252
MS.162         	16.628         	10.274
MS.163         	16.595         	10.3
MS.164         	16.56          	10.232
MS.165         	16.528         	10.248
MS.166         	16.495         	10.274
MS.167         	16.462         	10.262
MS.168         	16.43          	10.258
MS.169         	16.395         	10.232
MS.170         	16.362         	10.18
MS.171         	16.33          	10.258
MS.172         	16.297         	10.24
MS.173         	16.265         	10.228
MS.174         	16.233         	10.21
MS.175         	16.2           	10.157
MS.176         	16.167         	10.163
MS.177         	16.135         	10.18
MS.178         	16.102         	10.206
MS.179         	16.073         	10.174
MS.180         	16.04          	10.216
MS.181         	16.007         	10.224
MS.182         	15.975         	10.226
MS.183         	15.943         	10.192
MS.184         	15.912         	10.194
MS.185         	15.88          	10.113
MS.186         	15.847         	10.151
MS.187         	15.818         	10.208
MS.188         	15.785         	10.117
MS.189         	15.752         	10.153
MS.190         	15.722         	10.087
MS.191         	15.69          	10.091
MS.192         	15.66          	10.083
MS.193         	15.627         	10.057
MS.194         	15.597         	10.077
MS.195         	15.565         	10.081
MS.196         	15.535         	10.123
MS.197         	15.502         	10.125
MS.198         	15.472         	10.069
MS.199         	15.44          	10
MS.200         	15.41          	10.097
MS.201         	15.38          	10.083
MS.202         	15.35          	10.071
MS.203         	15.318         	10.075
MS.204         	15.287         	10.083
MS.205         	15.257         	10.039
MS.206         	15.227         	10.035
MS.207         	15.195         	10.039
MS.208         	15.165         	9.994
MS.209         	15.135         	9.962
MS.210         	15.105         	9.896
MS.211         	15.075         	9.948
MS.212         	15.045         	9.914
MS.213         	15.015         	9.94
MS.214         	14.985         	9.892
MS.215         	14.955         	9.839
MS.216         	14.925         	9.849
MS.217         	14.895         	9.855
MS.218         	14.865         	9.801
MS.219         	14.835         	9.742
MS.220         	14.805         	9.789
MS.221         	14.777         	9.726
MS.222         	14.747         	9.749
MS.223         	14.717         	9.781
MS.224         	14.688         	9.761
MS.225         	14.66          	9.773
MS.226         	14.63          	9.642
MS.227         	14.6           	9.626
MS.228         	14.57          	9.648
MS.229         	14.542         	9.579
MS.230         	14.512         	9.767
MS.231         	14.485         	9.616
MS.232         	14.455         	9.646
MS.233         	14.425         	9.581
MS.234         	14.398         	9.648
MS.235         	14.367         	9.618
MS.236         	14.34          	9.597
MS.237         	14.31          	9.559
MS.238         	14.282         	9.612
MS.239         	14.255         	9.589
MS.240         	14.225         	9.734
MS.241         	14.197         	9.585
MS.242         	14.167         	9.523
MS.243         	14.14          	9.608
MS.244         	14.112         	9.458
MS.245         	14.085         	9.537
MS.246         	14.055         	9.475
MS.247         	14.028         	9.382
MS.248         	14             	9.275
MS.249         	13.972         	9.368
MS.250         	13.945         	9.251
MS.251         	13.915         	9.414
MS.252         	13.887         	9.489
MS.253         	13.86          	9.235
MS.254         	13.832         	9.291
MS.255         	13.805         	9.332
MS.256         	13.778         	9.263
MS.257         	13.75          	9.233
MS.258         	13.722         	9.324
MS.259         	13.695         	9.332
MS.260         	13.667         	9.211
MS.261         	13.64          	9.461
MS.262         	13.612         	9.207
MS.263         	13.585         	9.168
MS.264         	13.56          	9.213
MS.265         	13.532         	9.225
MS.266         	13.505         	9.332
MS.267         	13.477         	9.235
MS.268         	13.45          	9.15
MS.269         	13.425         	9.086
MS.270         	13.398         	9.036
MS.271         	13.37          	9.038
MS.272         	13.342         	9.017
MS.273         	13.318         	9.027
MS.274         	13.29          	9.048
MS.275         	13.265         	8.923
MS.276         	13.237         	9.027
MS.277         	13.21          	8.947
MS.278         	13.185         	8.943
MS.279         	13.157         	8.961
MS.280         	13.132         	8.963
MS.281         	13.105         	8.888
MS.282         	13.08          	8.913
MS.283         	13.052         	8.901
MS.284         	13.028         	8.727
MS.285         	13             	8.756
MS.286         	12.975         	8.834
MS.287         	12.95          	8.752
MS.288         	12.922         	8.782
MS.289         	12.898         	8.76
MS.290         	12.872         	8.766
MS.291         	12.845         	8.556
MS.292         	12.82          	8.413
MS.293         	12.795         	8.532
MS.294         	12.77          	8.534
MS.295         	12.742         	8.286
MS.296         	12.717         	8.488
MS.297         	12.693         	8.216
MS.298         	12.667         	8.228
MS.299         	12.642         	8.329
MS.300         	12.617         	8.361
MS.301         	12.592         	8.274
MS.302         	12.568         	8.236
MS.303         	12.542         	8.27
MS.304         	12.517         	8.157
MS.305         	12.492         	8.014
MS.306         	12.467         	7.867
MS.307         	12.443         	7.95
MS.308         	12.417         	7.946
MS.309         	12.392         	7.968
MS.310         	12.367         	7.833
MS.311         	12.342         	7.916
MS.312         	12.318         	7.783
MS.313         	12.292         	7.843
MS.314         	12.267         	7.668
MS.315         	12.245         	7.736
MS.316         	12.22          	7.698
MS.317         	12.195         	7.716
MS.318         	12.17          	7.819
MS.319         	12.148         	7.658
MS.320         	12.122         	7.742
MS.321         	12.097         	7.402
MS.322         	12.075         	7.287
MS.323         	12.05          	7.632
MS.324         	12.025         	7.497
MS.325         	12.002         	7.303
MS.326         	11.977         	7.297
MS.327         	11.952         	7.36
MS.328         	11.93          	6.981
MS.329         	11.905         	7.146
MS.330         	11.882         	6.526
MS.331         	11.858         	6.991
MS.332         	11.835         	6.796
MS.333         	11.81          	6.492
MS.334         	11.787         	6.53
MS.335         	11.765         	6.484
MS.336         	11.74          	6.26
MS.337         	11.717         	6.363
MS.338         	11.693         	5.837
MS.339         	11.67          	6.22
MS.340         	11.648         	6.439
MS.341         	11.622         	5.889
MS.342         	11.6           	5.688
MS.343         	11.577         	5.748
MS.344         	11.555         	5.591
MS.345         	11.53          	5.519
MS.346         	11.507         	5.525
MS.347         	11.485         	5.464
MS.348         	11.462         	4.975
MS.349         	11.44          	5.41
MS.350         	11.415         	5.009
MS.351         	11.392         	5.015
MS.352         	11.37          	5.102
MS.353         	11.347         	4.788
MS.354         	11.325         	4.747
MS.355         	11.302         	4.794
MS.356         	11.28          	4.81
MS.357         	11.257         	4.81
MS.358         	11.235         	4.272
MS.359         	11.212         	4.81
MS.360         	11.19          	3.93
MS.361         	11.167         	4.167
MS.362         	11.145         	4.367
MS.363         	11.122         	4.111
MS.364         	11.1           	4.268
MS.365         	11.08          	4.26
MS.366         	11.057         	4.159
MS.367         	11.035         	4.278
MS.368         	11.012         	3.531
MS.369         	10.99          	3.654
MS.370         	10.967         	3.728
MS.371         	10.948         	3.781
MS.372         	10.925         	3.283
MS.373         	10.903         	3.807
MS.374         	10.88          	3.44
MS.375         	10.86          	3.072
MS.376         	10.837         	3.325
MS.377         	10.815         	3.074
MS.378         	10.795         	3.086
MS.379         	10.773         	3.108
MS.380         	10.752         	2.826
MS.381         	10.73          	2.816
MS.382         	10.707         	2.884
MS.383         	10.688         	3.307
MS.384         	10.665         	2.949
MS.385         	10.645         	2.699
MS.386         	10.622         	2.695
MS.387         	10.602         	2.373
MS.388         	10.58          	2.761
MS.389         	10.56          	2.528
MS.390         	10.537         	2.314
MS.391         	10.517         	2.524
MS.392         	10.497         	2.492
MS.393         	10.475         	2.483
MS.394         	10.455         	2.282
MS.395         	10.432         	1.998
MS.396         	10.412         	2.125
MS.397         	10.392         	2.125
MS.398         	10.372         	1.972
MS.399         	10.35          	2.02
MS.400         	10.33          	1.865
MS.401         	10.31          	1.803
MS.402         	10.287         	1.861
MS.403         	10.267         	1.881
MS.404         	10.247         	1.899
MS.405         	10.227         	1.746
MS.406         	10.207         	1.859
MS.407         	10.185         	1.732
MS.408         	10.165         	1.766
MS.409         	10.145         	1.589
MS.410         	10.125         	1.722
MS.411         	10.105         	1.511
MS.412         	10.085         	1.549
MS.413         	10.065         	1.613
MS.414         	10.045         	1.474
MS.415         	10.025         	1.362
MS.416         	10.005         	1.36
MS.417         	9.985          	1.368
MS.418         	9.965          	1.321
MS.419         	9.945          	1.444
MS.420         	9.925          	1.44
MS.421         	9.905          	1.243
MS.422         	9.885          	1.204
MS.423         	9.865          	1.154
MS.424         	9.845          	1.178
MS.425         	9.825          	1.166
MS.426         	9.807          	0.999
MS.427         	9.787          	1.033
MS.428         	9.767          	1.065
MS.429         	9.747          	0.818
MS.430         	9.727          	0.943
MS.431         	9.71           	0.781
MS.432         	9.69           	0.967
MS.433         	9.67           	0.769
MS.434         	9.65           	0.729
MS.435         	9.632          	0.822
MS.436         	9.613          	0.896
MS.437         	9.592          	0.755
MS.438         	9.575          	0.647
MS.439         	9.555          	0.723
MS.440         	9.535          	0.781
MS.441         	9.517          	0.56
MS.442         	9.497          	0.681
MS.443         	9.477          	0.739
MS.444         	9.46           	0.628
MS.445         	9.44           	0.572
MS.446         	9.422          	0.502
MS.447         	9.403          	0.516
MS.448         	9.385          	0.506
MS.449         	9.365          	0.558
MS.450         	9.347          	0.439
MS.451         	9.327          	0.481
MS.452         	9.31           	0.338
MS.453         	9.29           	0.451
MS.454         	9.273          	0.451
MS.455         	9.255          	0.409
MS.456         	9.235          	0.437
MS.457         	9.217          	0.453
MS.458         	9.198          	0.433
MS.459         	9.18           	0.393
MS.460         	9.162          	0.29
MS.461         	9.142          	0.363
MS.462         	9.125          	0.407
MS.463         	9.108          	0.397
MS.464         	9.09           	0.298
MS.465         	9.07           	0.264
MS.466         	9.052          	0.359
MS.467         	9.035          	0.161
MS.468         	9.017          	0.232
MS.469         	8.997          	0.207
MS.470         	8.98           	0.177
MS.471         	8.962          	0.163
MS.472         	8.945          	0.135
MS.473         	8.927          	0.175
MS.474         	8.91           	0.139
MS.475         	8.89           	0.169
MS.476         	8.872          	0.133
MS.477         	8.855          	0.123
MS.478         	8.837          	0.087
MS.479         	8.82           	0.151
MS.480         	8.802          	0.095
MS.481         	8.785          	0.131
MS.482         	8.767          	0.133
MS.483         	8.75           	0.083
MS.484         	8.733          	0.117
MS.485         	8.715          	0.085
MS.486         	8.698          	0.113
MS.487         	8.68           	0.05
MS.488         	8.662          	0.07
MS.489         	8.645          	0.089
MS.490         	8.627          	0.066
MS.491         	8.61           	0.02
MS.492         	8.595          	0.052
MS.493         	8.577          	0.03
MS.494         	8.56           	0.04
MS.495         	8.542          	0.056
MS.496         	8.525          	0.062
MS.497         	8.507          	0.024
MS.498         	8.492          	0.026
MS.499         	8.475          	0.02
MS.500         	8.457          	0.054
MS.501         	8.44           	0.04
MS.502         	8.422          	0.036
MS.503         	8.408          	0.06
MS.504         	8.39           	0.044
MS.505         	8.372          	0.038
MS.506         	8.358          	0.046
MS.507         	8.34           	0.042
MS.508         	8.323          	0.014
MS.509         	8.307          	0.048
MS.510         	8.29           	0.052
MS.511         	8.273          	0.048
MS.512         	8.257          	0.044
MS.513         	8.24           	0.036
MS.514         	8.225          	0.044
MS.515         	8.207          	0.054
MS.516         	8.19           	0.04
MS.517         	8.175          	0.054
MS.518         	8.158          	0.052
MS.519         	8.142          	0.044
MS.520         	8.125          	0.042
MS.521         	8.11           	0.048
MS.522         	8.092          	0.046
MS.523         	8.077          	0.036
MS.524         	8.06           	0.044
MS.525         	8.045          	0.044
MS.526         	8.03           	0.048
MS.527         	8.012          	0.042
MS.528         	7.997          	0.042
MS.529         	7.98           	0.05
MS.530         	7.965          	0.05
MS.531         	7.95           	0.048
MS.532         	7.932          	0.052
MS.533         	7.918          	0.042
MS.534         	7.902          	0.046
MS.535         	7.885          	0.04
MS.536         	7.87           	0.044
MS.537         	7.855          	0.054
MS.538         	7.837          	0.04
MS.539         	7.822          	0.046
MS.540         	7.807          	0.04
MS.541         	7.793          	0.048
MS.542         	7.775          	0.042
MS.543         	7.76           	0.048
MS.544         	7.745          	0.04
MS.545         	7.73           	0.048
MS.546         	7.715          	0.028
MS.547         	7.697          	0.028
MS.548         	7.682          	0.052
MS.549         	7.668          	0.044
MS.550         	7.652          	0.034
MS.551         	7.637          	0.038
MS.552         	7.622          	0.02
MS.553         	7.607          	0.024
MS.554         	7.592          	0.032
MS.555         	7.577          	0.034
MS.556         	7.562          	0.052
MS.557         	7.545          	0.038
MS.558         	7.53           	0.032
MS.559         	7.515          	0.038
MS.560         	7.5            	0.026
MS.561         	7.485          	0.034
MS.562         	7.47           	0.032
MS.563         	7.455          	0.03
MS.564         	7.44           	0.024
MS.565         	7.427          	0.034
MS.566         	7.412          	0.026
MS.567         	7.398          	0.026
MS.568         	7.382          	0.032
MS.569         	7.367          	0.026
MS.570         	7.352          	0.02
MS.571         	7.337          	0.022
MS.572         	7.322          	0.018
MS.573         	7.307          	0.018
MS.574         	7.295          	0.018
MS.575         	7.28           	0.028
MS.576         	7.265          	0.02
MS.577         	7.25           	0.028
MS.578         	7.235          	0.026
MS.579         	7.222          	0.032
MS.580         	7.207          	0.03
MS.581         	7.192          	0.024
MS.582         	7.177          	0.024
MS.583         	7.165          	0.028
MS.584         	7.15           	0.028
MS.585         	7.135          	0.022
MS.586         	7.12           	0.03
MS.587         	7.108          	0.028
MS.588         	7.092          	0.02
MS.589         	7.077          	0.024
MS.590         	7.065          	0.028
MS.591         	7.05           	0.024
MS.592         	7.035          	0.026
MS.593         	7.023          	0.032
MS.594         	7.007          	0.03
MS.595         	6.995          	0.032
MS.596         	6.98           	0.028
MS.597         	6.965          	0.02
MS.598         	6.952          	0.03
MS.599         	6.938          	0.026
MS.600         	6.925          	0.028
MS.601         	6.91           	0.026
MS.602         	6.898          	0.026
MS.603         	6.882          	0.026
MS.604         	6.87           	0.026
MS.605         	6.855          	0.03
MS.606         	6.842          	0.022
MS.607         	6.827          	0.02
MS.608         	6.815          	0.022
MS.609         	6.8            	0.028
MS.610         	6.787          	0.02
MS.611         	6.773          	0.02
MS.612         	6.76           	0.026
MS.613         	6.747          	0.03
MS.614         	6.733          	0.028
MS.615         	6.72           	0.016
MS.616         	6.705          	0.03
MS.617         	6.692          	0.004
MS.618         	6.68           	0.028
MS.619         	6.665          	0.028
MS.620         	6.652          	0.028
MS.621         	6.64           	0.01
MS.622         	6.625          	0.022
MS.623         	6.612          	0.026
MS.624         	6.6            	0.008
MS.625         	6.587          	0.000
MS.626         	6.572          	0.002
MS.627         	6.56           	0.018
MS.628         	6.547          	0.004
MS.629         	6.535          	-0.002
MS.630         	6.52           	0.022
MS.631         	6.507          	0.004
MS.632         	6.495          	0.022
DERIVED EXCITABILITY VARIABLES
Program = QTracP 3/4/2020
Threshold method = 6 (optimised for CAP, using data for present condition only)
SR method = 1 (using actual data values)
6.                 	0.000               	Peak response\(mV)
9.                 	32.7                	Temperature ( C)
17.                	56                  	Age (years)
18.                	2                   	Sex (M=1, F=2)

EXTRA VARIABLES

MScPeak(mV) = 10.61
MScS5(mA) = 9.39
MScS50(mA) = 11.45
MScS95(mA) = 15.44
MScNSteps = 4
MScSteps(%) = 12.1
MScStepMax(%) = 3.6
MScD50 = 40
MScSlope = 6.25
MSFPeakAmp(mV) = 10.7
MSFNUnits = 160
MSFMeanUnitAmp(uV) = 66.6
MSFHuntTime(m) = 4.51
MSFError(%) = 4.09
MSFNLarge = 51.62
MSFMedianAmp(%) = 0.509
MSFMedianAmp(mV) = 0.0542
MSFHalfAmpAmp(%) = 0.721
MSFHalfAmpAmp(mV) = 0.0768
MSFLargestAmp(%) = 1.43
MSFLargestAmp(mV) = 0.153
MSFMeanRS(%) = 2
MSFOpts = 10106121
MScDuration(min) = 5.9
MSFTraces = 611
MSFSizeLimit(uV) = 26.6
MSFLimitType = 1
MSFSmallestAmp(uV) = 27.3

EXTRA WAVEFORMS


!MScan Model
!160
	1	7.77	0.35	2
	2	8.7	0.33	2
	3	8.79	0.27	2
	4	8.86	0.35	2
	5	8.92	0.32	2
	6	9	0.48	2
	7	9.03	0.26	2
	8	9.09	0.32	2
	9	9.14	0.35	2
	10	9.19	0.4	2
	11	9.25	0.5	2
	12	9.31	0.51	2
	13	9.37	0.46	2
	14	9.43	0.49	2
	15	9.48	0.55	2
	16	9.52	0.34	2
	17	9.55	0.4	2
	18	9.59	0.46	2
	19	9.62	0.4	2
	20	9.65	0.46	2
	21	9.68	0.43	2
	22	9.71	0.33	2
	23	9.73	0.33	2
	24	9.76	0.35	2
	25	9.78	0.36	2
	26	9.8	0.34	2
	27	9.83	0.34	2
	28	9.85	0.35	2
	29	9.87	0.34	2
	30	9.89	0.28	2
	31	9.91	0.29	2
	32	9.92	0.29	2
	33	9.94	0.3	2
	34	9.96	0.3	2
	35	9.98	0.3	2
	36	10	0.36	2
	37	10.02	0.39	2
	38	10.05	0.37	2
	39	10.07	0.36	2
	40	10.1	0.46	2
	41	10.13	0.48	2
	42	10.16	0.5	2
	43	10.19	0.5	2
	44	10.21	0.4	2
	45	10.24	0.46	2
	46	10.26	0.51	2
	47	10.29	0.59	2
	48	10.32	0.62	1.9
	49	10.35	0.67	2
	50	10.39	0.71	2
	51	10.42	0.68	2
	52	10.46	0.72	2
	53	10.49	0.73	2
	54	10.53	0.74	2
	55	10.56	0.81	2
	56	10.6	0.88	2
	57	10.64	1.07	2
	58	10.68	1.08	2
	59	10.72	0.96	2
	60	10.76	1.02	2
	61	10.79	1.11	2
	62	10.83	1.13	2
	63	10.88	1.23	2
	64	10.92	1.11	2
	65	10.96	0.95	2
	66	10.99	1	2
	67	11.03	1.12	2
	68	11.06	1.14	2
	69	11.1	1.22	2
	70	11.14	1.07	2
	71	11.17	0.97	2
	72	11.2	0.99	2
	73	11.23	1	2
	74	11.27	0.88	2
	75	11.3	1.43	2
	76	11.34	1.26	2
	77	11.36	0.81	2
	78	11.39	0.65	2
	79	11.41	0.68	2
	80	11.43	0.71	2
	81	11.46	0.74	2
	82	11.48	0.78	2
	83	11.5	0.69	2
	84	11.52	0.65	2
	85	11.54	0.65	2
	86	11.55	0.65	2
	87	11.57	0.66	2
	88	11.59	0.69	2
	89	11.61	0.71	2
	90	11.63	0.72	2
	91	11.65	0.74	2
	92	11.68	0.75	2
	93	11.7	0.77	2
	94	11.72	0.78	2
	95	11.74	0.79	2
	96	11.76	0.79	2
	97	11.79	0.76	2
	98	11.81	0.73	2
	99	11.85	1.2	2
	100	11.88	1.19	2
	101	11.92	0.99	2
	102	11.96	0.85	2
	103	12	1.31	2
	104	12.05	1.05	2
	105	12.09	0.73	2
	106	12.16	1.21	2
	107	12.23	0.76	2
	108	12.23	0.51	2
	109	12.3	1.04	2
	110	12.37	0.9	2
	111	12.42	0.7	2
	112	12.46	0.48	2
	113	12.48	0.31	2
	114	12.51	0.33	2
	115	12.54	0.35	2
	116	12.56	0.37	2
	117	12.59	0.39	2
	118	12.62	0.39	2
	119	12.65	0.4	2
	120	12.68	0.39	2
	121	12.71	0.43	2
	122	12.75	0.49	2
	123	12.78	0.47	2
	124	12.82	0.44	2
	125	12.86	0.44	2
	126	12.89	0.45	2
	127	12.93	0.39	2
	128	12.98	0.47	2
	129	13.03	0.59	2
	130	13.09	0.51	2
	131	13.15	0.62	2
	132	13.21	0.58	2
	133	13.3	0.6	2
	134	13.38	0.57	2
	135	13.48	0.58	2
	136	13.7	1.15	2
	137	13.93	1.27	2
	138	14.11	0.77	2
	139	14.28	0.73	2
	140	14.51	1.04	2
	141	14.68	0.64	2
	142	14.78	0.45	2
	143	14.89	0.5	2
	144	14.99	0.48	2
	145	15.09	0.42	2
	146	15.22	0.46	2
	147	15.35	0.48	2
	148	15.53	0.53	2
	149	15.8	0.5	2
	150	16.01	0.34	2
	151	16.26	0.41	2
	152	16.66	0.49	2
	153	16.88	0.26	2
	154	17.27	0.49	2
	155	17.87	0.41	2
	156	18.22	0.27	2
	157	18.72	0.57	2
	158	19.31	0.42	2
	159	20.17	0.45	2
	160	20.93	0.47	2

