File:              	C:\Qtrac\Data\Daniel M Sørensen\MScan multicentre study\Data from centres\Oslo\Processed data\SZC00515B.QZD
Name:              	NO.OSL.NC.8.2
Protocol:          	MSCAN-R2
Date:              	15/5/20
Start time:        	12:07:04
Age:               	68
Sex:               	F
Temperature:       	34.8
S/R sites:         	ADM
NC/disease:        	NC8
Operator:          	SZ
Comments:          	Test2
M-SCAN DATA (5.9-3.2m)
Scanpts: 2, 6, 296, 300
Stim. (mA)     	Amp. (mV)
MS.1           	18.5           	8.133
MS.2           	18.5           	8.137
MS.3           	18.5           	8.139
MS.4           	18.5           	8.115
MS.5           	18.5           	8.131
MS.6           	18.5           	8.151
MS.7           	18.5           	8.141
MS.8           	18.5           	8.133
MS.9           	18.5           	8.125
MS.10          	18.5           	8.099
MS.11          	18.5           	8.073
MS.12          	18.5           	8.051
MS.13          	18.5           	8.101
MS.14          	18.5           	8.028
MS.15          	18.5           	8.075
MS.16          	18.5           	8.061
MS.17          	18.5           	8.081
MS.18          	18.5           	8.061
MS.19          	18.5           	8.034
MS.20          	18.5           	8.012
MS.21          	18.5           	8
MS.22          	18.5           	7.898
MS.23          	18.5           	7.93
MS.24          	18.425         	7.918
MS.25          	18.39          	7.839
MS.26          	18.352         	7.823
MS.27          	18.315         	7.771
MS.28          	18.28          	7.732
MS.29          	18.243         	7.714
MS.30          	18.208         	7.551
MS.31          	18.17          	7.648
MS.32          	18.132         	7.501
MS.33          	18.097         	7.674
MS.34          	18.06          	7.489
MS.35          	18.025         	7.37
MS.36          	17.99          	7.338
MS.37          	17.952         	7.396
MS.38          	17.917         	7.426
MS.39          	17.882         	7.424
MS.40          	17.845         	7.559
MS.41          	17.81          	7.408
MS.42          	17.775         	7.299
MS.43          	17.74          	7.388
MS.44          	17.702         	7.529
MS.45          	17.667         	7.334
MS.46          	17.632         	7.311
MS.47          	17.597         	7.374
MS.48          	17.562         	7.307
MS.49          	17.528         	7.259
MS.50          	17.493         	7.136
MS.51          	17.458         	7.193
MS.52          	17.422         	7.221
MS.53          	17.387         	7.166
MS.54          	17.352         	7.13
MS.55          	17.317         	7.116
MS.56          	17.285         	6.989
MS.57          	17.25          	7.13
MS.58          	17.215         	6.85
MS.59          	17.18          	6.822
MS.60          	17.145         	6.725
MS.61          	17.112         	6.949
MS.62          	17.077         	6.826
MS.63          	17.042         	6.884
MS.64          	17.01          	6.876
MS.65          	16.975         	6.743
MS.66          	16.942         	6.675
MS.67          	16.907         	6.703
MS.68          	16.875         	6.749
MS.69          	16.84          	6.548
MS.70          	16.807         	6.623
MS.71          	16.772         	6.647
MS.72          	16.74          	6.502
MS.73          	16.705         	6.602
MS.74          	16.672         	6.707
MS.75          	16.64          	6.512
MS.76          	16.605         	6.443
MS.77          	16.573         	6.486
MS.78          	16.54          	6.671
MS.79          	16.507         	6.461
MS.80          	16.472         	6.405
MS.81          	16.44          	6.405
MS.82          	16.407         	6.282
MS.83          	16.375         	6.21
MS.84          	16.342         	6.439
MS.85          	16.31          	6.367
MS.86          	16.278         	6.3
MS.87          	16.245         	6.23
MS.88          	16.212         	6.375
MS.89          	16.18          	6.103
MS.90          	16.147         	5.712
MS.91          	16.115         	5.587
MS.92          	16.083         	6.089
MS.93          	16.05          	5.91
MS.94          	16.02          	5.769
MS.95          	15.987         	5.962
MS.96          	15.955         	6.004
MS.97          	15.922         	5.66
MS.98          	15.89          	5.692
MS.99          	15.86          	5.539
MS.100         	15.827         	5.561
MS.101         	15.795         	5.69
MS.102         	15.765         	5.362
MS.103         	15.733         	5.531
MS.104         	15.702         	5.4
MS.105         	15.67          	5.378
MS.106         	15.64          	5.257
MS.107         	15.608         	5.144
MS.108         	15.577         	4.81
MS.109         	15.545         	4.703
MS.110         	15.515         	4.822
MS.111         	15.483         	5.054
MS.112         	15.452         	5.054
MS.113         	15.422         	4.637
MS.114         	15.39          	5.098
MS.115         	15.36          	4.915
MS.116         	15.33          	4.415
MS.117         	15.297         	4.898
MS.118         	15.267         	4.667
MS.119         	15.237         	4.351
MS.120         	15.207         	4.189
MS.121         	15.177         	4.242
MS.122         	15.148         	4.135
MS.123         	15.115         	3.994
MS.124         	15.085         	3.968
MS.125         	15.055         	4.073
MS.126         	15.025         	3.777
MS.127         	14.995         	3.905
MS.128         	14.965         	3.853
MS.129         	14.935         	3.787
MS.130         	14.905         	3.819
MS.131         	14.877         	3.625
MS.132         	14.847         	3.601
MS.133         	14.818         	3.543
MS.134         	14.787         	3.652
MS.135         	14.757         	3.758
MS.136         	14.727         	3.768
MS.137         	14.7           	3.489
MS.138         	14.67          	3.43
MS.139         	14.64          	3.501
MS.140         	14.61          	3.388
MS.141         	14.582         	3.178
MS.142         	14.552         	3.346
MS.143         	14.523         	3.408
MS.144         	14.495         	3.126
MS.145         	14.465         	3.341
MS.146         	14.438         	3.295
MS.147         	14.407         	3.217
MS.148         	14.38          	3.186
MS.149         	14.35          	3.062
MS.150         	14.322         	3.255
MS.151         	14.292         	3.039
MS.152         	14.265         	2.999
MS.153         	14.235         	2.804
MS.154         	14.207         	2.771
MS.155         	14.18          	2.782
MS.156         	14.15          	2.707
MS.157         	14.122         	2.622
MS.158         	14.095         	2.691
MS.159         	14.065         	2.685
MS.160         	14.037         	2.739
MS.161         	14.01          	2.683
MS.162         	13.983         	2.665
MS.163         	13.955         	2.701
MS.164         	13.925         	2.536
MS.165         	13.898         	2.608
MS.166         	13.87          	2.824
MS.167         	13.842         	2.528
MS.168         	13.815         	2.403
MS.169         	13.787         	2.524
MS.170         	13.76          	2.417
MS.171         	13.733         	2.459
MS.172         	13.705         	2.568
MS.173         	13.677         	2.451
MS.174         	13.65          	2.584
MS.175         	13.622         	2.361
MS.176         	13.595         	2.431
MS.177         	13.568         	2.447
MS.178         	13.542         	2.308
MS.179         	13.515         	2.326
MS.180         	13.487         	2.334
MS.181         	13.46          	2.226
MS.182         	13.432         	2.151
MS.183         	13.407         	2.171
MS.184         	13.38          	2.332
MS.185         	13.352         	2.391
MS.186         	13.327         	2.26
MS.187         	13.3           	2.083
MS.188         	13.273         	2.058
MS.189         	13.247         	1.903
MS.190         	13.22          	1.837
MS.191         	13.195         	2.01
MS.192         	13.167         	2.141
MS.193         	13.142         	1.867
MS.194         	13.115         	1.621
MS.195         	13.09          	1.891
MS.196         	13.062         	1.855
MS.197         	13.037         	2.006
MS.198         	13.01          	1.756
MS.199         	12.985         	1.404
MS.200         	12.957         	1.736
MS.201         	12.932         	1.652
MS.202         	12.907         	1.517
MS.203         	12.88          	1.408
MS.204         	12.855         	1.811
MS.205         	12.83          	1.333
MS.206         	12.805         	1.347
MS.207         	12.778         	1.527
MS.208         	12.752         	1.16
MS.209         	12.727         	1.283
MS.210         	12.702         	1.208
MS.211         	12.677         	1.527
MS.212         	12.653         	0.951
MS.213         	12.625         	1.039
MS.214         	12.6           	1.319
MS.215         	12.575         	0.83
MS.216         	12.55          	0.9
MS.217         	12.525         	0.997
MS.218         	12.5           	0.981
MS.219         	12.475         	0.955
MS.220         	12.45          	0.924
MS.221         	12.425         	1.202
MS.222         	12.4           	0.725
MS.223         	12.375         	0.927
MS.224         	12.352         	0.876
MS.225         	12.327         	0.729
MS.226         	12.302         	0.747
MS.227         	12.278         	0.842
MS.228         	12.252         	0.854
MS.229         	12.227         	0.566
MS.230         	12.205         	0.647
MS.231         	12.18          	0.864
MS.232         	12.155         	0.842
MS.233         	12.13          	0.651
MS.234         	12.108         	0.673
MS.235         	12.082         	0.729
MS.236         	12.057         	0.473
MS.237         	12.035         	0.544
MS.238         	12.01          	0.58
MS.239         	11.988         	0.643
MS.240         	11.962         	0.528
MS.241         	11.938         	0.391
MS.242         	11.915         	0.417
MS.243         	11.89          	0.518
MS.244         	11.867         	0.336
MS.245         	11.842         	0.25
MS.246         	11.82          	0.322
MS.247         	11.795         	0.411
MS.248         	11.773         	0.377
MS.249         	11.75          	0.413
MS.250         	11.725         	0.316
MS.251         	11.702         	0.371
MS.252         	11.677         	0.294
MS.253         	11.655         	0.201
MS.254         	11.632         	0.246
MS.255         	11.61          	0.298
MS.256         	11.585         	0.326
MS.257         	11.562         	0.322
MS.258         	11.54          	0.294
MS.259         	11.517         	0.139
MS.260         	11.492         	0.322
MS.261         	11.47          	0.224
MS.262         	11.447         	0.205
MS.263         	11.425         	0.226
MS.264         	11.403         	0.099
MS.265         	11.38          	0.211
MS.266         	11.355         	0.107
MS.267         	11.332         	0.135
MS.268         	11.31          	0.034
MS.269         	11.287         	0.135
MS.270         	11.265         	0.06
MS.271         	11.242         	0.000
MS.272         	11.22          	0.123
MS.273         	11.197         	0.064
MS.274         	11.175         	0.05
MS.275         	11.153         	0.026
MS.276         	11.132         	0.079
MS.277         	11.11          	0.066
MS.278         	11.087         	0.036
MS.279         	11.065         	0.026
MS.280         	11.042         	0.024
MS.281         	11.02          	-0.004
MS.282         	10.997         	0.004
MS.283         	10.977         	0.018
MS.284         	10.955         	0.006
MS.285         	10.932         	-0.004
MS.286         	10.91          	-0.008
MS.287         	10.89          	0.01
MS.288         	10.867         	0.004
MS.289         	10.845         	-0.008
MS.290         	10.825         	-0.012
MS.291         	10.802         	0.024
MS.292         	10.78          	-0.014
MS.293         	10.76          	0.014
MS.294         	10.738         	-0.012
MS.295         	10.717         	-0.012
MS.296         	10.695         	0.014
MS.297         	10.672         	-0.014
MS.298         	10.653         	-0.014
MS.299         	10.63          	-0.012
MS.300         	10.61          	-0.006
MS.301         	10.587         	0.006
MS.302         	10.568         	-0.012
MS.303         	10.545         	-0.012
MS.304         	10.525         	-0.012
MS.305         	10.505         	0.008
MS.306         	10.483         	-0.012
MS.307         	10.462         	-0.008
MS.308         	10.443         	-0.01
MS.309         	10.42          	-0.01
MS.310         	10.4           	-0.016
MS.311         	10.38          	-0.008
MS.312         	10.358         	-0.008
MS.313         	10.337         	-0.014
MS.314         	10.318         	-0.01
MS.315         	10.295         	-0.012
MS.316         	10.275         	-0.01
MS.317         	10.255         	-0.014
MS.318         	10.235         	-0.006
MS.319         	10.215         	-0.014
DERIVED EXCITABILITY VARIABLES
Program = QTracP 3/4/2020
Threshold method = 6 (optimised for CAP, using data for present condition only)
SR method = 1 (using actual data values)
6.                 	0.000               	Peak response\(mV)
9.                 	34.8                	Temperature ( C)
17.                	68                  	Age (years)
18.                	2                   	Sex (M=1, F=2)

EXTRA VARIABLES

MScPeak(mV) = 8.09
MScS5(mA) = 11.83
MScS50(mA) = 15.08
MScS95(mA) = 18.24
MScNSteps = 1
MScSteps(%) = 2.2
MScStepMax(%) = 2.2
MScD50 = 48
MScSlope = 5.19
MSFPeakAmp(mV) = 8.14
MSFNUnits = 121
MSFMeanUnitAmp(uV) = 67.3
MSFHuntTime(m) = 1.85
MSFError(%) = 5.65
MSFNLarge = 30.72
MSFMedianAmp(%) = 0.619
MSFMedianAmp(mV) = 0.0504
MSFHalfAmpAmp(%) = 1.02
MSFHalfAmpAmp(mV) = 0.0828
MSFLargestAmp(%) = 4.41
MSFLargestAmp(mV) = 0.359
MSFMeanRS(%) = 2
MSFOpts = 10106121
MScDuration(min) = 2.7
MSFTraces = 299
MSFSizeLimit(uV) = 20.4
MSFLimitType = 1
MSFSmallestAmp(uV) = 20.6

EXTRA WAVEFORMS


!MScan Model
!121
	1	11.01	0.27	2
	2	11.18	0.62	2
	3	11.31	0.54	2
	4	11.36	0.37	2
	5	11.46	0.92	2
	6	11.68	1.31	2
	7	11.79	0.45	2
	8	11.86	0.71	2
	9	11.9	0.52	2
	10	11.98	0.66	2
	11	12.11	1.87	2
	12	12.27	0.95	2
	13	12.36	0.77	2
	14	12.39	0.63	2
	15	12.53	1.87	2
	16	12.64	1.58	2
	17	12.73	1.95	2
	18	12.81	1.38	2
	19	12.91	1.93	2
	20	13.06	2.87	2
	21	13.15	1.31	2
	22	13.21	1.09	2
	23	13.27	1.27	2
	24	13.34	0.6	2
	25	13.44	1.6	2
	26	13.63	1.98	2
	27	13.81	1.59	2
	28	13.92	0.69	2
	29	14.03	0.7	2
	30	14.13	0.74	2
	31	14.15	0.38	2
	32	14.15	0.25	2
	33	14.17	0.37	2
	34	14.19	0.37	2
	35	14.2	0.37	2
	36	14.23	0.52	2
	37	14.26	0.56	2
	38	14.28	0.54	2
	39	14.31	0.49	2
	40	14.34	0.5	2
	41	14.36	0.52	2
	42	14.4	0.73	2
	43	14.46	0.82	2
	44	14.51	0.61	2
	45	14.56	0.62	2
	46	14.61	0.73	2
	47	14.67	0.86	2
	48	14.73	1.05	2
	49	14.79	1.11	2
	50	14.83	0.54	2
	51	14.86	0.36	2
	52	14.92	0.46	2
	53	14.95	0.51	2
	54	14.97	0.44	2
	55	14.99	0.31	2
	56	15	0.31	2
	57	15.02	0.31	2
	58	15.04	0.45	2
	59	15.06	0.5	2
	60	15.07	0.54	2
	61	15.09	0.54	2
	62	15.11	0.54	2
	63	15.13	0.7	2
	64	15.16	0.89	2
	65	15.18	0.75	2
	66	15.21	0.36	2
	67	15.24	1.02	2
	68	15.27	1.02	2
	69	15.46	4.41	2
	70	15.55	2.4	2
	71	15.6	1.04	2
	72	15.63	0.66	2
	73	15.66	0.32	2
	74	15.68	2.85	2
	75	15.69	0.7	2
	76	15.72	0.9	2
	77	15.76	1.01	2
	78	15.8	1.07	2
	79	15.83	1.23	2
	80	15.87	0.75	2
	81	15.94	1.5	2
	82	16.06	1.36	2
	83	16.13	1.1	2
	84	16.21	1.32	2
	85	16.45	1.12	2
	86	16.58	0.99	2
	87	16.74	1.29	2
	88	16.81	0.66	2
	89	16.89	0.63	2
	90	16.98	0.57	2
	91	17.06	0.81	2
	92	17.12	0.61	2
	93	17.17	0.85	2
	94	17.22	0.59	2
	95	17.25	0.35	2
	96	17.28	0.35	2
	97	17.34	0.48	2
	98	17.37	0.39	2
	99	17.41	0.56	2
	100	17.47	0.75	2
	101	17.53	0.53	2
	102	17.67	1.26	2
	103	18.04	1.56	2
	104	18.08	0.4	2
	105	18.1	0.33	2
	106	18.14	0.43	2
	107	18.18	0.48	2
	108	18.2	0.31	2
	109	18.24	0.5	2
	110	18.27	0.46	2
	111	18.32	0.54	2
	112	18.34	0.32	2
	113	18.37	0.36	2
	114	18.4	0.43	2
	115	18.43	0.35	2
	116	18.46	0.28	2
	117	18.49	0.36	2
	118	18.53	0.63	2
	119	18.54	0.46	2
	120	18.58	0.27	2
	121	18.84	0.46	2

