File:              	C:\Qtrac\Data\Daniel M Sørensen\MScan multicentre study\Data from centres\Bucharest\Processed data\TDLC10107E.QZD
Name:              	RO.BU.NC.8.2
Protocol:          	MSCAN-R2
Date:              	7/1/21
Start time:        	13:41:45
Age:               	36
Sex:               	M
Temperature:       	36.2
S/R sites:         	ADM
NC/disease:        	NC8
Operator:          	TL
Comments:          	RO.NC.8.2.
M-SCAN DATA (8.6-0.7m)
Scanpts: 354, 363, 811, 818
Stim. (mA)     	Amp. (mV)
MS.1           	21             	10.155
MS.2           	21             	10.3
MS.3           	21             	10.19
MS.4           	21             	10.238
MS.5           	21             	10.218
MS.6           	21             	10.29
MS.7           	21             	10.298
MS.8           	21             	10.29
MS.9           	21             	10.439
MS.10          	21             	10.242
MS.11          	21             	10.174
MS.12          	21             	10.296
MS.13          	21             	10.433
MS.14          	21             	10.371
MS.15          	21             	10.317
MS.16          	21             	10.393
MS.17          	21             	10.371
MS.18          	21             	10.385
MS.19          	21             	10.435
MS.20          	21             	10.333
MS.21          	21             	10.423
MS.22          	21             	10.462
MS.23          	21             	10.466
MS.24          	20.915         	10.351
MS.25          	20.875         	10.449
MS.26          	20.833         	10.502
MS.27          	20.79          	10.504
MS.28          	20.75          	10.542
MS.29          	20.708         	10.552
MS.30          	20.667         	10.594
MS.31          	20.625         	10.59
MS.32          	20.585         	10.516
MS.33          	20.542         	10.572
MS.34          	20.502         	10.54
MS.35          	20.46          	10.578
MS.36          	20.42          	10.631
MS.37          	20.38          	10.584
MS.38          	20.337         	10.701
MS.39          	20.297         	10.685
MS.40          	20.257         	10.599
MS.41          	20.217         	10.621
MS.42          	20.177         	10.615
MS.43          	20.135         	10.651
MS.44          	20.095         	10.601
MS.45          	20.055         	10.649
MS.46          	20.015         	10.637
MS.47          	19.975         	10.681
MS.48          	19.935         	10.649
MS.49          	19.895         	10.695
MS.50          	19.855         	10.643
MS.51          	19.817         	10.651
MS.52          	19.778         	10.639
MS.53          	19.737         	10.601
MS.54          	19.698         	10.641
MS.55          	19.657         	10.659
MS.56          	19.62          	10.683
MS.57          	19.58          	10.558
MS.58          	19.54          	10.524
MS.59          	19.502         	10.58
MS.60          	19.462         	10.615
MS.61          	19.425         	10.731
MS.62          	19.385         	10.723
MS.63          	19.347         	10.691
MS.64          	19.307         	10.663
MS.65          	19.27          	10.707
MS.66          	19.23          	10.748
MS.67          	19.192         	10.673
MS.68          	19.155         	10.685
MS.69          	19.115         	10.649
MS.70          	19.077         	10.685
MS.71          	19.04          	10.683
MS.72          	19.002         	10.667
MS.73          	18.962         	10.772
MS.74          	18.925         	10.705
MS.75          	18.887         	10.641
MS.76          	18.85          	10.617
MS.77          	18.812         	10.421
MS.78          	18.775         	10.621
MS.79          	18.737         	10.802
MS.80          	18.7           	10.75
MS.81          	18.663         	10.719
MS.82          	18.625         	10.742
MS.83          	18.587         	10.709
MS.84          	18.55          	10.77
MS.85          	18.515         	10.695
MS.86          	18.477         	10.752
MS.87          	18.44          	10.689
MS.88          	18.403         	10.697
MS.89          	18.368         	10.75
MS.90          	18.33          	10.812
MS.91          	18.292         	10.792
MS.92          	18.257         	10.772
MS.93          	18.22          	10.723
MS.94          	18.182         	10.798
MS.95          	18.147         	10.782
MS.96          	18.11          	10.774
MS.97          	18.075         	10.727
MS.98          	18.038         	10.816
MS.99          	18.003         	10.754
MS.100         	17.967         	10.832
MS.101         	17.93          	10.808
MS.102         	17.895         	10.808
MS.103         	17.86          	10.852
MS.104         	17.823         	10.887
MS.105         	17.788         	10.828
MS.106         	17.753         	10.852
MS.107         	17.717         	10.832
MS.108         	17.682         	10.705
MS.109         	17.645         	10.806
MS.110         	17.61          	10.754
MS.111         	17.575         	10.786
MS.112         	17.54          	10.83
MS.113         	17.505         	10.81
MS.114         	17.47          	10.78
MS.115         	17.435         	10.76
MS.116         	17.4           	10.75
MS.117         	17.365         	10.685
MS.118         	17.333         	10.665
MS.119         	17.297         	10.713
MS.120         	17.262         	10.645
MS.121         	17.227         	10.623
MS.122         	17.192         	10.645
MS.123         	17.16          	10.685
MS.124         	17.125         	10.744
MS.125         	17.09          	10.822
MS.126         	17.057         	10.744
MS.127         	17.022         	10.806
MS.128         	16.987         	10.792
MS.129         	16.955         	10.81
MS.130         	16.92          	10.796
MS.131         	16.887         	10.794
MS.132         	16.852         	10.858
MS.133         	16.82          	10.695
MS.134         	16.785         	10.679
MS.135         	16.753         	10.713
MS.136         	16.717         	10.713
MS.137         	16.685         	10.663
MS.138         	16.653         	10.784
MS.139         	16.618         	10.669
MS.140         	16.585         	10.796
MS.141         	16.552         	10.802
MS.142         	16.52          	10.665
MS.143         	16.485         	10.729
MS.144         	16.452         	10.719
MS.145         	16.42          	10.677
MS.146         	16.387         	10.603
MS.147         	16.355         	10.599
MS.148         	16.323         	10.639
MS.149         	16.29          	10.659
MS.150         	16.257         	10.703
MS.151         	16.225         	10.625
MS.152         	16.192         	10.633
MS.153         	16.16          	10.76
MS.154         	16.128         	10.679
MS.155         	16.095         	10.667
MS.156         	16.062         	10.621
MS.157         	16.03          	10.596
MS.158         	16             	10.58
MS.159         	15.967         	10.619
MS.160         	15.935         	10.613
MS.161         	15.902         	10.56
MS.162         	15.872         	10.655
MS.163         	15.84          	10.536
MS.164         	15.807         	10.703
MS.165         	15.777         	10.542
MS.166         	15.745         	10.617
MS.167         	15.712         	10.607
MS.168         	15.682         	10.758
MS.169         	15.65          	10.671
MS.170         	15.62          	10.75
MS.171         	15.587         	10.762
MS.172         	15.557         	10.76
MS.173         	15.525         	10.617
MS.174         	15.495         	10.637
MS.175         	15.465         	10.564
MS.176         	15.432         	10.449
MS.177         	15.402         	10.568
MS.178         	15.372         	10.673
MS.179         	15.34          	10.725
MS.180         	15.31          	10.651
MS.181         	15.28          	10.637
MS.182         	15.25          	10.627
MS.183         	15.217         	10.548
MS.184         	15.188         	10.645
MS.185         	15.157         	10.619
MS.186         	15.127         	10.719
MS.187         	15.097         	10.723
MS.188         	15.068         	10.687
MS.189         	15.037         	10.584
MS.190         	15.007         	10.707
MS.191         	14.977         	10.623
MS.192         	14.947         	10.635
MS.193         	14.917         	10.603
MS.194         	14.887         	10.651
MS.195         	14.858         	10.709
MS.196         	14.827         	10.713
MS.197         	14.797         	10.693
MS.198         	14.77          	10.707
MS.199         	14.74          	10.643
MS.200         	14.71          	10.629
MS.201         	14.68          	10.594
MS.202         	14.65          	10.562
MS.203         	14.622         	10.601
MS.204         	14.592         	10.631
MS.205         	14.562         	10.603
MS.206         	14.535         	10.709
MS.207         	14.505         	10.691
MS.208         	14.477         	10.629
MS.209         	14.447         	10.721
MS.210         	14.417         	10.715
MS.211         	14.39          	10.774
MS.212         	14.36          	10.697
MS.213         	14.332         	10.675
MS.214         	14.302         	10.56
MS.215         	14.275         	10.619
MS.216         	14.247         	10.715
MS.217         	14.217         	10.576
MS.218         	14.19          	10.594
MS.219         	14.162         	10.564
MS.220         	14.132         	10.601
MS.221         	14.105         	10.534
MS.222         	14.077         	10.415
MS.223         	14.047         	10.425
MS.224         	14.02          	10.633
MS.225         	13.992         	10.58
MS.226         	13.965         	10.506
MS.227         	13.938         	10.707
MS.228         	13.91          	10.703
MS.229         	13.88          	10.752
MS.230         	13.852         	10.786
MS.231         	13.825         	10.784
MS.232         	13.797         	10.719
MS.233         	13.77          	10.737
MS.234         	13.742         	10.719
MS.235         	13.715         	10.782
MS.236         	13.688         	10.826
MS.237         	13.66          	10.812
MS.238         	13.632         	10.774
MS.239         	13.605         	10.746
MS.240         	13.58          	10.81
MS.241         	13.552         	10.836
MS.242         	13.525         	10.81
MS.243         	13.497         	10.772
MS.244         	13.47          	10.8
MS.245         	13.445         	10.834
MS.246         	13.417         	10.824
MS.247         	13.39          	10.822
MS.248         	13.362         	10.78
MS.249         	13.337         	10.774
MS.250         	13.31          	10.806
MS.251         	13.282         	10.707
MS.252         	13.257         	10.651
MS.253         	13.23          	10.627
MS.254         	13.205         	10.528
MS.255         	13.177         	10.506
MS.256         	13.153         	10.574
MS.257         	13.125         	10.729
MS.258         	13.1           	10.629
MS.259         	13.072         	10.578
MS.260         	13.047         	10.522
MS.261         	13.02          	10.578
MS.262         	12.995         	10.649
MS.263         	12.967         	10.603
MS.264         	12.943         	10.657
MS.265         	12.917         	10.639
MS.266         	12.89          	10.629
MS.267         	12.865         	10.603
MS.268         	12.84          	10.582
MS.269         	12.812         	10.588
MS.270         	12.787         	10.651
MS.271         	12.762         	10.647
MS.272         	12.738         	10.568
MS.273         	12.712         	10.57
MS.274         	12.685         	10.629
MS.275         	12.66          	10.594
MS.276         	12.635         	10.534
MS.277         	12.61          	10.49
MS.278         	12.585         	10.508
MS.279         	12.56          	10.494
MS.280         	12.535         	10.462
MS.281         	12.51          	10.498
MS.282         	12.485         	10.522
MS.283         	12.46          	10.582
MS.284         	12.435         	10.514
MS.285         	12.41          	10.532
MS.286         	12.385         	10.506
MS.287         	12.36          	10.584
MS.288         	12.335         	10.599
MS.289         	12.312         	10.621
MS.290         	12.287         	10.544
MS.291         	12.262         	10.502
MS.292         	12.238         	10.508
MS.293         	12.212         	10.47
MS.294         	12.19          	10.458
MS.295         	12.165         	10.482
MS.296         	12.14          	10.399
MS.297         	12.115         	10.341
MS.298         	12.092         	10.343
MS.299         	12.068         	10.288
MS.300         	12.042         	10.147
MS.301         	12.02          	10.161
MS.302         	11.995         	10.188
MS.303         	11.972         	10.381
MS.304         	11.947         	10.375
MS.305         	11.922         	10.472
MS.306         	11.9           	10.435
MS.307         	11.875         	10.466
MS.308         	11.852         	10.506
MS.309         	11.827         	10.55
MS.310         	11.805         	10.411
MS.311         	11.782         	10.393
MS.312         	11.757         	10.405
MS.313         	11.735         	10.421
MS.314         	11.71          	10.312
MS.315         	11.688         	10.325
MS.316         	11.665         	10.357
MS.317         	11.64          	10.343
MS.318         	11.617         	10.411
MS.319         	11.595         	10.375
MS.320         	11.57          	10.361
MS.321         	11.547         	10.399
MS.322         	11.525         	10.423
MS.323         	11.502         	10.379
MS.324         	11.48          	10.365
MS.325         	11.455         	10.31
MS.326         	11.432         	10.431
MS.327         	11.41          	10.367
MS.328         	11.387         	10.151
MS.329         	11.365         	10.373
MS.330         	11.342         	10.596
MS.331         	11.32          	10.74
MS.332         	11.297         	10.762
MS.333         	11.275         	10.536
MS.334         	11.252         	10.564
MS.335         	11.23          	10.599
MS.336         	11.207         	10.703
MS.337         	11.185         	10.774
MS.338         	11.162         	10.645
MS.339         	11.14          	10.683
MS.340         	11.117         	10.653
MS.341         	11.095         	10.643
MS.342         	11.073         	10.431
MS.343         	11.05          	10.536
MS.344         	11.03          	10.534
MS.345         	11.007         	10.504
MS.346         	10.985         	10.576
MS.347         	10.962         	10.578
MS.348         	10.94          	10.574
MS.349         	10.92          	10.586
MS.350         	10.898         	10.592
MS.351         	10.875         	10.584
MS.352         	10.855         	10.647
MS.353         	10.832         	10.655
MS.354         	10.81          	10.609
MS.355         	10.79          	10.603
MS.356         	10.767         	10.641
MS.357         	10.745         	10.651
MS.358         	10.725         	10.641
MS.359         	10.702         	10.605
MS.360         	10.682         	10.574
MS.361         	10.66          	10.603
MS.362         	10.64          	10.657
MS.363         	10.617         	10.613
MS.364         	10.597         	10.633
MS.365         	10.575         	10.649
MS.366         	10.555         	10.693
MS.367         	10.532         	10.661
MS.368         	10.512         	10.651
MS.369         	10.49          	10.633
MS.370         	10.47          	10.57
MS.371         	10.45          	10.645
MS.372         	10.427         	10.298
MS.373         	10.407         	10.693
MS.374         	10.387         	10.661
MS.375         	10.365         	10.613
MS.376         	10.345         	10.661
MS.377         	10.325         	10.621
MS.378         	10.305         	10.627
MS.379         	10.282         	10.588
MS.380         	10.262         	10.341
MS.381         	10.242         	10.667
MS.382         	10.222         	10.631
MS.383         	10.202         	10.671
MS.384         	10.18          	10.659
MS.385         	10.16          	10.669
MS.386         	10.14          	10.639
MS.387         	10.12          	10.661
MS.388         	10.1           	10.23
MS.389         	10.08          	10.54
MS.390         	10.06          	10.369
MS.391         	10.04          	10.592
MS.392         	10.02          	10.375
MS.393         	10             	10.323
MS.394         	9.98           	10.248
MS.395         	9.96           	10.661
MS.396         	9.94           	10.161
MS.397         	9.92           	10.397
MS.398         	9.9            	10.355
MS.399         	9.88           	10.184
MS.400         	9.86           	10.276
MS.401         	9.84           	10.153
MS.402         	9.82           	10.196
MS.403         	9.802          	10.089
MS.404         	9.782          	10.107
MS.405         	9.762          	10.208
MS.406         	9.742          	10.109
MS.407         	9.722          	10.109
MS.408         	9.705          	10.075
MS.409         	9.685          	10.024
MS.410         	9.665          	10.008
MS.411         	9.645          	10.051
MS.412         	9.627          	10.085
MS.413         	9.608          	10.077
MS.414         	9.587          	10.045
MS.415         	9.57           	10.085
MS.416         	9.55           	10.02
MS.417         	9.53           	10.016
MS.418         	9.512          	9.978
MS.419         	9.492          	9.984
MS.420         	9.472          	9.952
MS.421         	9.455          	9.988
MS.422         	9.435          	9.986
MS.423         	9.417          	9.849
MS.424         	9.398          	9.956
MS.425         	9.38           	10.075
MS.426         	9.36           	9.996
MS.427         	9.342          	10.095
MS.428         	9.323          	10.026
MS.429         	9.305          	10.125
MS.430         	9.285          	10.049
MS.431         	9.267          	9.865
MS.432         	9.25           	9.751
MS.433         	9.23           	9.97
MS.434         	9.212          	9.736
MS.435         	9.193          	9.972
MS.436         	9.175          	9.914
MS.437         	9.158          	9.851
MS.438         	9.137          	9.853
MS.439         	9.12           	9.833
MS.440         	9.102          	9.763
MS.441         	9.085          	9.918
MS.442         	9.065          	9.686
MS.443         	9.047          	9.503
MS.444         	9.03           	9.686
MS.445         	9.012          	9.557
MS.446         	8.992          	9.738
MS.447         	8.975          	9.483
MS.448         	8.957          	9.517
MS.449         	8.94           	9.529
MS.450         	8.922          	9.42
MS.451         	8.905          	9.376
MS.452         	8.887          	9.366
MS.453         	8.867          	9.309
MS.454         	8.85           	9.227
MS.455         	8.832          	9.088
MS.456         	8.815          	8.84
MS.457         	8.797          	8.874
MS.458         	8.78           	9.1
MS.459         	8.762          	8.953
MS.460         	8.745          	8.788
MS.461         	8.727          	8.562
MS.462         	8.71           	8.707
MS.463         	8.693          	8.212
MS.464         	8.675          	8.449
MS.465         	8.658          	8.339
MS.466         	8.64           	7.9
MS.467         	8.622          	8.375
MS.468         	8.608          	8.02
MS.469         	8.59           	7.962
MS.470         	8.573          	7.964
MS.471         	8.555          	8.286
MS.472         	8.537          	7.777
MS.473         	8.52           	7.938
MS.474         	8.505          	7.664
MS.475         	8.488          	8.109
MS.476         	8.47           	8.19
MS.477         	8.452          	8.109
MS.478         	8.435          	8.165
MS.479         	8.42           	8.008
MS.480         	8.403          	7.936
MS.481         	8.385          	7.924
MS.482         	8.37           	8.192
MS.483         	8.352          	7.69
MS.484         	8.335          	7.885
MS.485         	8.32           	7.622
MS.486         	8.302          	7.41
MS.487         	8.285          	6.832
MS.488         	8.27           	7.587
MS.489         	8.252          	7.182
MS.490         	8.235          	7.271
MS.491         	8.22           	7.444
MS.492         	8.202          	7.666
MS.493         	8.188          	7.209
MS.494         	8.17           	7.35
MS.495         	8.155          	6.715
MS.496         	8.137          	7.068
MS.497         	8.122          	7.452
MS.498         	8.105          	7.201
MS.499         	8.09           	6.713
MS.500         	8.073          	6.794
MS.501         	8.057          	6.784
MS.502         	8.04           	6.77
MS.503         	8.025          	6.973
MS.504         	8.007          	6.751
MS.505         	7.992          	7.136
MS.506         	7.977          	7.416
MS.507         	7.96           	7.674
MS.508         	7.945          	7.191
MS.509         	7.93           	7.072
MS.510         	7.912          	6.981
MS.511         	7.898          	6.667
MS.512         	7.882          	6.796
MS.513         	7.865          	6.298
MS.514         	7.85           	6.445
MS.515         	7.835          	6.403
MS.516         	7.817          	6.641
MS.517         	7.802          	6.659
MS.518         	7.787          	5.92
MS.519         	7.773          	6.274
MS.520         	7.757          	6.065
MS.521         	7.74           	6.067
MS.522         	7.725          	6.22
MS.523         	7.71           	5.837
MS.524         	7.695          	6.232
MS.525         	7.68           	5.932
MS.526         	7.665          	5.668
MS.527         	7.648          	5.507
MS.528         	7.632          	5.726
MS.529         	7.617          	6.008
MS.530         	7.602          	5.895
MS.531         	7.587          	5.841
MS.532         	7.572          	5.839
MS.533         	7.557          	6.016
MS.534         	7.543          	5.674
MS.535         	7.527          	5.058
MS.536         	7.512          	5.607
MS.537         	7.497          	5.338
MS.538         	7.482          	5.011
MS.539         	7.467          	4.51
MS.540         	7.452          	5.479
MS.541         	7.438          	4.997
MS.542         	7.422          	4.858
MS.543         	7.407          	4.492
MS.544         	7.392          	4.953
MS.545         	7.378          	4.763
MS.546         	7.362          	4.788
MS.547         	7.347          	4.864
MS.548         	7.335          	4.655
MS.549         	7.32           	4.405
MS.550         	7.305          	4.633
MS.551         	7.29           	4.055
MS.552         	7.275          	4.179
MS.553         	7.26           	4.204
MS.554         	7.247          	3.909
MS.555         	7.233          	4.075
MS.556         	7.217          	4.05
MS.557         	7.202          	3.928
MS.558         	7.19           	3.964
MS.559         	7.175          	3.944
MS.560         	7.16           	3.829
MS.561         	7.145          	3.95
MS.562         	7.132          	3.654
MS.563         	7.117          	3.76
MS.564         	7.102          	3.188
MS.565         	7.09           	3.297
MS.566         	7.075          	3.438
MS.567         	7.06           	3.281
MS.568         	7.047          	3.279
MS.569         	7.032          	3.414
MS.570         	7.017          	3.136
MS.571         	7.005          	2.939
MS.572         	6.99           	3.196
MS.573         	6.977          	3.053
MS.574         	6.962          	2.955
MS.575         	6.947          	3.043
MS.576         	6.935          	3.112
MS.577         	6.92           	2.862
MS.578         	6.907          	2.81
MS.579         	6.892          	2.904
MS.580         	6.88           	2.957
MS.581         	6.865          	2.949
MS.582         	6.852          	2.729
MS.583         	6.837          	2.822
MS.584         	6.825          	2.947
MS.585         	6.81           	2.681
MS.586         	6.797          	2.763
MS.587         	6.782          	2.673
MS.588         	6.77           	2.645
MS.589         	6.757          	2.647
MS.590         	6.742          	2.727
MS.591         	6.73           	2.792
MS.592         	6.715          	2.417
MS.593         	6.702          	2.512
MS.594         	6.69           	2.6
MS.595         	6.675          	2.792
MS.596         	6.662          	2.576
MS.597         	6.65           	2.477
MS.598         	6.635          	2.129
MS.599         	6.622          	2.548
MS.600         	6.61           	2.655
MS.601         	6.597          	2.423
MS.602         	6.582          	2.036
MS.603         	6.57           	2.294
MS.604         	6.557          	2.355
MS.605         	6.545          	1.875
MS.606         	6.53           	2.139
MS.607         	6.517          	1.976
MS.608         	6.505          	2.151
MS.609         	6.492          	1.93
MS.610         	6.477          	2.006
MS.611         	6.465          	1.978
MS.612         	6.452          	2.01
MS.613         	6.44           	1.946
MS.614         	6.427          	1.998
MS.615         	6.415          	1.577
MS.616         	6.402          	1.682
MS.617         	6.387          	1.942
MS.618         	6.375          	1.851
MS.619         	6.362          	2.29
MS.620         	6.35           	1.684
MS.621         	6.338          	1.897
MS.622         	6.325          	1.768
MS.623         	6.312          	1.71
MS.624         	6.3            	1.569
MS.625         	6.287          	1.666
MS.626         	6.275          	1.476
MS.627         	6.262          	1.891
MS.628         	6.25           	1.797
MS.629         	6.237          	1.15
MS.630         	6.225          	1.297
MS.631         	6.213          	1.4
MS.632         	6.2            	1.402
MS.633         	6.188          	1.194
MS.634         	6.175          	1.164
MS.635         	6.162          	1.269
MS.636         	6.15           	1.061
MS.637         	6.137          	1.035
MS.638         	6.125          	1.162
MS.639         	6.112          	1.192
MS.640         	6.102          	1.088
MS.641         	6.09           	1.068
MS.642         	6.077          	0.937
MS.643         	6.065          	1.138
MS.644         	6.052          	0.975
MS.645         	6.04           	1.116
MS.646         	6.027          	1.07
MS.647         	6.017          	1.174
MS.648         	6.005          	1.086
MS.649         	5.992          	0.997
MS.650         	5.98           	1.043
MS.651         	5.967          	1.013
MS.652         	5.957          	1.259
MS.653         	5.945          	0.961
MS.654         	5.932          	0.918
MS.655         	5.92           	0.955
MS.656         	5.91           	0.965
MS.657         	5.898          	0.995
MS.658         	5.885          	0.87
MS.659         	5.875          	0.931
MS.660         	5.862          	0.989
MS.661         	5.85           	0.918
MS.662         	5.84           	0.927
MS.663         	5.827          	1.039
MS.664         	5.815          	0.937
MS.665         	5.805          	0.91
MS.666         	5.793          	0.896
MS.667         	5.78           	0.904
MS.668         	5.77           	0.9
MS.669         	5.757          	0.84
MS.670         	5.745          	0.937
MS.671         	5.735          	0.882
MS.672         	5.722          	0.9
MS.673         	5.713          	0.86
MS.674         	5.7            	0.945
MS.675         	5.69           	0.832
MS.676         	5.677          	0.88
MS.677         	5.665          	0.82
MS.678         	5.655          	0.844
MS.679         	5.642          	0.808
MS.680         	5.632          	0.874
MS.681         	5.62           	0.792
MS.682         	5.61           	0.816
MS.683         	5.597          	0.812
MS.684         	5.588          	0.842
MS.685         	5.577          	0.902
MS.686         	5.565          	0.866
MS.687         	5.555          	0.715
MS.688         	5.543          	0.703
MS.689         	5.532          	0.828
MS.690         	5.52           	0.876
MS.691         	5.51           	0.717
MS.692         	5.497          	0.715
MS.693         	5.487          	0.669
MS.694         	5.477          	0.677
MS.695         	5.465          	0.663
MS.696         	5.455          	0.713
MS.697         	5.445          	0.687
MS.698         	5.432          	0.705
MS.699         	5.422          	0.683
MS.700         	5.412          	0.626
MS.701         	5.4            	0.695
MS.702         	5.39           	0.649
MS.703         	5.38           	0.681
MS.704         	5.367          	0.691
MS.705         	5.358          	0.667
MS.706         	5.347          	0.606
MS.707         	5.335          	0.663
MS.708         	5.325          	0.653
MS.709         	5.315          	0.614
MS.710         	5.305          	0.612
MS.711         	5.293          	0.57
MS.712         	5.282          	0.596
MS.713         	5.273          	0.628
MS.714         	5.262          	0.584
MS.715         	5.253          	0.53
MS.716         	5.24           	0.592
MS.717         	5.23           	0.572
MS.718         	5.22           	0.572
MS.719         	5.21           	0.471
MS.720         	5.2            	0.55
MS.721         	5.19           	0.564
MS.722         	5.177          	0.457
MS.723         	5.168          	0.443
MS.724         	5.157          	0.3
MS.725         	5.148          	0.562
MS.726         	5.137          	0.497
MS.727         	5.128          	0.485
MS.728         	5.117          	0.502
MS.729         	5.108          	0.542
MS.730         	5.097          	0.274
MS.731         	5.085          	0.443
MS.732         	5.075          	0.461
MS.733         	5.065          	0.477
MS.734         	5.055          	0.413
MS.735         	5.045          	0.445
MS.736         	5.035          	0.403
MS.737         	5.025          	0.405
MS.738         	5.015          	0.411
MS.739         	5.005          	0.387
MS.740         	4.995          	0.421
MS.741         	4.985          	0.375
MS.742         	4.975          	0.211
MS.743         	4.965          	0.272
MS.744         	4.955          	0.415
MS.745         	4.945          	0.401
MS.746         	4.935          	0.383
MS.747         	4.925          	0.401
MS.748         	4.915          	0.22
MS.749         	4.907          	0.352
MS.750         	4.898          	0.181
MS.751         	4.887          	0.181
MS.752         	4.878          	0.171
MS.753         	4.867          	0.185
MS.754         	4.858          	0.195
MS.755         	4.847          	0.133
MS.756         	4.838          	0.334
MS.757         	4.827          	0.141
MS.758         	4.82           	0.175
MS.759         	4.81           	0.177
MS.760         	4.8            	0.056
MS.761         	4.79           	0.256
MS.762         	4.78           	0.105
MS.763         	4.77           	0.077
MS.764         	4.762          	0.135
MS.765         	4.753          	0.089
MS.766         	4.742          	0.089
MS.767         	4.733          	0.097
MS.768         	4.722          	0.083
MS.769         	4.715          	0.054
MS.770         	4.705          	0.048
MS.771         	4.695          	0.099
MS.772         	4.685          	0.022
MS.773         	4.677          	0.077
MS.774         	4.668          	0.095
MS.775         	4.657          	0.056
MS.776         	4.648          	0.062
MS.777         	4.64           	0.093
MS.778         	4.63           	0.081
MS.779         	4.62           	0.052
MS.780         	4.612          	0.07
MS.781         	4.602          	0.01
MS.782         	4.592          	0.054
MS.783         	4.585          	0.107
MS.784         	4.575          	0.073
MS.785         	4.565          	0.016
MS.786         	4.557          	0.026
MS.787         	4.548          	0.056
MS.788         	4.537          	0.01
MS.789         	4.53           	0.056
MS.790         	4.52           	0.01
MS.791         	4.51           	0.012
MS.792         	4.503          	0.07
MS.793         	4.492          	0.036
MS.794         	4.485          	0.03
MS.795         	4.475          	0.01
MS.796         	4.465          	0.01
MS.797         	4.457          	0.054
MS.798         	4.447          	0.012
MS.799         	4.44           	0.008
MS.800         	4.43           	0.01
MS.801         	4.423          	0.054
MS.802         	4.412          	0.01
MS.803         	4.405          	0.012
MS.804         	4.395          	0.03
MS.805         	4.387          	0.054
MS.806         	4.378          	0.012
MS.807         	4.37           	0.01
MS.808         	4.36           	0.056
MS.809         	4.352          	0.01
MS.810         	4.342          	0.014
MS.811         	4.335          	0.012
MS.812         	4.325          	0.012
MS.813         	4.318          	0.012
MS.814         	4.307          	0.01
MS.815         	4.3            	0.014
MS.816         	4.29           	0.008
MS.817         	4.282          	0.014
MS.818         	4.275          	0.012
MS.819         	4.265          	0.014
MS.820         	4.257          	0.012
MS.821         	4.247          	0.012
MS.822         	4.24           	0.01
MS.823         	4.233          	0.008
MS.824         	4.222          	0.01
MS.825         	4.215          	0.012
MS.826         	4.205          	0.01
MS.827         	4.197          	0.01
DERIVED EXCITABILITY VARIABLES
Program = QTracP 3/4/2020
Threshold method = 6 (optimised for CAP, using data for present condition only)
SR method = 1 (using actual data values)
6.                 	0.000               	Peak response\(mV)
9.                 	36.2                	Temperature ( C)
17.                	36                  	Age (years)
18.                	1                   	Sex (M=1, F=2)

EXTRA VARIABLES

MScPeak(mV) = 10.31
MScS5(mA) = 5.16
MScS50(mA) = 7.49
MScS95(mA) = 9.17
MScNSteps = 2
MScSteps(%) = 4.8
MScStepMax(%) = 2.7
MScD50 = 51
MScSlope = 4.29
MSFPeakAmp(mV) = 10.6
MSFNUnits = 109
MSFMeanUnitAmp(uV) = 97.3
MSFHuntTime(m) = 2.22
MSFError(%) = 5.21
MSFNLarge = 23.51
MSFMedianAmp(%) = 0.642
MSFMedianAmp(mV) = 0.0681
MSFHalfAmpAmp(%) = 1.05
MSFHalfAmpAmp(mV) = 0.111
MSFLargestAmp(%) = 4.09
MSFLargestAmp(mV) = 0.433
MSFMeanRS(%) = 2.02
MSFOpts = 10106121
MScDuration(min) = 7.9
MSFTraces = 465
MSFSizeLimit(uV) = 26.5
MSFLimitType = 1
MSFSmallestAmp(uV) = 28.4

EXTRA WAVEFORMS


!MScan Model
!109
	1	4.57	0.33	2
	2	4.73	0.38	2
	3	4.81	0.7	2
	4	4.87	0.61	2
	5	4.92	1	2
	6	5.02	0.91	2
	7	5.2	1.08	2
	8	5.25	0.47	2
	9	5.28	0.31	2
	10	5.32	0.28	2
	11	5.41	0.44	2
	12	5.46	0.33	2
	13	5.5	0.33	2
	14	5.59	0.69	2
	15	5.66	0.32	2
	16	5.75	0.43	2
	17	5.93	1.01	2
	18	6.14	1.48	2
	19	6.18	0.65	2
	20	6.21	1.31	2
	21	6.25	1.8	2
	22	6.39	3.12	2
	23	6.47	0.94	2
	24	6.54	1.04	2
	25	6.61	2.5	2
	26	6.63	0.91	2
	27	6.7	1.34	2
	28	6.74	0.71	2
	29	6.77	0.38	2
	30	6.8	0.6	2
	31	6.84	0.57	2
	32	6.87	0.45	2
	33	6.9	0.58	2
	34	6.94	0.67	2
	35	6.99	0.94	2
	36	7.02	0.64	2
	37	7.03	0.69	2
	38	7.05	0.71	2
	39	7.07	0.73	2
	40	7.08	0.72	2
	41	7.1	0.71	2
	42	7.12	0.53	2
	43	7.13	0.49	2
	44	7.15	0.75	2
	45	7.18	1.41	2
	46	7.2	1.2	2
	47	7.22	0.59	2
	48	7.23	0.34	2
	49	7.24	0.34	2
	50	7.26	0.56	2
	51	7.27	0.56	2
	52	7.28	0.54	2
	53	7.29	0.57	2
	54	7.34	2.14	2
	55	7.41	2.95	2
	56	7.45	1.69	2
	57	7.48	0.93	2
	58	7.5	1.54	2
	59	7.56	2.8	2
	60	7.68	3.29	2
	61	7.71	0.57	2
	62	7.75	1.05	2
	63	7.77	0.83	2
	64	7.79	0.91	2
	65	7.82	1.12	2
	66	7.87	2.37	2
	67	8.11	3.37	2
	68	8.25	3.66	2
	69	8.32	1.81	2
	70	8.55	4.09	2.4
	71	8.58	0.27	2
	72	8.61	0.36	2
	73	8.63	0.91	2
	74	8.65	0.69	2
	75	8.66	0.55	2
	76	8.68	0.54	2
	77	8.69	0.5	2
	78	8.71	0.53	2
	79	8.72	0.64	2
	80	8.73	0.52	2
	81	8.74	0.46	2
	82	8.75	0.46	2
	83	8.76	0.45	2
	84	8.78	0.43	2
	85	8.79	0.43	2
	86	8.8	0.42	2
	87	8.81	0.42	2
	88	8.82	0.43	2
	89	8.83	0.48	2
	90	8.84	0.48	2
	91	8.85	0.47	2
	92	8.86	0.37	2
	93	8.87	0.34	2
	94	8.89	0.32	2
	95	8.9	0.35	2
	96	8.91	0.48	2
	97	8.94	0.66	2
	98	8.96	0.66	2
	99	8.98	0.44	2
	100	9.02	0.69	2
	101	9.06	0.73	2
	102	9.13	0.91	2
	103	9.25	1.29	2
	104	9.63	0.36	2
	105	9.76	0.64	2
	106	9.84	0.97	2
	107	9.93	0.88	2
	108	9.93	0.58	2
	109	10.13	2.11	2

