File:              	C:\Qtrac\Data\Daniel M Sørensen\MScan multicentre study\Data from centres\Bucharest\Processed data\TDLC00206F.QZD
Name:              	RO.BU.NC.4.1
Protocol:          	MSCAN-R2
Date:              	6/2/20
Start time:        	15:30:37
Age:               	28
Sex:               	M
Temperature:       	36.8
S/R sites:         	ADM
NC/disease:        	RONC4.1
Operator:          	TL
Comments:
M-SCAN DATA (8.7-2.2m)
Scanpts: 182, 188, 663, 677
Stim. (mA)     	Amp. (mV)
MS.1           	30             	8.016
MS.2           	30             	8.049
MS.3           	30             	8.059
MS.4           	30             	8.049
MS.5           	30             	8.008
MS.6           	30             	8.028
MS.7           	30             	8.069
MS.8           	30             	8.103
MS.9           	30             	8.115
MS.10          	30             	8.119
MS.11          	30             	8.071
MS.12          	30             	8.036
MS.13          	30             	8.061
MS.14          	30             	8.097
MS.15          	30             	8.093
MS.16          	30             	8.059
MS.17          	30             	8.012
MS.18          	30             	8.022
MS.19          	30             	8
MS.20          	30             	8.004
MS.21          	30             	7.99
MS.22          	30             	8.006
MS.23          	30             	8
MS.24          	29.88          	8.002
MS.25          	29.82          	8.008
MS.26          	29.76          	8.002
MS.27          	29.702         	8.043
MS.28          	29.642         	8.016
MS.29          	29.582         	8.059
MS.30          	29.522         	8.008
MS.31          	29.465         	8.008
MS.32          	29.405         	8.065
MS.33          	29.347         	8.024
MS.34          	29.287         	8.045
MS.35          	29.23          	8.063
MS.36          	29.172         	8.022
MS.37          	29.112         	8.049
MS.38          	29.055         	8.073
MS.39          	28.997         	8.051
MS.40          	28.94          	8.093
MS.41          	28.882         	8.131
MS.42          	28.823         	8.077
MS.43          	28.765         	8.101
MS.44          	28.707         	8.101
MS.45          	28.65          	8.079
MS.46          	28.595         	8.095
MS.47          	28.537         	8.113
MS.48          	28.48          	8.087
MS.49          	28.422         	8.095
MS.50          	28.365         	8.123
MS.51          	28.31          	8.061
MS.52          	28.252         	8.079
MS.53          	28.198         	8.085
MS.54          	28.14          	8.131
MS.55          	28.085         	8.109
MS.56          	28.028         	8.105
MS.57          	27.972         	8.091
MS.58          	27.915         	8.101
MS.59          	27.86          	8.115
MS.60          	27.805         	8.135
MS.61          	27.75          	8.107
MS.62          	27.692         	8.039
MS.63          	27.637         	8.041
MS.64          	27.582         	8.043
MS.65          	27.528         	8.085
MS.66          	27.472         	8.105
MS.67          	27.417         	8.109
MS.68          	27.362         	8.135
MS.69          	27.307         	8.149
MS.70          	27.255         	8.135
MS.71          	27.2           	8.151
MS.72          	27.145         	8.153
MS.73          	27.09          	8.129
MS.74          	27.037         	8.099
MS.75          	26.983         	8.133
MS.76          	26.927         	8.095
MS.77          	26.875         	8.057
MS.78          	26.82          	8.065
MS.79          	26.767         	8.129
MS.80          	26.715         	8.053
MS.81          	26.66          	8.085
MS.82          	26.608         	8.045
MS.83          	26.555         	8.073
MS.84          	26.502         	8.051
MS.85          	26.448         	8.061
MS.86          	26.395         	8.075
MS.87          	26.342         	8.071
MS.88          	26.29          	8.085
MS.89          	26.237         	8.075
MS.90          	26.185         	8.081
MS.91          	26.132         	8.099
MS.92          	26.08          	8.097
MS.93          	26.028         	8.097
MS.94          	25.977         	8.097
MS.95          	25.925         	8.097
MS.96          	25.872         	8.111
MS.97          	25.82          	8.175
MS.98          	25.77          	8.111
MS.99          	25.717         	8.085
MS.100         	25.667         	8.125
MS.101         	25.615         	8.085
MS.102         	25.565         	8.077
MS.103         	25.512         	8.099
MS.104         	25.462         	8.075
MS.105         	25.413         	8.121
MS.106         	25.36          	8.103
MS.107         	25.31          	8.147
MS.108         	25.26          	8.119
MS.109         	25.21          	8.095
MS.110         	25.157         	8.119
MS.111         	25.108         	8.123
MS.112         	25.057         	8.147
MS.113         	25.007         	8.206
MS.114         	24.957         	8.111
MS.115         	24.907         	8.147
MS.116         	24.858         	8.121
MS.117         	24.807         	8.147
MS.118         	24.76          	8.119
MS.119         	24.71          	8.085
MS.120         	24.66          	8.103
MS.121         	24.61          	8.151
MS.122         	24.562         	8.089
MS.123         	24.512         	8.133
MS.124         	24.465         	8.155
MS.125         	24.415         	8.171
MS.126         	24.365         	8.155
MS.127         	24.317         	8.182
MS.128         	24.27          	8.165
MS.129         	24.22          	8.123
MS.130         	24.172         	8.101
MS.131         	24.122         	8.159
MS.132         	24.075         	8.188
MS.133         	24.028         	8.167
MS.134         	23.98          	8.153
MS.135         	23.932         	8.145
MS.136         	23.882         	8.161
MS.137         	23.835         	8.153
MS.138         	23.788         	8.103
MS.139         	23.74          	8.129
MS.140         	23.692         	8.095
MS.141         	23.645         	8.105
MS.142         	23.597         	8.103
MS.143         	23.552         	8.057
MS.144         	23.505         	8.077
MS.145         	23.457         	8.069
MS.146         	23.41          	8.071
MS.147         	23.365         	8.053
MS.148         	23.317         	8.085
MS.149         	23.27          	8.036
MS.150         	23.225         	8.039
MS.151         	23.177         	8.034
MS.152         	23.132         	8.069
MS.153         	23.085         	8.039
MS.154         	23.04          	8.045
MS.155         	22.993         	8.065
MS.156         	22.948         	8.071
MS.157         	22.903         	8.129
MS.158         	22.855         	8.113
MS.159         	22.81          	8.123
MS.160         	22.765         	8.151
MS.161         	22.72          	8.091
MS.162         	22.672         	8.095
MS.163         	22.627         	8.105
MS.164         	22.582         	8.075
MS.165         	22.538         	8.093
MS.166         	22.493         	8.099
MS.167         	22.448         	8.113
MS.168         	22.403         	8.127
MS.169         	22.358         	8.087
MS.170         	22.312         	8.099
MS.171         	22.27          	8.135
MS.172         	22.225         	8.131
MS.173         	22.18          	8.095
MS.174         	22.135         	8.063
MS.175         	22.092         	8.107
MS.176         	22.047         	8.115
MS.177         	22.002         	8.123
MS.178         	21.96          	8.067
MS.179         	21.915         	8.125
MS.180         	21.872         	8.069
MS.181         	21.827         	8.125
MS.182         	21.785         	8.103
MS.183         	21.74          	8.117
MS.184         	21.698         	8.101
MS.185         	21.655         	8.153
MS.186         	21.61          	8.097
MS.187         	21.567         	8.101
MS.188         	21.525         	8.135
MS.189         	21.483         	8.117
MS.190         	21.438         	8.129
MS.191         	21.395         	8.097
MS.192         	21.352         	8.087
MS.193         	21.31          	8.103
MS.194         	21.267         	8.141
MS.195         	21.225         	8.117
MS.196         	21.182         	8.089
MS.197         	21.14          	8.113
MS.198         	21.097         	8.129
MS.199         	21.055         	8.099
MS.200         	21.015         	8.139
MS.201         	20.972         	8.137
MS.202         	20.93          	8.103
MS.203         	20.887         	8.113
MS.204         	20.847         	8.057
MS.205         	20.805         	8.155
MS.206         	20.762         	8.089
MS.207         	20.722         	8.147
MS.208         	20.68          	8.085
MS.209         	20.64          	7.998
MS.210         	20.597         	7.984
MS.211         	20.557         	8
MS.212         	20.515         	8.034
MS.213         	20.475         	8.034
MS.214         	20.435         	8.02
MS.215         	20.392         	7.964
MS.216         	20.352         	7.996
MS.217         	20.312         	7.984
MS.218         	20.27          	8.067
MS.219         	20.23          	7.978
MS.220         	20.19          	8.028
MS.221         	20.15          	8.026
MS.222         	20.11          	8.032
MS.223         	20.07          	7.986
MS.224         	20.03          	7.982
MS.225         	19.99          	8
MS.226         	19.95          	7.974
MS.227         	19.91          	7.99
MS.228         	19.87          	8.006
MS.229         	19.83          	7.998
MS.230         	19.79          	7.946
MS.231         	19.75          	8.024
MS.232         	19.712         	7.966
MS.233         	19.672         	7.978
MS.234         	19.632         	7.966
MS.235         	19.592         	7.942
MS.236         	19.555         	7.99
MS.237         	19.515         	7.944
MS.238         	19.475         	7.976
MS.239         	19.438         	7.972
MS.240         	19.397         	7.924
MS.241         	19.36          	7.978
MS.242         	19.32          	7.936
MS.243         	19.282         	8.014
MS.244         	19.245         	7.996
MS.245         	19.205         	7.986
MS.246         	19.167         	7.883
MS.247         	19.13          	7.95
MS.248         	19.09          	7.908
MS.249         	19.052         	7.914
MS.250         	19.015         	7.948
MS.251         	18.977         	7.885
MS.252         	18.938         	8.012
MS.253         	18.9           	7.879
MS.254         	18.862         	7.934
MS.255         	18.825         	7.978
MS.256         	18.788         	7.966
MS.257         	18.75          	7.934
MS.258         	18.712         	7.904
MS.259         	18.675         	7.902
MS.260         	18.637         	7.952
MS.261         	18.6           	7.978
MS.262         	18.562         	7.966
MS.263         	18.528         	7.988
MS.264         	18.49          	7.954
MS.265         	18.452         	7.912
MS.266         	18.415         	7.896
MS.267         	18.378         	7.934
MS.268         	18.342         	7.914
MS.269         	18.305         	7.855
MS.270         	18.27          	7.9
MS.271         	18.233         	7.912
MS.272         	18.195         	7.928
MS.273         	18.16          	7.94
MS.274         	18.122         	7.95
MS.275         	18.087         	7.914
MS.276         	18.05          	7.829
MS.277         	18.015         	7.863
MS.278         	17.98          	7.871
MS.279         	17.942         	7.811
MS.280         	17.907         	7.902
MS.281         	17.87          	7.904
MS.282         	17.835         	7.845
MS.283         	17.8           	7.865
MS.284         	17.765         	7.775
MS.285         	17.73          	7.841
MS.286         	17.692         	7.827
MS.287         	17.657         	7.871
MS.288         	17.622         	7.952
MS.289         	17.587         	7.775
MS.290         	17.552         	7.853
MS.291         	17.517         	7.791
MS.292         	17.483         	7.767
MS.293         	17.448         	7.861
MS.294         	17.413         	7.781
MS.295         	17.378         	7.765
MS.296         	17.342         	7.92
MS.297         	17.307         	7.873
MS.298         	17.275         	7.748
MS.299         	17.24          	7.835
MS.300         	17.205         	7.797
MS.301         	17.17          	7.869
MS.302         	17.135         	7.781
MS.303         	17.102         	7.771
MS.304         	17.067         	7.73
MS.305         	17.032         	7.787
MS.306         	17             	7.696
MS.307         	16.965         	7.692
MS.308         	16.932         	7.69
MS.309         	16.897         	7.684
MS.310         	16.865         	7.718
MS.311         	16.83          	7.666
MS.312         	16.797         	7.531
MS.313         	16.762         	7.658
MS.314         	16.73          	7.511
MS.315         	16.698         	7.599
MS.316         	16.663         	7.475
MS.317         	16.63          	7.569
MS.318         	16.597         	7.541
MS.319         	16.562         	7.628
MS.320         	16.53          	7.636
MS.321         	16.497         	7.581
MS.322         	16.465         	7.551
MS.323         	16.432         	7.547
MS.324         	16.397         	7.626
MS.325         	16.365         	7.432
MS.326         	16.333         	7.545
MS.327         	16.3           	7.511
MS.328         	16.267         	7.557
MS.329         	16.235         	7.511
MS.330         	16.202         	7.525
MS.331         	16.17          	7.553
MS.332         	16.137         	7.386
MS.333         	16.105         	7.63
MS.334         	16.075         	7.473
MS.335         	16.042         	7.436
MS.336         	16.01          	7.336
MS.337         	15.977         	7.309
MS.338         	15.945         	7.338
MS.339         	15.915         	7.384
MS.340         	15.882         	7.473
MS.341         	15.85          	7.362
MS.342         	15.818         	7.338
MS.343         	15.787         	7.378
MS.344         	15.755         	7.299
MS.345         	15.725         	7.098
MS.346         	15.693         	7.261
MS.347         	15.662         	7.124
MS.348         	15.63          	7.217
MS.349         	15.6           	7.134
MS.350         	15.568         	7.13
MS.351         	15.537         	7.144
MS.352         	15.505         	7.36
MS.353         	15.475         	7.048
MS.354         	15.443         	6.989
MS.355         	15.412         	7.158
MS.356         	15.382         	7.056
MS.357         	15.35          	7.14
MS.358         	15.32          	6.987
MS.359         	15.29          	7.197
MS.360         	15.26          	7.09
MS.361         	15.23          	7.102
MS.362         	15.197         	7.048
MS.363         	15.167         	7.078
MS.364         	15.137         	7.007
MS.365         	15.108         	6.973
MS.366         	15.077         	6.947
MS.367         	15.047         	6.866
MS.368         	15.017         	6.949
MS.369         	14.987         	6.989
MS.370         	14.957         	6.85
MS.371         	14.927         	6.925
MS.372         	14.898         	6.836
MS.373         	14.867         	6.772
MS.374         	14.837         	6.77
MS.375         	14.807         	6.808
MS.376         	14.78          	6.804
MS.377         	14.75          	6.762
MS.378         	14.72          	6.766
MS.379         	14.69          	6.721
MS.380         	14.66          	6.6
MS.381         	14.632         	6.705
MS.382         	14.602         	6.784
MS.383         	14.572         	6.526
MS.384         	14.545         	6.484
MS.385         	14.515         	6.536
MS.386         	14.485         	6.536
MS.387         	14.457         	6.598
MS.388         	14.427         	6.49
MS.389         	14.4           	6.419
MS.390         	14.37          	6.602
MS.391         	14.342         	6.474
MS.392         	14.312         	6.397
MS.393         	14.285         	6.562
MS.394         	14.255         	6.282
MS.395         	14.227         	6.248
MS.396         	14.2           	6.25
MS.397         	14.17          	6.061
MS.398         	14.142         	6.204
MS.399         	14.115         	6.115
MS.400         	14.085         	6.149
MS.401         	14.057         	6.002
MS.402         	14.03          	5.976
MS.403         	14.002         	6.212
MS.404         	13.975         	5.781
MS.405         	13.945         	5.956
MS.406         	13.917         	5.974
MS.407         	13.89          	5.916
MS.408         	13.862         	5.887
MS.409         	13.835         	5.72
MS.410         	13.807         	5.918
MS.411         	13.78          	5.918
MS.412         	13.752         	5.622
MS.413         	13.725         	5.859
MS.414         	13.697         	5.73
MS.415         	13.67          	5.491
MS.416         	13.642         	5.38
MS.417         	13.615         	5.267
MS.418         	13.587         	5.114
MS.419         	13.56          	5.205
MS.420         	13.535         	5.072
MS.421         	13.507         	5.164
MS.422         	13.48          	5.011
MS.423         	13.452         	5.092
MS.424         	13.425         	5.311
MS.425         	13.4           	4.838
MS.426         	13.372         	4.79
MS.427         	13.345         	4.695
MS.428         	13.32          	4.627
MS.429         	13.292         	4.717
MS.430         	13.265         	4.888
MS.431         	13.24          	4.451
MS.432         	13.212         	4.616
MS.433         	13.188         	4.423
MS.434         	13.16          	4.206
MS.435         	13.135         	4.244
MS.436         	13.108         	4.268
MS.437         	13.082         	3.811
MS.438         	13.055         	3.992
MS.439         	13.03          	4.328
MS.440         	13.002         	3.97
MS.441         	12.977         	3.621
MS.442         	12.952         	3.448
MS.443         	12.925         	3.327
MS.444         	12.9           	3.587
MS.445         	12.875         	3.529
MS.446         	12.847         	3.339
MS.447         	12.822         	3.45
MS.448         	12.797         	3.124
MS.449         	12.77          	3.394
MS.450         	12.745         	2.884
MS.451         	12.72          	3.035
MS.452         	12.695         	2.969
MS.453         	12.67          	2.737
MS.454         	12.645         	2.717
MS.455         	12.62          	2.429
MS.456         	12.592         	2.759
MS.457         	12.568         	2.473
MS.458         	12.542         	2.798
MS.459         	12.517         	2.558
MS.460         	12.492         	2.334
MS.461         	12.467         	2.296
MS.462         	12.443         	2.097
MS.463         	12.417         	2.371
MS.464         	12.395         	2.21
MS.465         	12.37          	1.992
MS.466         	12.345         	2.099
MS.467         	12.32          	1.907
MS.468         	12.295         	1.724
MS.469         	12.27          	1.77
MS.470         	12.245         	1.785
MS.471         	12.222         	1.615
MS.472         	12.197         	1.648
MS.473         	12.172         	1.593
MS.474         	12.148         	1.646
MS.475         	12.125         	1.505
MS.476         	12.1           	1.525
MS.477         	12.075         	1.547
MS.478         	12.052         	1.422
MS.479         	12.028         	1.468
MS.480         	12.002         	1.37
MS.481         	11.98          	1.221
MS.482         	11.955         	1.394
MS.483         	11.932         	1.202
MS.484         	11.907         	1.279
MS.485         	11.885         	1.339
MS.486         	11.86          	1.301
MS.487         	11.837         	1.245
MS.488         	11.812         	1.134
MS.489         	11.79          	1.094
MS.490         	11.765         	0.967
MS.491         	11.742         	1.068
MS.492         	11.72          	1.088
MS.493         	11.695         	0.888
MS.494         	11.672         	1.027
MS.495         	11.648         	0.864
MS.496         	11.625         	0.967
MS.497         	11.602         	0.902
MS.498         	11.58          	0.872
MS.499         	11.555         	0.701
MS.500         	11.532         	0.864
MS.501         	11.51          	0.894
MS.502         	11.488         	0.638
MS.503         	11.465         	0.759
MS.504         	11.44          	0.745
MS.505         	11.417         	0.679
MS.506         	11.395         	0.697
MS.507         	11.372         	0.703
MS.508         	11.35          	0.471
MS.509         	11.327         	0.532
MS.510         	11.305         	0.423
MS.511         	11.282         	0.504
MS.512         	11.26          	0.518
MS.513         	11.238         	0.477
MS.514         	11.215         	0.437
MS.515         	11.193         	0.415
MS.516         	11.17          	0.377
MS.517         	11.148         	0.479
MS.518         	11.125         	0.226
MS.519         	11.102         	0.252
MS.520         	11.08          	0.391
MS.521         	11.057         	0.477
MS.522         	11.037         	0.354
MS.523         	11.015         	0.262
MS.524         	10.992         	0.26
MS.525         	10.97          	0.147
MS.526         	10.948         	0.34
MS.527         	10.927         	0.242
MS.528         	10.905         	0.24
MS.529         	10.882         	0.282
MS.530         	10.86          	0.226
MS.531         	10.84          	0.173
MS.532         	10.818         	0.133
MS.533         	10.795         	0.199
MS.534         	10.775         	0.139
MS.535         	10.752         	0.143
MS.536         	10.733         	0.149
MS.537         	10.71          	0.121
MS.538         	10.69          	0.139
MS.539         	10.667         	0.127
MS.540         	10.645         	0.141
MS.541         	10.625         	0.058
MS.542         	10.602         	0.115
MS.543         	10.582         	0.115
MS.544         	10.562         	0.127
MS.545         	10.54          	0.05
MS.546         	10.52          	0.018
MS.547         	10.497         	0.109
MS.548         	10.477         	0.127
MS.549         	10.455         	0.103
MS.550         	10.435         	0.026
MS.551         	10.415         	0.042
MS.552         	10.392         	0.095
MS.553         	10.372         	0.022
MS.554         	10.352         	0.008
MS.555         	10.332         	0.006
MS.556         	10.31          	0.006
MS.557         	10.29          	-0.008
MS.558         	10.27          	0.018
MS.559         	10.25          	0.03
MS.560         	10.227         	-0.01
MS.561         	10.207         	0.016
MS.562         	10.188         	-0.006
MS.563         	10.167         	0.012
MS.564         	10.148         	0.006
MS.565         	10.127         	-0.008
MS.566         	10.108         	0.006
MS.567         	10.087         	-0.012
MS.568         	10.068         	-0.012
MS.569         	10.045         	-0.01
MS.570         	10.025         	-0.006
MS.571         	10.005         	-0.012
MS.572         	9.985          	0.004
MS.573         	9.965          	-0.042
MS.574         	9.945          	0.028
MS.575         	9.927          	-0.03
MS.576         	9.907          	-0.032
MS.577         	9.887          	-0.034
MS.578         	9.867          	-0.026
MS.579         	9.847          	-0.024
MS.580         	9.827          	-0.046
MS.581         	9.807          	-0.018
MS.582         	9.787          	-0.032
MS.583         	9.77           	-0.042
MS.584         	9.75           	-0.038
MS.585         	9.73           	-0.042
MS.586         	9.71           	-0.03
MS.587         	9.69           	-0.026
MS.588         	9.672          	-0.018
MS.589         	9.653          	-0.042
MS.590         	9.632          	-0.032
MS.591         	9.613          	-0.042
MS.592         	9.595          	-0.044
MS.593         	9.575          	-0.036
MS.594         	9.555          	-0.038
MS.595         	9.537          	-0.034
MS.596         	9.517          	-0.036
MS.597         	9.5            	-0.058
MS.598         	9.48           	-0.042
MS.599         	9.46           	-0.04
MS.600         	9.443          	-0.058
MS.601         	9.422          	-0.06
MS.602         	9.405          	-0.038
MS.603         	9.385          	-0.038
MS.604         	9.367          	-0.038
MS.605         	9.347          	-0.034
MS.606         	9.33           	-0.056
MS.607         	9.31           	-0.044
MS.608         	9.292          	-0.036
MS.609         	9.275          	-0.036
MS.610         	9.255          	-0.052
MS.611         	9.238          	-0.032
MS.612         	9.217          	-0.056
MS.613         	9.2            	-0.058
MS.614         	9.182          	-0.058
MS.615         	9.162          	-0.034
MS.616         	9.145          	-0.058
MS.617         	9.127          	-0.054
MS.618         	9.108          	-0.042
MS.619         	9.09           	-0.036
MS.620         	9.073          	-0.056
MS.621         	9.055          	-0.048
MS.622         	9.035          	-0.056
MS.623         	9.017          	-0.06
MS.624         	9              	-0.054
MS.625         	8.983          	-0.056
MS.626         	8.965          	-0.054
MS.627         	8.945          	-0.06
MS.628         	8.927          	-0.052
MS.629         	8.91           	-0.054
MS.630         	8.892          	-0.06
MS.631         	8.875          	-0.056
MS.632         	8.858          	-0.058
MS.633         	8.84           	-0.056
MS.634         	8.823          	-0.058
MS.635         	8.805          	-0.058
MS.636         	8.787          	-0.058
MS.637         	8.767          	-0.052
MS.638         	8.75           	-0.062
MS.639         	8.733          	-0.058
MS.640         	8.717          	-0.058
MS.641         	8.7            	-0.06
MS.642         	8.682          	-0.056
MS.643         	8.665          	-0.06
MS.644         	8.648          	-0.058
MS.645         	8.63           	-0.062
MS.646         	8.613          	-0.05
MS.647         	8.595          	-0.056
MS.648         	8.577          	-0.056
MS.649         	8.56           	-0.056
MS.650         	8.542          	-0.058
MS.651         	8.528          	-0.054
MS.652         	8.51           	-0.054
MS.653         	8.492          	-0.058
MS.654         	8.475          	-0.058
MS.655         	8.457          	-0.056
MS.656         	8.443          	-0.056
MS.657         	8.425          	-0.056
MS.658         	8.408          	-0.06
MS.659         	8.392          	-0.062
MS.660         	8.375          	-0.058
MS.661         	8.358          	-0.058
MS.662         	8.34           	-0.062
MS.663         	8.325          	-0.062
MS.664         	8.307          	-0.064
MS.665         	8.29           	-0.062
MS.666         	8.275          	-0.073
MS.667         	8.257          	-0.064
MS.668         	8.242          	-0.062
MS.669         	8.225          	-0.068
MS.670         	8.207          	-0.062
MS.671         	8.193          	-0.068
MS.672         	8.175          	-0.062
MS.673         	8.16           	-0.066
MS.674         	8.142          	-0.064
MS.675         	8.127          	-0.064
MS.676         	8.11           	-0.066
MS.677         	8.095          	-0.07
MS.678         	8.077          	-0.062
MS.679         	8.062          	-0.062
MS.680         	8.045          	-0.064
MS.681         	8.03           	-0.062
MS.682         	8.015          	-0.064
MS.683         	7.997          	-0.056
MS.684         	7.982          	-0.066
MS.685         	7.965          	-0.068
MS.686         	7.95           	-0.068
MS.687         	7.935          	-0.068
MS.688         	7.918          	-0.07
MS.689         	7.902          	-0.068
MS.690         	7.887          	-0.068
DERIVED EXCITABILITY VARIABLES
Program = QTracP 3/4/2020
Threshold method = 6 (optimised for CAP, using data for present condition only)
SR method = 1 (using actual data values)
6.                 	0.000               	Peak response\(mV)
9.                 	36.8                	Temperature ( C)
17.                	28                  	Age (years)
18.                	1                   	Sex (M=1, F=2)

EXTRA VARIABLES

MScPeak(mV) = 8.11
MScS5(mA) = 11.12
MScS50(mA) = 13.05
MScS95(mA) = 16.91
MScNSteps = 2
MScSteps(%) = 4.5
MScStepMax(%) = 2.5
MScD50 = 43
MScSlope = 7.55
MSFPeakAmp(mV) = 8.18
MSFNUnits = 135
MSFMeanUnitAmp(uV) = 60.6
MSFHuntTime(m) = 2.72
MSFError(%) = 2.33
MSFNLarge = 48.19
MSFMedianAmp(%) = 0.695
MSFMedianAmp(mV) = 0.0569
MSFHalfAmpAmp(%) = 0.846
MSFHalfAmpAmp(mV) = 0.0692
MSFLargestAmp(%) = 1.91
MSFLargestAmp(mV) = 0.156
MSFMeanRS(%) = 2
MSFOpts = 10106121
MScDuration(min) = 6.5
MSFTraces = 496
MSFSizeLimit(uV) = 20.5
MSFLimitType = 1
MSFSmallestAmp(uV) = 27.3

EXTRA WAVEFORMS


!MScan Model
!135
	1	9.2	0.61	2
	2	10.27	0.48	2
	3	10.41	0.35	2
	4	10.52	0.37	2
	5	10.62	0.46	2
	6	10.73	0.51	2
	7	10.85	0.64	2
	8	10.94	0.58	2
	9	11.03	0.69	2
	10	11.11	0.7	2
	11	11.17	0.63	2
	12	11.23	0.69	2
	13	11.27	0.56	2
	14	11.32	0.55	2
	15	11.35	0.4	2
	16	11.39	0.42	2
	17	11.42	0.46	2
	18	11.46	0.47	2
	19	11.49	0.44	2
	20	11.52	0.45	2
	21	11.55	0.51	2
	22	11.59	0.56	2
	23	11.63	0.55	2
	24	11.66	0.54	2
	25	11.69	0.45	2
	26	11.72	0.43	2
	27	11.75	0.44	2
	28	11.78	0.45	2
	29	11.81	0.45	2
	30	11.84	0.44	2
	31	11.87	0.44	2
	32	11.89	0.45	2
	33	11.93	0.48	2
	34	11.96	0.52	2
	35	11.99	0.56	2
	36	12.02	0.52	2
	37	12.04	0.49	2
	38	12.07	0.53	2
	39	12.09	0.57	2
	40	12.12	0.6	2
	41	12.15	0.55	2
	42	12.17	0.41	2
	43	12.19	0.5	2
	44	12.21	0.45	2
	45	12.23	0.55	2
	46	12.25	0.58	2
	47	12.27	0.55	2
	48	12.29	0.47	2
	49	12.31	0.51	2
	50	12.33	0.53	2
	51	12.35	0.54	2
	52	12.38	0.56	2
	53	12.4	0.59	2
	54	12.42	0.56	2
	55	12.44	0.61	2
	56	12.46	0.63	2
	57	12.48	0.66	2
	58	12.5	0.73	2
	59	12.53	0.8	2
	60	12.55	0.79	2
	61	12.58	0.78	2
	62	12.6	0.78	2
	63	12.63	0.78	2
	64	12.65	0.84	2
	65	12.68	0.99	2
	66	12.71	1.03	2
	67	12.74	1.06	2
	68	12.76	0.95	2
	69	12.79	0.86	2
	70	12.81	0.86	2
	71	12.84	0.88	2
	72	12.86	0.9	2
	73	12.89	0.91	2
	74	12.91	0.88	2
	75	12.94	0.85	2
	76	12.96	0.85	2
	77	12.98	0.85	2
	78	13.01	0.87	2
	79	13.04	0.94	2
	80	13.06	0.93	2
	81	13.09	0.92	2
	82	13.11	0.91	2
	83	13.14	0.9	2
	84	13.17	0.96	2
	85	13.2	1.06	2
	86	13.24	0.99	2
	87	13.27	0.91	2
	88	13.3	0.98	2
	89	13.33	1.04	2
	90	13.36	1.02	2
	91	13.39	1	2
	92	13.43	0.96	2
	93	13.46	1.18	2
	94	13.5	1.1	2
	95	13.54	1.03	2
	96	13.58	0.98	2
	97	13.62	0.89	2
	98	13.66	0.82	2
	99	13.7	1.09	2
	100	13.75	0.8	2
	101	13.79	1.07	2
	102	13.85	0.92	2.4
	103	13.91	1.91	2
	104	13.98	1.21	2
	105	14.06	1.56	2
	106	14.13	0.91	2
	107	14.18	0.69	2
	108	14.24	0.69	2
	109	14.3	0.77	2
	110	14.35	0.71	2
	111	14.41	0.71	2
	112	14.47	0.7	2
	113	14.54	0.63	2
	114	14.62	0.98	2
	115	14.68	0.57	2
	116	14.73	0.33	2
	117	14.77	0.35	2
	118	14.81	0.37	2
	119	14.87	0.47	2
	120	14.93	0.53	2
	121	15.02	0.71	2
	122	15.14	0.77	2
	123	15.33	1.08	2
	124	15.57	1.41	2
	125	15.72	0.78	2
	126	15.86	0.96	2
	127	16.02	0.88	2
	128	16.37	1.4	2
	129	16.68	1.18	2
	130	16.86	0.73	2
	131	17.06	0.62	2
	132	17.71	1.54	2
	133	18.36	0.77	2
	134	20.19	1.16	2
	135	20.65	0.62	2

