File:              	C:\Qtrac\Data\Daniel M Sørensen\MScan multicentre study\Data from centres\Odense\Processed data\TKC00909A.QZD
Name:              	DK.ODE.NC.4.1
Protocol:          	MSCAN-R2
Date:              	9/9/20
Start time:        	10:25:41
Age:               	51
Sex:               	F
Temperature:       	32.0
S/R sites:         	ADM
NC/disease:        	NC
Operator:          	TK
Comments:
M-SCAN DATA (8.1-2m)
Scanpts: 17, 22, 599, 605
Stim. (mA)     	Amp. (mV)
MS.1           	24             	8.03
MS.2           	24             	8.02
MS.3           	24             	8.089
MS.4           	24             	8.028
MS.5           	24             	8.071
MS.6           	24             	8.079
MS.7           	24             	8.057
MS.8           	24             	7.982
MS.9           	24             	8.19
MS.10          	24             	8.073
MS.11          	24             	8.268
MS.12          	24             	8.155
MS.13          	24             	8.141
MS.14          	24             	8.036
MS.15          	24             	8.135
MS.16          	24             	8.105
MS.17          	24             	8.163
MS.18          	24             	8.202
MS.19          	24             	8.049
MS.20          	24             	8.222
MS.21          	24             	8.123
MS.22          	24             	8.151
MS.23          	24             	8.125
MS.24          	23.905         	8.069
MS.25          	23.858         	8.119
MS.26          	23.807         	7.95
MS.27          	23.76          	8.184
MS.28          	23.712         	8.208
MS.29          	23.665         	8.216
MS.30          	23.62          	8.107
MS.31          	23.573         	8.218
MS.32          	23.525         	8.121
MS.33          	23.477         	8.175
MS.34          	23.43          	8.115
MS.35          	23.385         	8.143
MS.36          	23.337         	8.039
MS.37          	23.29          	8.061
MS.38          	23.245         	8.125
MS.39          	23.198         	7.974
MS.40          	23.153         	8.101
MS.41          	23.105         	8.087
MS.42          	23.06          	8.071
MS.43          	23.012         	7.97
MS.44          	22.967         	8.032
MS.45          	22.92          	8.083
MS.46          	22.875         	8.069
MS.47          	22.83          	7.9
MS.48          	22.785         	7.916
MS.49          	22.737         	8.03
MS.50          	22.692         	8.012
MS.51          	22.647         	7.932
MS.52          	22.602         	7.954
MS.53          	22.557         	7.867
MS.54          	22.512         	7.873
MS.55          	22.467         	7.942
MS.56          	22.422         	7.841
MS.57          	22.377         	7.865
MS.58          	22.332         	7.883
MS.59          	22.288         	7.914
MS.60          	22.243         	7.896
MS.61          	22.2           	7.779
MS.62          	22.155         	7.887
MS.63          	22.11          	7.998
MS.64          	22.067         	7.861
MS.65          	22.022         	8.135
MS.66          	21.977         	8.028
MS.67          	21.935         	7.805
MS.68          	21.89          	7.998
MS.69          	21.847         	8.006
MS.70          	21.802         	8.03
MS.71          	21.76          	7.885
MS.72          	21.715         	8.034
MS.73          	21.672         	8.089
MS.74          	21.63          	7.924
MS.75          	21.585         	7.926
MS.76          	21.542         	8.032
MS.77          	21.5           	8.02
MS.78          	21.458         	7.998
MS.79          	21.415         	8.016
MS.80          	21.372         	7.94
MS.81          	21.327         	8.032
MS.82          	21.285         	7.902
MS.83          	21.243         	8.063
MS.84          	21.2           	7.962
MS.85          	21.157         	7.938
MS.86          	21.118         	7.97
MS.87          	21.075         	7.98
MS.88          	21.032         	8.083
MS.89          	20.99          	8.02
MS.90          	20.948         	7.972
MS.91          	20.907         	7.95
MS.92          	20.865         	7.918
MS.93          	20.823         	7.801
MS.94          	20.78          	8.014
MS.95          	20.74          	7.819
MS.96          	20.698         	7.833
MS.97          	20.657         	7.787
MS.98          	20.615         	7.821
MS.99          	20.575         	7.906
MS.100         	20.532         	7.883
MS.101         	20.493         	7.821
MS.102         	20.452         	7.93
MS.103         	20.41          	7.676
MS.104         	20.37          	7.769
MS.105         	20.33          	7.753
MS.106         	20.288         	7.69
MS.107         	20.247         	7.748
MS.108         	20.208         	7.581
MS.109         	20.167         	7.686
MS.110         	20.127         	7.607
MS.111         	20.087         	7.509
MS.112         	20.047         	7.787
MS.113         	20.007         	7.746
MS.114         	19.967         	7.68
MS.115         	19.927         	7.753
MS.116         	19.887         	7.716
MS.117         	19.847         	7.801
MS.118         	19.807         	7.726
MS.119         	19.767         	7.74
MS.120         	19.727         	7.716
MS.121         	19.69          	7.628
MS.122         	19.65          	7.485
MS.123         	19.61          	7.66
MS.124         	19.57          	7.708
MS.125         	19.532         	7.744
MS.126         	19.493         	7.644
MS.127         	19.455         	7.714
MS.128         	19.415         	7.62
MS.129         	19.377         	7.607
MS.130         	19.337         	7.658
MS.131         	19.3           	7.607
MS.132         	19.26          	7.642
MS.133         	19.222         	7.748
MS.134         	19.182         	7.603
MS.135         	19.145         	7.662
MS.136         	19.108         	7.614
MS.137         	19.067         	7.34
MS.138         	19.03          	7.34
MS.139         	18.993         	7.469
MS.140         	18.955         	7.37
MS.141         	18.917         	7.247
MS.142         	18.88          	7.456
MS.143         	18.842         	7.499
MS.144         	18.802         	7.352
MS.145         	18.765         	7.372
MS.146         	18.727         	7.332
MS.147         	18.69          	7.303
MS.148         	18.655         	7.368
MS.149         	18.618         	7.37
MS.150         	18.58          	7.283
MS.151         	18.542         	7.46
MS.152         	18.505         	7.269
MS.153         	18.467         	7.551
MS.154         	18.432         	7.191
MS.155         	18.395         	7.12
MS.156         	18.358         	7.334
MS.157         	18.32          	7.088
MS.158         	18.285         	7.269
MS.159         	18.247         	7.315
MS.160         	18.212         	7.142
MS.161         	18.175         	7.126
MS.162         	18.137         	7.152
MS.163         	18.102         	7.122
MS.164         	18.067         	6.88
MS.165         	18.03          	7.005
MS.166         	17.995         	6.905
MS.167         	17.958         	6.991
MS.168         	17.922         	7.291
MS.169         	17.887         	6.971
MS.170         	17.85          	7.323
MS.171         	17.815         	7.162
MS.172         	17.78          	7.029
MS.173         	17.745         	7.064
MS.174         	17.708         	7.164
MS.175         	17.672         	6.993
MS.176         	17.637         	7.011
MS.177         	17.602         	6.991
MS.178         	17.567         	6.53
MS.179         	17.532         	6.955
MS.180         	17.497         	6.983
MS.181         	17.462         	6.743
MS.182         	17.427         	6.844
MS.183         	17.392         	6.621
MS.184         	17.358         	6.228
MS.185         	17.323         	6.774
MS.186         	17.288         	6.461
MS.187         	17.255         	6.333
MS.188         	17.22          	6.333
MS.189         	17.185         	6.274
MS.190         	17.15          	6.637
MS.191         	17.118         	6.369
MS.192         	17.083         	6.036
MS.193         	17.047         	6.077
MS.194         	17.015         	6.057
MS.195         	16.98          	6
MS.196         	16.948         	6
MS.197         	16.913         	6.131
MS.198         	16.878         	6.324
MS.199         	16.845         	6.173
MS.200         	16.812         	6.131
MS.201         	16.778         	6.014
MS.202         	16.745         	5.93
MS.203         	16.71          	6.155
MS.204         	16.677         	5.831
MS.205         	16.645         	6.075
MS.206         	16.61          	6.069
MS.207         	16.577         	5.885
MS.208         	16.545         	6.075
MS.209         	16.512         	5.775
MS.210         	16.477         	5.758
MS.211         	16.445         	5.499
MS.212         	16.413         	5.472
MS.213         	16.38          	5.491
MS.214         	16.347         	5.899
MS.215         	16.315         	5.589
MS.216         	16.282         	5.402
MS.217         	16.25          	5.712
MS.218         	16.217         	5.06
MS.219         	16.185         	5.18
MS.220         	16.153         	5.231
MS.221         	16.12          	5.178
MS.222         	16.087         	5.126
MS.223         	16.055         	5.354
MS.224         	16.022         	5.243
MS.225         	15.992         	5.152
MS.226         	15.96          	5.029
MS.227         	15.927         	5.144
MS.228         	15.895         	4.766
MS.229         	15.865         	5.215
MS.230         	15.832         	4.556
MS.231         	15.8           	4.741
MS.232         	15.77          	5.164
MS.233         	15.737         	4.661
MS.234         	15.705         	4.544
MS.235         	15.675         	4.87
MS.236         	15.642         	4.645
MS.237         	15.612         	4.657
MS.238         	15.58          	4.522
MS.239         	15.55          	4.902
MS.240         	15.52          	4.832
MS.241         	15.487         	4.339
MS.242         	15.457         	4.711
MS.243         	15.425         	4.818
MS.244         	15.395         	4.479
MS.245         	15.365         	4.349
MS.246         	15.332         	4.516
MS.247         	15.302         	4.596
MS.248         	15.273         	4.788
MS.249         	15.242         	4.486
MS.250         	15.212         	4.469
MS.251         	15.18          	4.441
MS.252         	15.15          	4.457
MS.253         	15.12          	4.292
MS.254         	15.09          	4.115
MS.255         	15.06          	4.125
MS.256         	15.03          	4.341
MS.257         	15             	4.135
MS.258         	14.97          	4.131
MS.259         	14.94          	4.137
MS.260         	14.91          	3.833
MS.261         	14.88          	4.28
MS.262         	14.85          	4.153
MS.263         	14.82          	4.02
MS.264         	14.792         	4.163
MS.265         	14.762         	4.171
MS.266         	14.733         	3.899
MS.267         	14.702         	3.972
MS.268         	14.672         	4.266
MS.269         	14.645         	3.664
MS.270         	14.615         	3.934
MS.271         	14.585         	3.724
MS.272         	14.557         	3.19
MS.273         	14.527         	3.843
MS.274         	14.497         	3.841
MS.275         	14.47          	3.799
MS.276         	14.44          	3.909
MS.277         	14.412         	3.515
MS.278         	14.382         	3.807
MS.279         	14.355         	4.161
MS.280         	14.325         	3.575
MS.281         	14.297         	3.523
MS.282         	14.267         	3.875
MS.283         	14.24          	3.768
MS.284         	14.212         	3.841
MS.285         	14.182         	3.599
MS.286         	14.155         	3.666
MS.287         	14.127         	3.924
MS.288         	14.097         	3.686
MS.289         	14.07          	3.297
MS.290         	14.042         	3.63
MS.291         	14.015         	3.406
MS.292         	13.985         	3.589
MS.293         	13.957         	3.613
MS.294         	13.93          	3.313
MS.295         	13.903         	3.356
MS.296         	13.875         	3.926
MS.297         	13.847         	3.162
MS.298         	13.82          	3.356
MS.299         	13.792         	3.082
MS.300         	13.765         	3.001
MS.301         	13.737         	2.951
MS.302         	13.71          	2.473
MS.303         	13.682         	3.051
MS.304         	13.655         	3.213
MS.305         	13.627         	2.786
MS.306         	13.6           	2.717
MS.307         	13.572         	2.959
MS.308         	13.545         	2.602
MS.309         	13.517         	2.701
MS.310         	13.492         	2.659
MS.311         	13.465         	2.481
MS.312         	13.438         	2.292
MS.313         	13.41          	2.389
MS.314         	13.385         	2.409
MS.315         	13.358         	2.723
MS.316         	13.33          	3.162
MS.317         	13.305         	2.419
MS.318         	13.278         	2.594
MS.319         	13.25          	2.663
MS.320         	13.225         	2.375
MS.321         	13.197         	2.453
MS.322         	13.172         	2.645
MS.323         	13.145         	1.903
MS.324         	13.12          	2.226
MS.325         	13.092         	2.171
MS.326         	13.068         	2.393
MS.327         	13.04          	2.463
MS.328         	13.015         	2.091
MS.329         	12.987         	2.034
MS.330         	12.962         	2.266
MS.331         	12.938         	2.369
MS.332         	12.91          	2.232
MS.333         	12.885         	2.093
MS.334         	12.86          	2.133
MS.335         	12.832         	2.21
MS.336         	12.807         	2.02
MS.337         	12.782         	1.837
MS.338         	12.757         	1.746
MS.339         	12.73          	1.815
MS.340         	12.705         	2.175
MS.341         	12.68          	1.837
MS.342         	12.655         	2.038
MS.343         	12.63          	1.928
MS.344         	12.605         	2.099
MS.345         	12.58          	1.911
MS.346         	12.555         	1.98
MS.347         	12.53          	1.809
MS.348         	12.505         	1.768
MS.349         	12.48          	1.67
MS.350         	12.455         	1.913
MS.351         	12.43          	2.081
MS.352         	12.405         	1.871
MS.353         	12.38          	1.881
MS.354         	12.355         	1.684
MS.355         	12.33          	1.595
MS.356         	12.305         	1.621
MS.357         	12.28          	1.583
MS.358         	12.257         	1.692
MS.359         	12.233         	1.807
MS.360         	12.207         	1.549
MS.361         	12.182         	1.764
MS.362         	12.16          	1.69
MS.363         	12.135         	1.265
MS.364         	12.11          	1.621
MS.365         	12.085         	1.609
MS.366         	12.062         	1.501
MS.367         	12.037         	1.575
MS.368         	12.012         	1.37
MS.369         	11.99          	1.46
MS.370         	11.965         	1.607
MS.371         	11.943         	1.43
MS.372         	11.917         	1.416
MS.373         	11.895         	1.587
MS.374         	11.87          	1.386
MS.375         	11.847         	1.295
MS.376         	11.822         	1.279
MS.377         	11.8           	1.253
MS.378         	11.775         	1.321
MS.379         	11.752         	1.261
MS.380         	11.73          	1.333
MS.381         	11.705         	1.204
MS.382         	11.682         	1.388
MS.383         	11.657         	1.311
MS.384         	11.635         	1.275
MS.385         	11.613         	1.245
MS.386         	11.59          	1.076
MS.387         	11.565         	1.142
MS.388         	11.542         	1.311
MS.389         	11.52          	1.241
MS.390         	11.497         	1.172
MS.391         	11.472         	1.295
MS.392         	11.45          	1.255
MS.393         	11.427         	1.269
MS.394         	11.405         	1.285
MS.395         	11.382         	1.289
MS.396         	11.36          	1.178
MS.397         	11.337         	1.029
MS.398         	11.315         	1.078
MS.399         	11.292         	1.102
MS.400         	11.27          	1.333
MS.401         	11.247         	1.265
MS.402         	11.225         	1.051
MS.403         	11.202         	1.12
MS.404         	11.18          	1.374
MS.405         	11.157         	1.154
MS.406         	11.135         	1.313
MS.407         	11.113         	1.221
MS.408         	11.09          	1.156
MS.409         	11.068         	1.166
MS.410         	11.045         	1.329
MS.411         	11.023         	1.114
MS.412         	11.002         	1.176
MS.413         	10.98          	1.14
MS.414         	10.957         	1.194
MS.415         	10.935         	1.233
MS.416         	10.915         	1.172
MS.417         	10.892         	1.221
MS.418         	10.87          	1.114
MS.419         	10.85          	1.168
MS.420         	10.827         	1.061
MS.421         	10.805         	1.084
MS.422         	10.785         	1.198
MS.423         	10.762         	1.122
MS.424         	10.74          	1.243
MS.425         	10.72          	1.166
MS.426         	10.698         	1.112
MS.427         	10.677         	1.094
MS.428         	10.655         	1.088
MS.429         	10.635         	1.247
MS.430         	10.613         	1.202
MS.431         	10.592         	1.204
MS.432         	10.57          	1.217
MS.433         	10.55          	1.12
MS.434         	10.528         	1.229
MS.435         	10.507         	1.17
MS.436         	10.485         	0.989
MS.437         	10.465         	1.088
MS.438         	10.445         	1.104
MS.439         	10.422         	1.188
MS.440         	10.403         	1.144
MS.441         	10.382         	1.164
MS.442         	10.36          	1.229
MS.443         	10.34          	1.1
MS.444         	10.32          	1.094
MS.445         	10.3           	1.09
MS.446         	10.278         	1.065
MS.447         	10.257         	0.884
MS.448         	10.238         	1.09
MS.449         	10.217         	1.051
MS.450         	10.198         	1.017
MS.451         	10.175         	1.082
MS.452         	10.155         	0.993
MS.453         	10.135         	1.098
MS.454         	10.115         	1.146
MS.455         	10.095         	1.023
MS.456         	10.075         	0.939
MS.457         	10.055         	1.116
MS.458         	10.035         	0.836
MS.459         	10.015         	1.065
MS.460         	9.995          	0.784
MS.461         	9.975          	1.023
MS.462         	9.955          	1.011
MS.463         	9.935          	0.882
MS.464         	9.915          	1.029
MS.465         	9.895          	0.965
MS.466         	9.875          	0.888
MS.467         	9.855          	0.818
MS.468         	9.835          	0.912
MS.469         	9.818          	0.876
MS.470         	9.797          	0.777
MS.471         	9.778          	0.751
MS.472         	9.757          	0.632
MS.473         	9.738          	0.854
MS.474         	9.717          	0.864
MS.475         	9.7            	0.643
MS.476         	9.68           	0.731
MS.477         	9.66           	0.62
MS.478         	9.64           	0.824
MS.479         	9.622          	0.667
MS.480         	9.602          	0.467
MS.481         	9.582          	0.628
MS.482         	9.565          	0.649
MS.483         	9.545          	0.743
MS.484         	9.525          	0.57
MS.485         	9.507          	0.701
MS.486         	9.488          	0.769
MS.487         	9.47           	0.667
MS.488         	9.45           	0.667
MS.489         	9.432          	0.526
MS.490         	9.412          	0.278
MS.491         	9.395          	0.769
MS.492         	9.375          	0.558
MS.493         	9.358          	0.304
MS.494         	9.337          	0.572
MS.495         	9.32           	0.562
MS.496         	9.3            	0.348
MS.497         	9.283          	0.395
MS.498         	9.262          	0.514
MS.499         	9.245          	0.471
MS.500         	9.225          	0.27
MS.501         	9.207          	0.62
MS.502         	9.19           	0.177
MS.503         	9.17           	0.363
MS.504         	9.153          	0.179
MS.505         	9.135          	0.238
MS.506         	9.115          	0.22
MS.507         	9.097          	0.262
MS.508         	9.08           	0.28
MS.509         	9.062          	-0.064
MS.510         	9.042          	0.252
MS.511         	9.025          	0.173
MS.512         	9.007          	0.207
MS.513         	8.99           	0.306
MS.514         	8.972          	0.068
MS.515         	8.952          	0.197
MS.516         	8.935          	0.03
MS.517         	8.917          	0.032
MS.518         	8.9            	-0.137
MS.519         	8.882          	0.125
MS.520         	8.865          	-0.115
MS.521         	8.847          	-0.091
MS.522         	8.83           	0.137
MS.523         	8.812          	-0.151
MS.524         	8.795          	-0.141
MS.525         	8.778          	-0.054
MS.526         	8.757          	-0.244
MS.527         	8.74           	-0.054
MS.528         	8.725          	-0.058
MS.529         	8.707          	-0.089
MS.530         	8.69           	-0.161
MS.531         	8.672          	-0.099
MS.532         	8.655          	-0.24
MS.533         	8.637          	-0.266
MS.534         	8.62           	-0.181
MS.535         	8.602          	-0.252
MS.536         	8.585          	-0.137
MS.537         	8.568          	-0.183
MS.538         	8.55           	-0.173
MS.539         	8.535          	-0.216
MS.540         	8.517          	-0.22
MS.541         	8.5            	-0.274
MS.542         	8.483          	-0.173
MS.543         	8.465          	-0.083
MS.544         	8.45           	-0.197
MS.545         	8.432          	-0.115
MS.546         	8.415          	-0.228
MS.547         	8.398          	-0.24
MS.548         	8.382          	-0.232
MS.549         	8.365          	-0.262
MS.550         	8.347          	-0.139
MS.551         	8.332          	-0.224
MS.552         	8.315          	-0.294
MS.553         	8.297          	-0.207
MS.554         	8.283          	-0.169
MS.555         	8.265          	-0.187
MS.556         	8.247          	-0.28
MS.557         	8.233          	-0.131
MS.558         	8.215          	-0.232
MS.559         	8.2            	-0.24
MS.560         	8.182          	-0.189
MS.561         	8.167          	-0.207
MS.562         	8.15           	-0.149
MS.563         	8.135          	-0.236
MS.564         	8.117          	-0.191
MS.565         	8.102          	-0.3
MS.566         	8.085          	-0.195
MS.567         	8.07           	-0.338
MS.568         	8.052          	-0.276
MS.569         	8.037          	-0.22
MS.570         	8.02           	-0.195
MS.571         	8.005          	-0.222
MS.572         	7.99           	-0.282
MS.573         	7.972          	-0.201
MS.574         	7.957          	-0.3
MS.575         	7.94           	-0.197
MS.576         	7.925          	-0.266
MS.577         	7.91           	-0.119
MS.578         	7.892          	-0.216
MS.579         	7.878          	-0.334
MS.580         	7.862          	-0.201
MS.581         	7.847          	-0.312
MS.582         	7.83           	-0.173
MS.583         	7.815          	-0.175
MS.584         	7.8            	-0.264
MS.585         	7.785          	-0.27
MS.586         	7.767          	-0.141
MS.587         	7.753          	-0.22
MS.588         	7.737          	-0.284
MS.589         	7.722          	-0.218
MS.590         	7.707          	-0.23
MS.591         	7.69           	-0.308
MS.592         	7.675          	-0.216
MS.593         	7.66           	-0.195
MS.594         	7.645          	-0.268
MS.595         	7.63           	-0.24
MS.596         	7.615          	-0.256
MS.597         	7.6            	-0.173
MS.598         	7.585          	-0.266
MS.599         	7.57           	-0.214
MS.600         	7.555          	-0.171
MS.601         	7.537          	-0.252
MS.602         	7.523          	-0.222
MS.603         	7.507          	-0.197
MS.604         	7.492          	-0.183
MS.605         	7.477          	-0.189
MS.606         	7.462          	-0.197
MS.607         	7.45           	-0.26
MS.608         	7.435          	-0.216
MS.609         	7.42           	-0.167
MS.610         	7.405          	-0.272
MS.611         	7.39           	-0.246
MS.612         	7.375          	-0.234
MS.613         	7.36           	-0.205
MS.614         	7.345          	-0.278
MS.615         	7.33           	-0.276
MS.616         	7.315          	-0.189
MS.617         	7.302          	-0.354
MS.618         	7.287          	-0.163
MS.619         	7.273          	-0.256
MS.620         	7.257          	-0.282
MS.621         	7.242          	-0.214
MS.622         	7.227          	-0.205
MS.623         	7.215          	-0.163
MS.624         	7.2            	-0.187
MS.625         	7.185          	-0.34
MS.626         	7.17           	-0.222
MS.627         	7.157          	-0.274
MS.628         	7.142          	-0.224
MS.629         	7.128          	-0.262
MS.630         	7.115          	-0.312
MS.631         	7.1            	-0.25
MS.632         	7.085          	-0.258
MS.633         	7.072          	-0.165
MS.634         	7.057          	-0.276
MS.635         	7.043          	-0.224
MS.636         	7.03           	-0.278
MS.637         	7.015          	-0.278
MS.638         	7              	-0.193
MS.639         	6.987          	-0.211
MS.640         	6.972          	-0.258
MS.641         	6.96           	-0.23
MS.642         	6.945          	-0.137
MS.643         	6.932          	-0.248
MS.644         	6.918          	-0.254
MS.645         	6.902          	-0.209
MS.646         	6.89           	-0.191
DERIVED EXCITABILITY VARIABLES
Program = QTracP 9/10/2021
Threshold method = 6 (optimised for CAP, using data for present condition only)
SR method = 1 (using actual data values)
6.                 	0.000               	Peak response\(mV)
9.                 	32                  	Temperature ( C)
17.                	51                  	Age (years)
18.                	2                   	Sex (M=1, F=2)

EXTRA VARIABLES

MScPeak(mV) = 8.35
MScS5(mA) = 9.31
MScS50(mA) = 14.89
MScS95(mA) = 21.84
MScNSteps = 0
MScSteps(%) = 0.0
MScStepMax(%) = 0.0
MScD50 = 69
MScSlope = 3.5
MScDuration(min) = 6.1
MSFTraces = 589
MSFPeakAmp(mV) = 8.36
MSFNUnits = 61
MSFMeanUnitAmp(uV) = 137
MSFHuntTime(m) = 2.75
MSFError(%) = 4.74
MSFNLarge = 17.31
MSFMedianAmp(%) = 1.46
MSFMedianAmp(mV) = 0.122
MSFHalfAmpAmp(%) = 2.09
MSFHalfAmpAmp(mV) = 0.174
MSFLargestAmp(%) = 4.11
MSFLargestAmp(mV) = 0.343
MSFMeanRS(%) = 2
MSFSizeLimit(uV) = 27.4
MSFLimitType = 3
MSFSmallestAmp(uV) = 35.5
MSFOpts = 10106121

EXTRA WAVEFORMS


!MScan Model
!61
	1	8.71	0.63	2
	2	8.85	1.4	2
	3	9.06	2.69	2
	4	9.15	1.11	2
	5	9.22	3.6	2
	6	9.22	0.85	2
	7	9.72	1.71	2
	8	9.76	0.61	2
	9	9.83	1.02	2
	10	10.11	1.96	2
	11	10.32	0.73	2
	12	11.37	1.14	2
	13	11.7	1.24	2
	14	11.82	0.74	2
	15	12.06	1.9	2
	16	12.28	2.78	2
	17	12.77	3.22	2
	18	13.02	2.29	2
	19	13.17	2.44	2
	20	13.51	2.8	2
	21	13.54	1.07	2
	22	13.67	2.29	2
	23	13.76	2.31	2
	24	13.93	4.11	2
	25	14.04	1.46	2
	26	14.52	2.92	2
	27	14.67	1.17	2
	28	15.02	3.55	2
	29	15.06	0.61	2
	30	15.09	0.74	2
	31	15.21	1.51	2
	32	15.72	4.06	2
	33	15.8	0.84	2
	34	15.88	1.55	2
	35	16.11	2.83	2
	36	16.22	2.38	2
	37	16.31	1.03	2
	38	16.4	1.75	2
	39	16.48	1.62	2
	40	16.59	1.82	2
	41	17	2.52	2
	42	17.14	1.22	2
	43	17.26	1.71	2
	44	17.35	1.6	2
	45	17.42	1.32	2
	46	17.49	0.72	2
	47	17.56	1.76	2
	48	17.69	1.64	2
	49	18.23	2.09	2
	50	18.9	2.59	2
	51	19.01	0.88	2
	52	19.14	1.05	2
	53	19.53	1.29	2
	54	20.29	0.84	2
	55	20.41	0.51	2
	56	20.65	1	2
	57	20.82	0.63	2
	58	22.67	0.42	2
	59	22.9	0.79	2
	60	23.12	0.54	2
	61	23.3	0.43	2

