File:              	C:\Qtrac\Data\Daniel M Sørensen\MScan multicentre study\Data from centres\Odense\Processed data\TKC01014B.QZD
Name:              	DK.ODE.NC.5.2
Protocol:          	MSCAN-R2
Date:              	14/10/20
Start time:        	12:20:01
Age:               	62
Sex:               	F
Temperature:       	31.5
S/R sites:         	ADM
NC/disease:        	NC
Operator:          	TK
Comments:
M-SCAN DATA (8.8-0.9m)
Scanpts: 20, 29, 812, 833
Stim. (mA)     	Amp. (mV)
MS.1           	24             	7.531
MS.2           	24             	7.473
MS.3           	24             	7.501
MS.4           	24             	7.523
MS.5           	24             	7.511
MS.6           	24             	7.505
MS.7           	24             	7.525
MS.8           	24             	7.473
MS.9           	24             	7.462
MS.10          	24             	7.509
MS.11          	24             	7.571
MS.12          	24             	7.515
MS.13          	24             	7.505
MS.14          	24             	7.493
MS.15          	24             	7.511
MS.16          	24             	7.499
MS.17          	24             	7.513
MS.18          	24             	7.491
MS.19          	24             	7.501
MS.20          	24             	7.517
MS.21          	24             	7.444
MS.22          	24             	7.477
MS.23          	23.905         	7.458
MS.24          	23.858         	7.448
MS.25          	23.807         	7.473
MS.26          	23.76          	7.416
MS.27          	23.712         	7.438
MS.28          	23.665         	7.497
MS.29          	23.62          	7.452
MS.30          	23.573         	7.444
MS.31          	23.525         	7.485
MS.32          	23.477         	7.497
MS.33          	23.43          	7.456
MS.34          	23.385         	7.497
MS.35          	23.337         	7.505
MS.36          	23.29          	7.499
MS.37          	23.245         	7.525
MS.38          	23.198         	7.489
MS.39          	23.153         	7.493
MS.40          	23.105         	7.509
MS.41          	23.06          	7.477
MS.42          	23.012         	7.418
MS.43          	22.967         	7.406
MS.44          	22.92          	7.41
MS.45          	22.875         	7.378
MS.46          	22.83          	7.452
MS.47          	22.785         	7.364
MS.48          	22.737         	7.39
MS.49          	22.692         	7.388
MS.50          	22.647         	7.398
MS.51          	22.602         	7.424
MS.52          	22.557         	7.376
MS.53          	22.512         	7.422
MS.54          	22.467         	7.4
MS.55          	22.422         	7.414
MS.56          	22.377         	7.412
MS.57          	22.332         	7.416
MS.58          	22.288         	7.382
MS.59          	22.243         	7.364
MS.60          	22.2           	7.458
MS.61          	22.155         	7.352
MS.62          	22.11          	7.38
MS.63          	22.067         	7.406
MS.64          	22.022         	7.356
MS.65          	21.977         	7.352
MS.66          	21.935         	7.364
MS.67          	21.89          	7.426
MS.68          	21.847         	7.376
MS.69          	21.802         	7.44
MS.70          	21.76          	7.398
MS.71          	21.715         	7.38
MS.72          	21.672         	7.422
MS.73          	21.63          	7.364
MS.74          	21.585         	7.384
MS.75          	21.542         	7.338
MS.76          	21.5           	7.35
MS.77          	21.458         	7.352
MS.78          	21.415         	7.352
MS.79          	21.372         	7.392
MS.80          	21.327         	7.358
MS.81          	21.285         	7.323
MS.82          	21.243         	7.442
MS.83          	21.2           	7.418
MS.84          	21.157         	7.374
MS.85          	21.118         	7.41
MS.86          	21.075         	7.442
MS.87          	21.032         	7.436
MS.88          	20.99          	7.469
MS.89          	20.948         	7.41
MS.90          	20.907         	7.404
MS.91          	20.865         	7.458
MS.92          	20.823         	7.426
MS.93          	20.78          	7.414
MS.94          	20.74          	7.452
MS.95          	20.698         	7.477
MS.96          	20.657         	7.479
MS.97          	20.615         	7.428
MS.98          	20.575         	7.458
MS.99          	20.532         	7.452
MS.100         	20.493         	7.473
MS.101         	20.452         	7.466
MS.102         	20.41          	7.446
MS.103         	20.37          	7.44
MS.104         	20.33          	7.515
MS.105         	20.288         	7.519
MS.106         	20.247         	7.541
MS.107         	20.208         	7.479
MS.108         	20.167         	7.495
MS.109         	20.127         	7.521
MS.110         	20.087         	7.464
MS.111         	20.047         	7.466
MS.112         	20.007         	7.521
MS.113         	19.967         	7.41
MS.114         	19.927         	7.46
MS.115         	19.887         	7.398
MS.116         	19.847         	7.346
MS.117         	19.807         	7.44
MS.118         	19.767         	7.38
MS.119         	19.727         	7.398
MS.120         	19.69          	7.444
MS.121         	19.65          	7.458
MS.122         	19.61          	7.418
MS.123         	19.57          	7.448
MS.124         	19.532         	7.426
MS.125         	19.493         	7.446
MS.126         	19.455         	7.392
MS.127         	19.415         	7.444
MS.128         	19.377         	7.334
MS.129         	19.337         	7.458
MS.130         	19.3           	7.416
MS.131         	19.26          	7.303
MS.132         	19.222         	7.384
MS.133         	19.182         	7.462
MS.134         	19.145         	7.483
MS.135         	19.108         	7.392
MS.136         	19.067         	7.319
MS.137         	19.03          	7.352
MS.138         	18.993         	7.378
MS.139         	18.955         	7.378
MS.140         	18.917         	7.356
MS.141         	18.88          	7.344
MS.142         	18.842         	7.342
MS.143         	18.802         	7.364
MS.144         	18.765         	7.366
MS.145         	18.727         	7.406
MS.146         	18.69          	7.464
MS.147         	18.655         	7.493
MS.148         	18.618         	7.388
MS.149         	18.58          	7.426
MS.150         	18.542         	7.412
MS.151         	18.505         	7.39
MS.152         	18.467         	7.436
MS.153         	18.432         	7.394
MS.154         	18.395         	7.4
MS.155         	18.358         	7.406
MS.156         	18.32          	7.412
MS.157         	18.285         	7.388
MS.158         	18.247         	7.44
MS.159         	18.212         	7.402
MS.160         	18.175         	7.41
MS.161         	18.137         	7.416
MS.162         	18.102         	7.446
MS.163         	18.067         	7.358
MS.164         	18.03          	7.444
MS.165         	17.995         	7.454
MS.166         	17.958         	7.43
MS.167         	17.922         	7.384
MS.168         	17.887         	7.408
MS.169         	17.85          	7.448
MS.170         	17.815         	7.438
MS.171         	17.78          	7.428
MS.172         	17.745         	7.41
MS.173         	17.708         	7.342
MS.174         	17.672         	7.317
MS.175         	17.637         	7.507
MS.176         	17.602         	7.346
MS.177         	17.567         	7.338
MS.178         	17.532         	7.416
MS.179         	17.497         	7.422
MS.180         	17.462         	7.388
MS.181         	17.427         	7.323
MS.182         	17.392         	7.303
MS.183         	17.358         	7.412
MS.184         	17.323         	7.326
MS.185         	17.288         	7.428
MS.186         	17.255         	7.386
MS.187         	17.22          	7.372
MS.188         	17.185         	7.352
MS.189         	17.15          	7.277
MS.190         	17.118         	7.295
MS.191         	17.083         	7.267
MS.192         	17.047         	7.275
MS.193         	17.015         	7.267
MS.194         	16.98          	7.305
MS.195         	16.948         	7.231
MS.196         	16.913         	7.398
MS.197         	16.878         	7.356
MS.198         	16.845         	7.328
MS.199         	16.812         	7.332
MS.200         	16.778         	7.295
MS.201         	16.745         	7.313
MS.202         	16.71          	7.334
MS.203         	16.677         	7.321
MS.204         	16.645         	7.297
MS.205         	16.61          	7.267
MS.206         	16.577         	7.358
MS.207         	16.545         	7.267
MS.208         	16.512         	7.277
MS.209         	16.477         	7.279
MS.210         	16.445         	7.217
MS.211         	16.413         	7.233
MS.212         	16.38          	7.182
MS.213         	16.347         	7.231
MS.214         	16.315         	7.189
MS.215         	16.282         	7.152
MS.216         	16.25          	7.187
MS.217         	16.217         	7.128
MS.218         	16.185         	7.164
MS.219         	16.153         	7.235
MS.220         	16.12          	7.261
MS.221         	16.087         	7.197
MS.222         	16.055         	7.209
MS.223         	16.022         	7.146
MS.224         	15.992         	7.17
MS.225         	15.96          	7.156
MS.226         	15.927         	7.146
MS.227         	15.895         	7.116
MS.228         	15.865         	7.074
MS.229         	15.832         	7.056
MS.230         	15.8           	6.977
MS.231         	15.77          	7.007
MS.232         	15.737         	7.108
MS.233         	15.705         	7.156
MS.234         	15.675         	7.076
MS.235         	15.642         	7.052
MS.236         	15.612         	7.019
MS.237         	15.58          	7.039
MS.238         	15.55          	6.896
MS.239         	15.52          	6.911
MS.240         	15.487         	6.898
MS.241         	15.457         	7.1
MS.242         	15.425         	6.949
MS.243         	15.395         	6.963
MS.244         	15.365         	6.909
MS.245         	15.332         	6.782
MS.246         	15.302         	6.88
MS.247         	15.273         	6.872
MS.248         	15.242         	6.818
MS.249         	15.212         	6.796
MS.250         	15.18          	6.846
MS.251         	15.15          	6.836
MS.252         	15.12          	6.846
MS.253         	15.09          	6.697
MS.254         	15.06          	6.802
MS.255         	15.03          	6.749
MS.256         	15             	6.663
MS.257         	14.97          	6.79
MS.258         	14.94          	6.504
MS.259         	14.91          	6.661
MS.260         	14.88          	6.657
MS.261         	14.85          	6.747
MS.262         	14.82          	6.492
MS.263         	14.792         	6.677
MS.264         	14.762         	6.542
MS.265         	14.733         	6.504
MS.266         	14.702         	6.705
MS.267         	14.672         	6.602
MS.268         	14.645         	6.5
MS.269         	14.615         	6.381
MS.270         	14.585         	6.335
MS.271         	14.557         	6.32
MS.272         	14.527         	6.212
MS.273         	14.497         	6.258
MS.274         	14.47          	6.169
MS.275         	14.44          	6.208
MS.276         	14.412         	6.562
MS.277         	14.382         	6.306
MS.278         	14.355         	6.25
MS.279         	14.325         	6.149
MS.280         	14.297         	6.107
MS.281         	14.267         	6.04
MS.282         	14.24          	5.988
MS.283         	14.212         	6.049
MS.284         	14.182         	5.908
MS.285         	14.155         	5.885
MS.286         	14.127         	5.974
MS.287         	14.097         	5.944
MS.288         	14.07          	5.97
MS.289         	14.042         	6.111
MS.290         	14.015         	5.885
MS.291         	13.985         	6.047
MS.292         	13.957         	5.956
MS.293         	13.93          	5.928
MS.294         	13.903         	5.758
MS.295         	13.875         	5.769
MS.296         	13.847         	5.811
MS.297         	13.82          	5.877
MS.298         	13.792         	5.865
MS.299         	13.765         	5.489
MS.300         	13.737         	5.569
MS.301         	13.71          	5.311
MS.302         	13.682         	5.221
MS.303         	13.655         	5.39
MS.304         	13.627         	5.47
MS.305         	13.6           	5.273
MS.306         	13.572         	5.589
MS.307         	13.545         	5.42
MS.308         	13.517         	5.843
MS.309         	13.492         	5.035
MS.310         	13.465         	5.579
MS.311         	13.438         	5.108
MS.312         	13.41          	5.023
MS.313         	13.385         	5.094
MS.314         	13.358         	5.412
MS.315         	13.33          	5.599
MS.316         	13.305         	5.331
MS.317         	13.278         	5.168
MS.318         	13.25          	5.45
MS.319         	13.225         	5.579
MS.320         	13.197         	5.281
MS.321         	13.172         	5.126
MS.322         	13.145         	5.235
MS.323         	13.12          	5.205
MS.324         	13.092         	4.85
MS.325         	13.068         	5.1
MS.326         	13.04          	5.074
MS.327         	13.015         	4.904
MS.328         	12.987         	5.029
MS.329         	12.962         	4.977
MS.330         	12.938         	5.138
MS.331         	12.91          	5.001
MS.332         	12.885         	5.271
MS.333         	12.86          	5.221
MS.334         	12.832         	5.257
MS.335         	12.807         	4.894
MS.336         	12.782         	5.039
MS.337         	12.757         	4.868
MS.338         	12.73          	4.8
MS.339         	12.705         	4.8
MS.340         	12.68          	4.763
MS.341         	12.655         	4.725
MS.342         	12.63          	4.552
MS.343         	12.605         	4.622
MS.344         	12.58          	4.909
MS.345         	12.555         	4.693
MS.346         	12.53          	4.322
MS.347         	12.505         	4.504
MS.348         	12.48          	4.774
MS.349         	12.455         	4.564
MS.350         	12.43          	4.175
MS.351         	12.405         	4.62
MS.352         	12.38          	4.717
MS.353         	12.355         	4.618
MS.354         	12.33          	4.737
MS.355         	12.305         	4.727
MS.356         	12.28          	4.195
MS.357         	12.257         	4.254
MS.358         	12.233         	4.451
MS.359         	12.207         	4.399
MS.360         	12.182         	4.298
MS.361         	12.16          	4.202
MS.362         	12.135         	4.417
MS.363         	12.11          	4.411
MS.364         	12.085         	4.268
MS.365         	12.062         	3.986
MS.366         	12.037         	4.361
MS.367         	12.012         	4.204
MS.368         	11.99          	4.286
MS.369         	11.965         	3.867
MS.370         	11.943         	4.242
MS.371         	11.917         	4.038
MS.372         	11.895         	4.332
MS.373         	11.87          	4.135
MS.374         	11.847         	4.018
MS.375         	11.822         	4.105
MS.376         	11.8           	4.032
MS.377         	11.775         	4.028
MS.378         	11.752         	3.974
MS.379         	11.73          	4.071
MS.380         	11.705         	4.012
MS.381         	11.682         	3.797
MS.382         	11.657         	3.779
MS.383         	11.635         	4.109
MS.384         	11.613         	4.004
MS.385         	11.59          	3.831
MS.386         	11.565         	4.024
MS.387         	11.542         	3.934
MS.388         	11.52          	4.018
MS.389         	11.497         	3.841
MS.390         	11.472         	3.879
MS.391         	11.45          	4.016
MS.392         	11.427         	3.916
MS.393         	11.405         	3.845
MS.394         	11.382         	3.623
MS.395         	11.36          	3.565
MS.396         	11.337         	3.581
MS.397         	11.315         	3.565
MS.398         	11.292         	3.499
MS.399         	11.27          	3.466
MS.400         	11.247         	3.617
MS.401         	11.225         	3.623
MS.402         	11.202         	3.672
MS.403         	11.18          	3.611
MS.404         	11.157         	3.464
MS.405         	11.135         	3.69
MS.406         	11.113         	3.454
MS.407         	11.09          	3.478
MS.408         	11.068         	3.493
MS.409         	11.045         	3.474
MS.410         	11.023         	3.527
MS.411         	11.002         	3.493
MS.412         	10.98          	3.386
MS.413         	10.957         	3.559
MS.414         	10.935         	3.529
MS.415         	10.915         	3.452
MS.416         	10.892         	3.37
MS.417         	10.87          	3.38
MS.418         	10.85          	3.452
MS.419         	10.827         	3.45
MS.420         	10.805         	3.39
MS.421         	10.785         	3.45
MS.422         	10.762         	3.605
MS.423         	10.74          	3.466
MS.424         	10.72          	3.482
MS.425         	10.698         	3.525
MS.426         	10.677         	3.446
MS.427         	10.655         	3.341
MS.428         	10.635         	3.45
MS.429         	10.613         	3.47
MS.430         	10.592         	3.482
MS.431         	10.57          	3.458
MS.432         	10.55          	3.47
MS.433         	10.528         	3.428
MS.434         	10.507         	3.35
MS.435         	10.485         	3.279
MS.436         	10.465         	3.317
MS.437         	10.445         	3.366
MS.438         	10.422         	3.158
MS.439         	10.403         	3.327
MS.440         	10.382         	3.301
MS.441         	10.36          	3.325
MS.442         	10.34          	3.245
MS.443         	10.32          	3.348
MS.444         	10.3           	3.325
MS.445         	10.278         	3.281
MS.446         	10.257         	3.329
MS.447         	10.238         	3.37
MS.448         	10.217         	3.319
MS.449         	10.198         	3.321
MS.450         	10.175         	3.295
MS.451         	10.155         	3.265
MS.452         	10.135         	3.192
MS.453         	10.115         	3.233
MS.454         	10.095         	3.184
MS.455         	10.075         	3.259
MS.456         	10.055         	3.327
MS.457         	10.035         	3.384
MS.458         	10.015         	3.35
MS.459         	9.995          	3.291
MS.460         	9.975          	3.19
MS.461         	9.955          	3.253
MS.462         	9.935          	3.319
MS.463         	9.915          	3.313
MS.464         	9.895          	3.295
MS.465         	9.875          	3.329
MS.466         	9.855          	3.217
MS.467         	9.835          	3.209
MS.468         	9.818          	3.215
MS.469         	9.797          	3.158
MS.470         	9.778          	3.198
MS.471         	9.757          	3.227
MS.472         	9.738          	3.196
MS.473         	9.717          	3.203
MS.474         	9.7            	3.239
MS.475         	9.68           	3.229
MS.476         	9.66           	3.166
MS.477         	9.64           	3.124
MS.478         	9.622          	3.126
MS.479         	9.602          	3.174
MS.480         	9.582          	3.188
MS.481         	9.565          	3.261
MS.482         	9.545          	3.174
MS.483         	9.525          	3.174
MS.484         	9.507          	3.192
MS.485         	9.488          	3.217
MS.486         	9.47           	3.154
MS.487         	9.45           	3.114
MS.488         	9.432          	3.192
MS.489         	9.412          	3.198
MS.490         	9.395          	3.186
MS.491         	9.375          	3.09
MS.492         	9.358          	3.114
MS.493         	9.337          	3.102
MS.494         	9.32           	3.112
MS.495         	9.3            	3.074
MS.496         	9.283          	3.035
MS.497         	9.262          	3.13
MS.498         	9.245          	2.989
MS.499         	9.225          	3.098
MS.500         	9.207          	3.094
MS.501         	9.19           	3.009
MS.502         	9.17           	2.983
MS.503         	9.153          	3.009
MS.504         	9.135          	3.017
MS.505         	9.115          	3.009
MS.506         	9.097          	2.983
MS.507         	9.08           	3.037
MS.508         	9.062          	3.013
MS.509         	9.042          	3.045
MS.510         	9.025          	3.009
MS.511         	9.007          	2.844
MS.512         	8.99           	2.975
MS.513         	8.972          	3.076
MS.514         	8.952          	2.788
MS.515         	8.935          	2.985
MS.516         	8.917          	3.017
MS.517         	8.9            	3.005
MS.518         	8.882          	3.037
MS.519         	8.865          	2.757
MS.520         	8.847          	3.057
MS.521         	8.83           	3.035
MS.522         	8.812          	3.092
MS.523         	8.795          	2.995
MS.524         	8.778          	3.088
MS.525         	8.757          	3.057
MS.526         	8.74           	3.092
MS.527         	8.725          	3.084
MS.528         	8.707          	3.096
MS.529         	8.69           	3.086
MS.530         	8.672          	2.604
MS.531         	8.655          	3.078
MS.532         	8.637          	2.999
MS.533         	8.62           	2.86
MS.534         	8.602          	3.057
MS.535         	8.585          	3.062
MS.536         	8.568          	2.195
MS.537         	8.55           	2.824
MS.538         	8.535          	3.047
MS.539         	8.517          	2.89
MS.540         	8.5            	3.023
MS.541         	8.483          	2.616
MS.542         	8.465          	2.822
MS.543         	8.45           	2.435
MS.544         	8.432          	1.96
MS.545         	8.415          	1.928
MS.546         	8.398          	2.429
MS.547         	8.382          	2.765
MS.548         	8.365          	2.568
MS.549         	8.347          	2.02
MS.550         	8.332          	2.393
MS.551         	8.315          	2.431
MS.552         	8.297          	1.764
MS.553         	8.283          	1.911
MS.554         	8.265          	1.881
MS.555         	8.247          	1.742
MS.556         	8.233          	1.756
MS.557         	8.215          	1.823
MS.558         	8.2            	1.841
MS.559         	8.182          	1.756
MS.560         	8.167          	1.853
MS.561         	8.15           	1.774
MS.562         	8.135          	1.644
MS.563         	8.117          	1.897
MS.564         	8.102          	1.922
MS.565         	8.085          	1.505
MS.566         	8.07           	1.299
MS.567         	8.052          	1.082
MS.568         	8.037          	1.694
MS.569         	8.02           	1.615
MS.570         	8.005          	1.621
MS.571         	7.99           	1.65
MS.572         	7.972          	1.853
MS.573         	7.957          	1.877
MS.574         	7.94           	1.744
MS.575         	7.925          	1.887
MS.576         	7.91           	1.811
MS.577         	7.892          	1.972
MS.578         	7.878          	1.774
MS.579         	7.862          	1.742
MS.580         	7.847          	1.654
MS.581         	7.83           	1.807
MS.582         	7.815          	1.682
MS.583         	7.8            	1.66
MS.584         	7.785          	1.736
MS.585         	7.767          	1.555
MS.586         	7.753          	1.656
MS.587         	7.737          	1.72
MS.588         	7.722          	1.744
MS.589         	7.707          	1.664
MS.590         	7.69           	1.758
MS.591         	7.675          	1.662
MS.592         	7.66           	1.714
MS.593         	7.645          	1.531
MS.594         	7.63           	1.509
MS.595         	7.615          	1.436
MS.596         	7.6            	1.49
MS.597         	7.585          	1.609
MS.598         	7.57           	1.464
MS.599         	7.555          	1.41
MS.600         	7.537          	1.204
MS.601         	7.523          	1.331
MS.602         	7.507          	1.569
MS.603         	7.492          	1.243
MS.604         	7.477          	1.347
MS.605         	7.462          	1.241
MS.606         	7.45           	1.263
MS.607         	7.435          	1.082
MS.608         	7.42           	1.192
MS.609         	7.405          	1.261
MS.610         	7.39           	0.965
MS.611         	7.375          	1.213
MS.612         	7.36           	1.023
MS.613         	7.345          	0.886
MS.614         	7.33           	0.999
MS.615         	7.315          	0.743
MS.616         	7.302          	1.09
MS.617         	7.287          	0.959
MS.618         	7.273          	0.735
MS.619         	7.257          	0.83
MS.620         	7.242          	0.781
MS.621         	7.227          	0.886
MS.622         	7.215          	0.874
MS.623         	7.2            	0.689
MS.624         	7.185          	0.679
MS.625         	7.17           	0.784
MS.626         	7.157          	0.761
MS.627         	7.142          	0.602
MS.628         	7.128          	0.675
MS.629         	7.115          	0.614
MS.630         	7.1            	0.481
MS.631         	7.085          	0.483
MS.632         	7.072          	0.495
MS.633         	7.057          	0.5
MS.634         	7.043          	0.465
MS.635         	7.03           	0.651
MS.636         	7.015          	0.441
MS.637         	7              	0.506
MS.638         	6.987          	0.487
MS.639         	6.972          	0.455
MS.640         	6.96           	0.457
MS.641         	6.945          	0.453
MS.642         	6.932          	0.487
MS.643         	6.918          	0.425
MS.644         	6.902          	0.443
MS.645         	6.89           	0.423
MS.646         	6.875          	0.467
MS.647         	6.862          	0.407
MS.648         	6.847          	0.367
MS.649         	6.835          	0.352
MS.650         	6.822          	0.284
MS.651         	6.807          	0.377
MS.652         	6.795          	0.25
MS.653         	6.78           	0.334
MS.654         	6.767          	0.427
MS.655         	6.753          	0.28
MS.656         	6.74           	0.373
MS.657         	6.727          	0.278
MS.658         	6.712          	0.254
MS.659         	6.7            	0.252
MS.660         	6.685          	0.288
MS.661         	6.672          	0.244
MS.662         	6.66           	0.238
MS.663         	6.645          	0.25
MS.664         	6.632          	0.248
MS.665         	6.62           	0.22
MS.666         	6.608          	0.216
MS.667         	6.592          	0.216
MS.668         	6.58           	0.338
MS.669         	6.567          	0.232
MS.670         	6.555          	0.24
MS.671         	6.54           	0.25
MS.672         	6.527          	0.234
MS.673         	6.515          	0.211
MS.674         	6.503          	0.197
MS.675         	6.487          	0.207
MS.676         	6.475          	0.185
MS.677         	6.462          	0.224
MS.678         	6.45           	0.183
MS.679         	6.438          	0.232
MS.680         	6.425          	0.236
MS.681         	6.41           	0.226
MS.682         	6.398          	0.203
MS.683         	6.385          	0.218
MS.684         	6.372          	0.228
MS.685         	6.36           	0.218
MS.686         	6.347          	0.201
MS.687         	6.335          	0.218
MS.688         	6.322          	0.193
MS.689         	6.31           	0.214
MS.690         	6.297          	0.244
MS.691         	6.285          	0.214
MS.692         	6.273          	0.218
MS.693         	6.26           	0.23
MS.694         	6.247          	0.242
MS.695         	6.235          	0.214
MS.696         	6.222          	0.26
MS.697         	6.21           	0.222
MS.698         	6.197          	0.173
MS.699         	6.185          	0.191
MS.700         	6.172          	0.22
MS.701         	6.16           	0.264
MS.702         	6.148          	0.254
MS.703         	6.135          	0.278
MS.704         	6.122          	0.222
MS.705         	6.11           	0.24
MS.706         	6.097          	0.218
MS.707         	6.088          	0.216
MS.708         	6.075          	0.286
MS.709         	6.062          	0.222
MS.710         	6.05           	0.036
MS.711         	6.037          	0.218
MS.712         	6.025          	0.216
MS.713         	6.015          	0.197
MS.714         	6.003          	0.22
MS.715         	5.99           	0.052
MS.716         	5.977          	0.054
MS.717         	5.965          	0.012
MS.718         	5.955          	0.04
MS.719         	5.942          	0.081
MS.720         	5.93           	0.103
MS.721         	5.918          	0.03
MS.722         	5.907          	0.075
MS.723         	5.895          	0.02
MS.724         	5.882          	0.048
MS.725         	5.87           	0.042
MS.726         	5.86           	0.083
MS.727         	5.847          	0.046
MS.728         	5.835          	0.06
MS.729         	5.825          	0.056
MS.730         	5.812          	0.054
MS.731         	5.8            	0.07
MS.732         	5.79           	0.016
MS.733         	5.777          	0.044
MS.734         	5.767          	0.05
MS.735         	5.755          	0.04
MS.736         	5.742          	0.036
MS.737         	5.733          	0.036
MS.738         	5.72           	0.068
MS.739         	5.71           	0.06
MS.740         	5.697          	0.042
MS.741         	5.685          	0.046
MS.742         	5.675          	0.054
MS.743         	5.662          	0.012
MS.744         	5.652          	0.024
MS.745         	5.64           	0.058
MS.746         	5.63           	0.06
MS.747         	5.617          	0.038
MS.748         	5.608          	0.042
MS.749         	5.595          	0.062
MS.750         	5.585          	0.022
MS.751         	5.572          	0.05
MS.752         	5.562          	0.042
MS.753         	5.552          	0.073
MS.754         	5.54           	-0.006
MS.755         	5.53           	0.000
MS.756         	5.517          	0.066
MS.757         	5.507          	0.066
MS.758         	5.495          	0.02
MS.759         	5.485          	0.046
MS.760         	5.475          	0.038
MS.761         	5.463          	0.044
MS.762         	5.452          	-0.028
MS.763         	5.443          	0.046
MS.764         	5.43           	-0.01
MS.765         	5.42           	-0.016
MS.766         	5.41           	-0.026
MS.767         	5.398          	-0.016
MS.768         	5.387          	0.008
MS.769         	5.378          	0.01
MS.770         	5.365          	-0.016
MS.771         	5.355          	-0.006
MS.772         	5.345          	-0.006
MS.773         	5.332          	0.008
MS.774         	5.322          	-0.04
MS.775         	5.312          	0.02
MS.776         	5.302          	-0.01
MS.777         	5.29           	-0.028
MS.778         	5.28           	-0.028
MS.779         	5.27           	0.000
MS.780         	5.26           	-0.024
MS.781         	5.25           	-0.056
MS.782         	5.237          	-0.014
MS.783         	5.227          	-0.004
MS.784         	5.217          	-0.016
MS.785         	5.207          	-0.05
MS.786         	5.197          	-0.006
MS.787         	5.188          	-0.03
MS.788         	5.175          	-0.052
MS.789         	5.165          	-0.044
MS.790         	5.155          	-0.04
MS.791         	5.145          	-0.044
MS.792         	5.135          	-0.05
MS.793         	5.125          	-0.048
MS.794         	5.115          	-0.008
MS.795         	5.105          	-0.04
MS.796         	5.095          	-0.03
MS.797         	5.085          	-0.048
MS.798         	5.072          	-0.028
MS.799         	5.062          	-0.01
MS.800         	5.052          	-0.04
MS.801         	5.043          	-0.046
MS.802         	5.032          	-0.048
MS.803         	5.023          	-0.04
MS.804         	5.012          	-0.032
MS.805         	5.003          	-0.016
MS.806         	4.992          	-0.014
MS.807         	4.983          	-0.03
MS.808         	4.972          	-0.052
MS.809         	4.963          	-0.026
MS.810         	4.952          	-0.036
MS.811         	4.943          	-0.032
MS.812         	4.932          	-0.044
MS.813         	4.922          	-0.062
MS.814         	4.915          	-0.046
MS.815         	4.905          	-0.032
MS.816         	4.895          	-0.048
MS.817         	4.885          	-0.036
MS.818         	4.875          	-0.05
MS.819         	4.865          	-0.048
MS.820         	4.855          	-0.022
MS.821         	4.845          	-0.038
MS.822         	4.835          	-0.046
MS.823         	4.825          	-0.038
MS.824         	4.818          	-0.016
MS.825         	4.807          	-0.034
MS.826         	4.797          	-0.04
MS.827         	4.787          	-0.036
MS.828         	4.777          	-0.038
MS.829         	4.767          	-0.032
MS.830         	4.76           	-0.042
MS.831         	4.75           	-0.01
MS.832         	4.74           	-0.022
MS.833         	4.73           	-0.032
DERIVED EXCITABILITY VARIABLES
Program = QTracP 9/10/2021
Threshold method = 6 (optimised for CAP, using data for present condition only)
SR method = 1 (using actual data values)
6.                 	0.000               	Peak response\(mV)
9.                 	31.5                	Temperature ( C)
17.                	62                  	Age (years)
18.                	2                   	Sex (M=1, F=2)

EXTRA VARIABLES

MScPeak(mV) = 7.54
MScS5(mA) = 6.8
MScS50(mA) = 11.4
MScS95(mA) = 16.14
MScNSteps = 1
MScSteps(%) = 2.1
MScStepMax(%) = 2.1
MScD50 = 68
MScSlope = 2.06
MScDuration(min) = 7.9
MSFTraces = 814
MSFPeakAmp(mV) = 7.5
MSFNUnits = 78
MSFMeanUnitAmp(uV) = 96.1
MSFHuntTime(m) = 4.23
MSFError(%) = 5.62
MSFNLarge = 16.95
MSFMedianAmp(%) = 0.924
MSFMedianAmp(mV) = 0.0693
MSFHalfAmpAmp(%) = 1.61
MSFHalfAmpAmp(mV) = 0.121
MSFLargestAmp(%) = 7.68
MSFLargestAmp(mV) = 0.576
MSFMeanRS(%) = 2.01
MSFSizeLimit(uV) = 19.2
MSFLimitType = 3
MSFSmallestAmp(uV) = 20.6
MSFOpts = 10106121

EXTRA WAVEFORMS


!MScan Model
!78
	1	5.3	0.53	2
	2	5.89	0.61	2
	3	5.94	0.59	2
	4	5.96	0.79	2
	5	6.01	0.85	2
	6	6.71	1.01	2
	7	6.78	0.55	2
	8	6.83	0.59	2
	9	6.89	0.42	2
	10	6.99	0.99	2
	11	7.05	0.57	2
	12	7.08	0.7	2
	13	7.11	0.54	2
	14	7.14	0.41	2
	15	7.16	0.34	2
	16	7.18	0.63	2
	17	7.23	1.05	2
	18	7.28	1.13	2
	19	7.33	1.22	2
	20	7.36	0.92	2
	21	7.4	1.11	2
	22	7.44	1.11	2
	23	7.48	0.95	2
	24	7.51	0.83	2
	25	7.55	0.73	2
	26	7.59	1.22	2
	27	7.6	2.64	2
	28	8.21	1.61	2
	29	8.26	2.53	2
	30	8.29	2.89	2
	31	8.38	7.68	2
	32	8.64	3.36	2.4
	33	9.17	0.28	2
	34	9.25	0.51	2
	35	9.32	0.49	2
	36	9.39	0.53	2
	37	9.75	0.86	2
	38	9.85	0.53	2
	39	10.43	1.3	2
	40	10.54	0.54	2
	41	11	1.33	2
	42	11.23	1.7	2
	43	11.31	0.8	2
	44	11.37	0.74	2
	45	11.62	3.06	2
	46	11.8	0.84	2
	47	12.1	3.05	2
	48	12.41	4.15	2
	49	12.61	1.96	2
	50	12.67	1.04	2
	51	12.79	2.79	2
	52	13.5	4.74	2
	53	13.66	2.04	2
	54	13.72	0.76	1.6
	55	13.78	1.31	2
	56	13.9	1.4	1.8
	57	14.13	2.58	2
	58	14.26	0.84	2
	59	14.36	0.98	2
	60	14.39	0.65	2
	61	14.45	1.45	2
	62	14.57	1.63	2
	63	14.68	1.29	2
	64	14.79	0.94	2
	65	14.95	1.68	2
	66	15.03	0.44	2
	67	15.12	0.63	2
	68	15.2	0.77	2
	69	15.35	0.82	2
	70	15.48	0.82	2
	71	15.72	1.15	2
	72	15.89	0.98	2
	73	16.19	0.93	2
	74	16.37	0.54	2
	75	16.51	0.35	2
	76	17.25	1.39	2
	77	19.65	0.73	2
	78	23.13	0.56	2

