File:              	C:\Qtrac\Data\Daniel M Sørensen\MScan multicentre study\Data from centres\Odense\Processed data\TKC01123B.QZD
Name:              	DK.ODE.NC.10.2
Protocol:          	MSCAN-R2
Date:              	23/11/20
Start time:        	13:21:51
Age:               	74
Sex:               	M
Temperature:       	34.2
S/R sites:         	ADM
NC/disease:        	NC
Operator:          	TK
Comments:
M-SCAN DATA (5.7-1.2m)
Scanpts: 3, 6, 407, 416
Stim. (mA)     	Amp. (mV)
MS.1           	34             	8.043
MS.2           	34             	7.946
MS.3           	34             	7.952
MS.4           	34             	7.887
MS.5           	34             	7.948
MS.6           	34             	7.938
MS.7           	34             	7.954
MS.8           	34             	7.978
MS.9           	34             	7.887
MS.10          	34             	7.924
MS.11          	34             	8
MS.12          	34             	8.02
MS.13          	34             	7.865
MS.14          	34             	7.908
MS.15          	34             	7.861
MS.16          	34             	7.859
MS.17          	34             	7.9
MS.18          	34             	7.869
MS.19          	34             	7.896
MS.20          	34             	7.877
MS.21          	34             	7.833
MS.22          	34             	7.817
MS.23          	34             	8.004
MS.24          	33.865         	7.835
MS.25          	33.798         	7.873
MS.26          	33.73          	7.815
MS.27          	33.662         	7.849
MS.28          	33.595         	7.825
MS.29          	33.528         	7.785
MS.30          	33.46          	7.807
MS.31          	33.392         	7.831
MS.32          	33.327         	7.793
MS.33          	33.26          	7.765
MS.34          	33.193         	7.775
MS.35          	33.127         	7.767
MS.36          	33.06          	7.773
MS.37          	32.995         	7.708
MS.38          	32.93          	7.761
MS.39          	32.862         	7.759
MS.40          	32.798         	7.656
MS.41          	32.732         	7.767
MS.42          	32.667         	7.694
MS.43          	32.603         	7.71
MS.44          	32.537         	7.72
MS.45          	32.472         	7.732
MS.46          	32.407         	7.726
MS.47          	32.342         	7.746
MS.48          	32.278         	7.797
MS.49          	32.212         	7.779
MS.50          	32.147         	7.722
MS.51          	32.085         	7.682
MS.52          	32.02          	7.656
MS.53          	31.955         	7.648
MS.54          	31.892         	7.684
MS.55          	31.827         	7.748
MS.56          	31.765         	7.712
MS.57          	31.702         	7.742
MS.58          	31.637         	7.797
MS.59          	31.575         	7.759
MS.60          	31.512         	7.728
MS.61          	31.448         	7.746
MS.62          	31.385         	7.777
MS.63          	31.323         	7.763
MS.64          	31.26          	7.712
MS.65          	31.198         	7.734
MS.66          	31.135         	7.763
MS.67          	31.073         	7.777
MS.68          	31.012         	7.765
MS.69          	30.95          	7.767
MS.70          	30.887         	7.738
MS.71          	30.825         	7.646
MS.72          	30.765         	7.664
MS.73          	30.702         	7.728
MS.74          	30.642         	7.674
MS.75          	30.58          	7.62
MS.76          	30.52          	7.654
MS.77          	30.457         	7.648
MS.78          	30.397         	7.672
MS.79          	30.337         	7.636
MS.80          	30.275         	7.622
MS.81          	30.215         	7.652
MS.82          	30.155         	7.662
MS.83          	30.095         	7.618
MS.84          	30.035         	7.63
MS.85          	29.975         	7.692
MS.86          	29.915         	7.656
MS.87          	29.855         	7.628
MS.88          	29.795         	7.652
MS.89          	29.735         	7.634
MS.90          	29.677         	7.597
MS.91          	29.617         	7.605
MS.92          	29.557         	7.668
MS.93          	29.5           	7.642
MS.94          	29.44          	7.591
MS.95          	29.382         	7.597
MS.96          	29.323         	7.601
MS.97          	29.265         	7.646
MS.98          	29.205         	7.676
MS.99          	29.147         	7.601
MS.100         	29.09          	7.67
MS.101         	29.03          	7.537
MS.102         	28.972         	7.585
MS.103         	28.915         	7.565
MS.104         	28.858         	7.493
MS.105         	28.8           	7.587
MS.106         	28.743         	7.575
MS.107         	28.685         	7.344
MS.108         	28.627         	7.539
MS.109         	28.57          	7.426
MS.110         	28.512         	7.523
MS.111         	28.455         	7.45
MS.112         	28.4           	7.336
MS.113         	28.342         	7.354
MS.114         	28.285         	7.344
MS.115         	28.23          	7.529
MS.116         	28.172         	7.239
MS.117         	28.118         	7.231
MS.118         	28.06          	7.205
MS.119         	28.005         	7.205
MS.120         	27.948         	7.211
MS.121         	27.892         	7.17
MS.122         	27.837         	7.146
MS.123         	27.78          	7.048
MS.124         	27.725         	7.064
MS.125         	27.67          	7.092
MS.126         	27.615         	7.291
MS.127         	27.56          	7.037
MS.128         	27.505         	7.072
MS.129         	27.45          	7.06
MS.130         	27.395         	7.08
MS.131         	27.34          	7.027
MS.132         	27.285         	6.961
MS.133         	27.23          	7.029
MS.134         	27.177         	6.995
MS.135         	27.122         	6.939
MS.136         	27.067         	6.957
MS.137         	27.015         	6.933
MS.138         	26.96          	6.985
MS.139         	26.905         	6.917
MS.140         	26.852         	6.919
MS.141         	26.8           	6.888
MS.142         	26.745         	6.903
MS.143         	26.692         	6.826
MS.144         	26.637         	6.862
MS.145         	26.585         	6.917
MS.146         	26.532         	6.903
MS.147         	26.48          	6.792
MS.148         	26.425         	6.743
MS.149         	26.372         	6.802
MS.150         	26.32          	6.741
MS.151         	26.267         	6.768
MS.152         	26.215         	6.737
MS.153         	26.162         	6.826
MS.154         	26.11          	6.749
MS.155         	26.06          	6.725
MS.156         	26.007         	6.677
MS.157         	25.955         	6.637
MS.158         	25.903         	6.749
MS.159         	25.85          	6.617
MS.160         	25.8           	6.727
MS.161         	25.747         	6.663
MS.162         	25.698         	6.663
MS.163         	25.645         	6.635
MS.164         	25.595         	6.608
MS.165         	25.542         	6.655
MS.166         	25.493         	6.512
MS.167         	25.44          	6.615
MS.168         	25.39          	6.516
MS.169         	25.34          	6.474
MS.170         	25.288         	6.602
MS.171         	25.237         	6.55
MS.172         	25.188         	6.564
MS.173         	25.137         	6.52
MS.174         	25.087         	6.578
MS.175         	25.038         	6.526
MS.176         	24.987         	6.405
MS.177         	24.938         	6.502
MS.178         	24.887         	6.385
MS.179         	24.837         	6.427
MS.180         	24.788         	6.381
MS.181         	24.737         	6.383
MS.182         	24.69          	6.298
MS.183         	24.64          	6.254
MS.184         	24.59          	6.244
MS.185         	24.542         	6.226
MS.186         	24.493         	6.224
MS.187         	24.442         	6.044
MS.188         	24.395         	6.137
MS.189         	24.345         	6.057
MS.190         	24.297         	6.238
MS.191         	24.247         	6.169
MS.192         	24.2           	5.71
MS.193         	24.153         	6.044
MS.194         	24.102         	5.948
MS.195         	24.055         	5.809
MS.196         	24.007         	5.988
MS.197         	23.96          	5.819
MS.198         	23.913         	5.646
MS.199         	23.862         	5.662
MS.200         	23.815         	5.708
MS.201         	23.767         	5.68
MS.202         	23.72          	5.646
MS.203         	23.672         	5.974
MS.204         	23.625         	5.646
MS.205         	23.58          	5.668
MS.206         	23.532         	5.652
MS.207         	23.485         	5.646
MS.208         	23.438         	5.581
MS.209         	23.39          	5.613
MS.210         	23.345         	5.531
MS.211         	23.297         	5.402
MS.212         	23.25          	5.607
MS.213         	23.205         	5.474
MS.214         	23.157         	5.539
MS.215         	23.112         	5.599
MS.216         	23.065         	5.406
MS.217         	23.02          	5.533
MS.218         	22.975         	5.438
MS.219         	22.927         	5.356
MS.220         	22.882         	5.368
MS.221         	22.837         	5.525
MS.222         	22.79          	5.305
MS.223         	22.745         	5.489
MS.224         	22.7           	5.408
MS.225         	22.655         	5.507
MS.226         	22.61          	5.352
MS.227         	22.565         	5.259
MS.228         	22.52          	4.733
MS.229         	22.475         	5.06
MS.230         	22.43          	4.808
MS.231         	22.385         	4.816
MS.232         	22.34          	4.693
MS.233         	22.295         	4.635
MS.234         	22.25          	4.56
MS.235         	22.205         	4.492
MS.236         	22.163         	4.28
MS.237         	22.118         	4.238
MS.238         	22.073         	4.395
MS.239         	22.03          	4.284
MS.240         	21.985         	4.316
MS.241         	21.94          	4.123
MS.242         	21.897         	4.216
MS.243         	21.852         	3.974
MS.244         	21.81          	4.071
MS.245         	21.765         	3.94
MS.246         	21.722         	3.734
MS.247         	21.68          	3.728
MS.248         	21.635         	4.014
MS.249         	21.592         	3.672
MS.250         	21.55          	3.585
MS.251         	21.507         	3.771
MS.252         	21.462         	3.547
MS.253         	21.42          	3.815
MS.254         	21.377         	3.501
MS.255         	21.335         	3.482
MS.256         	21.292         	3.718
MS.257         	21.25          	3.758
MS.258         	21.208         	3.394
MS.259         	21.165         	3.65
MS.260         	21.122         	3.255
MS.261         	21.08          	3.339
MS.262         	21.038         	3.414
MS.263         	20.997         	3.489
MS.264         	20.955         	3.396
MS.265         	20.913         	3.472
MS.266         	20.87          	3.356
MS.267         	20.83          	3.15
MS.268         	20.788         	3.227
MS.269         	20.745         	3.182
MS.270         	20.705         	3.168
MS.271         	20.663         	3.072
MS.272         	20.622         	3.078
MS.273         	20.58          	3.045
MS.274         	20.54          	2.917
MS.275         	20.497         	2.945
MS.276         	20.458         	2.943
MS.277         	20.417         	2.866
MS.278         	20.375         	2.884
MS.279         	20.335         	2.957
MS.280         	20.295         	2.896
MS.281         	20.255         	2.876
MS.282         	20.212         	2.747
MS.283         	20.172         	2.9
MS.284         	20.132         	2.852
MS.285         	20.092         	2.608
MS.286         	20.052         	2.685
MS.287         	20.012         	2.637
MS.288         	19.972         	2.558
MS.289         	19.932         	2.417
MS.290         	19.892         	2.453
MS.291         	19.852         	2.421
MS.292         	19.812         	2.49
MS.293         	19.775         	2.433
MS.294         	19.735         	2.22
MS.295         	19.695         	2.322
MS.296         	19.655         	2.105
MS.297         	19.615         	2.153
MS.298         	19.577         	1.936
MS.299         	19.538         	1.948
MS.300         	19.5           	2.121
MS.301         	19.46          	1.917
MS.302         	19.42          	2.24
MS.303         	19.382         	1.942
MS.304         	19.342         	1.968
MS.305         	19.305         	1.734
MS.306         	19.267         	1.644
MS.307         	19.227         	1.752
MS.308         	19.19          	1.795
MS.309         	19.15          	1.696
MS.310         	19.112         	1.658
MS.311         	19.075         	1.458
MS.312         	19.038         	1.452
MS.313         	18.997         	1.559
MS.314         	18.96          	1.339
MS.315         	18.922         	1.404
MS.316         	18.885         	1.482
MS.317         	18.847         	1.325
MS.318         	18.81          	1.46
MS.319         	18.772         	1.208
MS.320         	18.735         	1.273
MS.321         	18.698         	1.255
MS.322         	18.66          	1.1
MS.323         	18.622         	1.102
MS.324         	18.585         	1.08
MS.325         	18.547         	1.003
MS.326         	18.51          	1.063
MS.327         	18.475         	1.114
MS.328         	18.438         	1.009
MS.329         	18.4           	0.818
MS.330         	18.362         	0.957
MS.331         	18.327         	1.015
MS.332         	18.29          	0.771
MS.333         	18.253         	0.856
MS.334         	18.217         	0.757
MS.335         	18.18          	0.844
MS.336         	18.145         	0.723
MS.337         	18.108         	0.79
MS.338         	18.073         	0.816
MS.339         	18.035         	0.755
MS.340         	18             	0.606
MS.341         	17.965         	0.834
MS.342         	17.927         	0.703
MS.343         	17.892         	0.594
MS.344         	17.858         	0.632
MS.345         	17.82          	0.53
MS.346         	17.785         	0.576
MS.347         	17.75          	0.538
MS.348         	17.715         	0.566
MS.349         	17.677         	0.574
MS.350         	17.642         	0.512
MS.351         	17.608         	0.431
MS.352         	17.573         	0.431
MS.353         	17.538         	0.576
MS.354         	17.503         	0.473
MS.355         	17.467         	0.399
MS.356         	17.432         	0.34
MS.357         	17.397         	0.334
MS.358         	17.362         	0.387
MS.359         	17.327         	0.485
MS.360         	17.295         	0.328
MS.361         	17.26          	0.312
MS.362         	17.225         	0.371
MS.363         	17.19          	0.369
MS.364         	17.155         	0.298
MS.365         	17.122         	0.258
MS.366         	17.087         	0.24
MS.367         	17.052         	0.201
MS.368         	17.02          	0.268
MS.369         	16.985         	0.209
MS.370         	16.952         	0.248
MS.371         	16.917         	0.222
MS.372         	16.885         	0.191
MS.373         	16.85          	0.228
MS.374         	16.817         	0.143
MS.375         	16.782         	0.179
MS.376         	16.75          	0.292
MS.377         	16.715         	0.207
MS.378         	16.682         	0.149
MS.379         	16.65          	0.147
MS.380         	16.615         	0.228
MS.381         	16.583         	0.187
MS.382         	16.55          	0.175
MS.383         	16.517         	0.054
MS.384         	16.483         	0.008
MS.385         	16.45          	0.064
MS.386         	16.417         	0.075
MS.387         	16.385         	-0.018
MS.388         	16.352         	0.062
MS.389         	16.32          	0.016
MS.390         	16.288         	0.099
MS.391         	16.255         	0.052
MS.392         	16.222         	0.02
MS.393         	16.19          	0.058
MS.394         	16.157         	0.046
MS.395         	16.125         	0.02
MS.396         	16.092         	0.034
MS.397         	16.06          	0.000
MS.398         	16.028         	0.022
MS.399         	15.997         	-0.002
MS.400         	15.965         	0.036
MS.401         	15.932         	0.012
MS.402         	15.9           	-0.016
MS.403         	15.87          	0.038
MS.404         	15.837         	0.03
MS.405         	15.805         	0.02
MS.406         	15.775         	0.022
MS.407         	15.742         	0.028
MS.408         	15.71          	-0.014
MS.409         	15.68          	-0.02
MS.410         	15.648         	-0.004
MS.411         	15.617         	0.026
MS.412         	15.585         	0.038
MS.413         	15.555         	0.028
MS.414         	15.523         	0.01
MS.415         	15.492         	0.000
MS.416         	15.462         	0.012
MS.417         	15.43          	0.042
MS.418         	15.4           	0.024
MS.419         	15.37          	0.04
MS.420         	15.337         	-0.008
MS.421         	15.307         	0.022
MS.422         	15.277         	0.036
MS.423         	15.247         	0.014
MS.424         	15.215         	0.034
MS.425         	15.185         	0.000
MS.426         	15.155         	0.05
MS.427         	15.125         	0.026
MS.428         	15.095         	0.075
MS.429         	15.065         	0.026
MS.430         	15.035         	0.018
MS.431         	15.005         	0.046
MS.432         	14.975         	0.064
MS.433         	14.945         	0.073
MS.434         	14.915         	0.018
MS.435         	14.885         	0.012
MS.436         	14.855         	0.018
MS.437         	14.825         	0.044
MS.438         	14.795         	0.052
MS.439         	14.767         	0.01
MS.440         	14.737         	0.052
MS.441         	14.707         	0.04
MS.442         	14.677         	0.077
MS.443         	14.65          	0.012
MS.444         	14.62          	0.066
MS.445         	14.59          	0.032
MS.446         	14.56          	0.056
MS.447         	14.532         	0.06
MS.448         	14.502         	0.091
MS.449         	14.475         	0.048
MS.450         	14.445         	0.05
MS.451         	14.417         	0.034
MS.452         	14.387         	0.083
MS.453         	14.358         	0.085
MS.454         	14.33          	0.066
MS.455         	14.302         	0.046
MS.456         	14.273         	0.062
MS.457         	14.245         	0.095
MS.458         	14.215         	0.099
MS.459         	14.188         	0.091
MS.460         	14.16          	0.085
MS.461         	14.13          	0.07
MS.462         	14.102         	0.073
MS.463         	14.075         	0.103
MS.464         	14.047         	0.099
MS.465         	14.017         	0.115
MS.466         	13.99          	0.115
MS.467         	13.962         	0.093
MS.468         	13.935         	0.062
MS.469         	13.907         	0.07
MS.470         	13.877         	0.077
MS.471         	13.85          	0.121
MS.472         	13.822         	0.111
MS.473         	13.795         	0.097
MS.474         	13.767         	0.097
MS.475         	13.74          	0.113
MS.476         	13.712         	0.097
MS.477         	13.685         	0.105
MS.478         	13.657         	0.139
MS.479         	13.63          	0.113
MS.480         	13.605         	0.125
MS.481         	13.577         	0.143
MS.482         	13.55          	0.131
MS.483         	13.523         	0.145
MS.484         	13.495         	0.115
MS.485         	13.467         	0.143
MS.486         	13.443         	0.101
MS.487         	13.415         	0.113
MS.488         	13.387         	0.133
MS.489         	13.36          	0.113
MS.490         	13.335         	0.111
MS.491         	13.307         	0.133
MS.492         	13.282         	0.105
MS.493         	13.255         	0.117
MS.494         	13.227         	0.137
MS.495         	13.202         	0.163
DERIVED EXCITABILITY VARIABLES
Program = QTracP 9/10/2021
Threshold method = 6 (optimised for CAP, using data for present condition only)
SR method = 1 (using actual data values)
6.                 	0.000               	Peak response\(mV)
9.                 	34.2                	Temperature ( C)
17.                	74                  	Age (years)
18.                	1                   	Sex (M=1, F=2)

EXTRA VARIABLES

MScPeak(mV) = 7.79
MScS5(mA) = 17.38
MScS50(mA) = 21.68
MScS95(mA) = 28.45
MScNSteps = 0
MScSteps(%) = 0.0
MScStepMax(%) = 0.0
MScD50 = 52
MScSlope = 4.79
MScDuration(min) = 4.5
MSFTraces = 414
MSFPeakAmp(mV) = 7.92
MSFNUnits = 158
MSFMeanUnitAmp(uV) = 50.1
MSFHuntTime(m) = 2.65
MSFError(%) = 3.02
MSFNLarge = 48.27
MSFMedianAmp(%) = 0.528
MSFMedianAmp(mV) = 0.0418
MSFHalfAmpAmp(%) = 0.68
MSFHalfAmpAmp(mV) = 0.0538
MSFLargestAmp(%) = 3.75
MSFLargestAmp(mV) = 0.297
MSFMeanRS(%) = 2
MSFSizeLimit(uV) = 19.8
MSFLimitType = 1
MSFSmallestAmp(uV) = 21.6
MSFOpts = 10106121

EXTRA WAVEFORMS


!MScan Model
!158
	1	16.22	0.3	2
	2	16.42	0.66	2
	3	16.58	0.64	2
	4	16.85	0.98	2
	5	16.98	0.53	2
	6	17.09	0.39	2
	7	17.19	0.3	2
	8	17.28	0.46	2
	9	17.37	0.56	2
	10	17.46	0.45	2
	11	17.54	0.44	2
	12	17.62	0.43	2
	13	17.69	0.52	2
	14	17.76	0.48	2
	15	17.83	0.42	2
	16	17.89	0.44	2
	17	17.99	0.73	2
	18	18.09	0.71	2
	19	18.19	0.82	2
	20	18.27	0.68	2
	21	18.31	0.38	2
	22	18.39	0.54	2
	23	18.44	0.42	2
	24	18.48	0.43	2
	25	18.52	0.52	2
	26	18.57	0.64	2
	27	18.62	0.54	2
	28	18.65	0.35	2
	29	18.68	0.39	2
	30	18.75	0.58	2
	31	18.78	0.35	2
	32	18.81	0.41	2
	33	18.84	0.39	2
	34	18.89	0.53	2
	35	18.93	0.64	2
	36	18.97	0.6	2
	37	19.02	0.58	2
	38	19.07	0.65	2
	39	19.13	0.7	2
	40	19.18	0.75	2
	41	19.23	0.73	2
	42	19.3	0.9	2
	43	19.37	0.79	2
	44	19.43	0.78	2
	45	19.49	0.8	2
	46	19.55	0.97	2
	47	19.61	0.77	2
	48	19.64	0.43	2
	49	19.66	0.34	2
	50	19.69	0.29	2
	51	19.72	0.34	2
	52	19.75	0.37	2
	53	19.77	0.42	2
	54	19.8	0.44	2
	55	19.83	0.42	2
	56	19.86	0.42	2
	57	19.88	0.5	2
	58	19.91	0.44	2
	59	19.94	0.41	2
	60	19.97	0.4	2
	61	20	0.4	2
	62	20.03	0.51	2
	63	20.08	0.52	2
	64	20.12	0.32	2
	65	20.16	0.4	2
	66	20.23	0.57	2
	67	20.29	0.9	2
	68	20.36	0.74	2
	69	20.42	0.45	2
	70	20.46	0.27	2
	71	20.49	0.32	2
	72	20.53	0.38	2
	73	20.56	0.37	2
	74	20.6	0.44	2
	75	20.66	0.69	2
	76	20.77	0.67	2
	77	20.82	0.65	2
	78	20.95	1.31	2
	79	21.25	2.55	2
	80	21.42	1.36	2
	81	21.49	0.65	2
	82	21.56	0.72	2
	83	21.63	0.9	2
	84	21.69	0.78	2
	85	21.73	0.54	2
	86	21.78	0.47	2
	87	21.82	0.57	2
	88	21.86	0.54	2
	89	21.88	0.33	2
	90	21.9	0.33	2
	91	21.93	0.34	2
	92	21.95	0.34	2
	93	21.97	0.34	2
	94	21.99	0.39	2
	95	22.02	0.48	2
	96	22.04	0.43	2
	97	22.06	0.34	2
	98	22.08	0.37	2
	99	22.11	0.4	2
	100	22.13	0.47	2
	101	22.16	0.57	2
	102	22.19	3.75	2
	103	22.19	0.56	2
	104	22.22	1.69	2
	105	22.23	0.65	2
	106	22.26	0.7	2
	107	22.29	0.7	2
	108	22.33	0.94	2
	109	22.38	1.23	2
	110	22.42	0.51	2
	111	22.51	1.05	2
	112	22.56	1.21	2
	113	23.52	1.78	2
	114	23.71	1.2	2
	115	23.9	0.57	2
	116	24.03	1.5	2
	117	24.13	0.36	2
	118	24.23	0.93	2
	119	24.32	0.87	2
	120	24.42	0.79	2
	121	24.48	0.55	2
	122	24.54	0.38	2
	123	24.59	0.59	2
	124	24.65	0.46	2
	125	24.7	0.37	2
	126	24.76	0.4	2
	127	24.82	0.41	2
	128	24.88	0.29	2
	129	24.96	0.37	2
	130	25.14	0.94	2
	131	25.35	0.79	2
	132	25.54	0.74	2
	133	25.86	0.73	2
	134	26.05	0.4	2
	135	26.2	0.53	2
	136	26.32	0.33	2
	137	26.41	0.32	2
	138	26.57	0.65	2
	139	26.78	0.39	2
	140	26.9	0.41	2
	141	27.01	0.36	2
	142	27.28	0.79	2
	143	27.51	0.7	2
	144	27.7	0.64	2
	145	27.89	0.92	2
	146	28.03	0.49	2
	147	28.1	0.37	2
	148	28.22	0.74	2
	149	28.35	0.49	2
	150	28.5	0.86	2
	151	28.66	1.25	2
	152	28.83	1.4	2
	153	30.5	0.47	2
	154	31.05	0.67	2
	155	32.98	0.35	2
	156	33.21	0.27	2
	157	33.46	0.53	2
	158	34.47	1.2	2

