File:              	C:\Qtrac\Data\Daniel M Sørensen\MScan multicentre study\Data from centres\Antalya\Processed data\TR.NC.ANT.4.2-NCC00329C.QZD
Name:              	TR.NC.ANT.4.2
Protocol:          	MSCAN-R2
Date:              	29/3/20
Start time:        	20:12:53
Age:               	21
Sex:               	f
Temperature:       	31.7
S/R sites:         	ADM
NC/disease:        	NC
Operator:          	ab
Comments:          	left ADM
M-SCAN DATA (12.6-0.9m)
Scanpts: 5, 11, 1193, 1207
Stim. (mA)     	Amp. (mV)
MS.1           	21             	8.747
MS.2           	21             	8.713
MS.3           	21             	8.747
MS.4           	21             	8.804
MS.5           	21             	8.776
MS.6           	21             	8.828
MS.7           	21             	8.792
MS.8           	21             	8.76
MS.9           	21             	8.758
MS.10          	21             	8.747
MS.11          	21             	8.731
MS.12          	21             	8.778
MS.13          	21             	8.82
MS.14          	21             	8.81
MS.15          	21             	8.802
MS.16          	21             	8.741
MS.17          	21             	8.733
MS.18          	21             	8.788
MS.19          	21             	8.735
MS.20          	21             	8.703
MS.21          	21             	8.685
MS.22          	21             	8.766
MS.23          	20.915         	8.701
MS.24          	20.875         	8.675
MS.25          	20.833         	8.681
MS.26          	20.79          	8.689
MS.27          	20.75          	8.824
MS.28          	20.708         	8.762
MS.29          	20.667         	8.733
MS.30          	20.625         	8.705
MS.31          	20.585         	8.645
MS.32          	20.542         	8.699
MS.33          	20.502         	8.627
MS.34          	20.46          	8.568
MS.35          	20.42          	8.584
MS.36          	20.38          	8.693
MS.37          	20.337         	8.615
MS.38          	20.297         	8.661
MS.39          	20.257         	8.671
MS.40          	20.217         	8.623
MS.41          	20.177         	8.619
MS.42          	20.135         	8.631
MS.43          	20.095         	8.542
MS.44          	20.055         	8.472
MS.45          	20.015         	8.478
MS.46          	19.975         	8.588
MS.47          	19.935         	8.582
MS.48          	19.895         	8.542
MS.49          	19.855         	8.57
MS.50          	19.817         	8.53
MS.51          	19.778         	8.552
MS.52          	19.737         	8.558
MS.53          	19.698         	8.6
MS.54          	19.657         	8.558
MS.55          	19.62          	8.623
MS.56          	19.58          	8.617
MS.57          	19.54          	8.627
MS.58          	19.502         	8.611
MS.59          	19.462         	8.657
MS.60          	19.425         	8.715
MS.61          	19.385         	8.659
MS.62          	19.347         	8.542
MS.63          	19.307         	8.637
MS.64          	19.27          	8.651
MS.65          	19.23          	8.613
MS.66          	19.192         	8.689
MS.67          	19.155         	8.6
MS.68          	19.115         	8.57
MS.69          	19.077         	8.602
MS.70          	19.04          	8.611
MS.71          	19.002         	8.623
MS.72          	18.962         	8.671
MS.73          	18.925         	8.633
MS.74          	18.887         	8.657
MS.75          	18.85          	8.621
MS.76          	18.812         	8.655
MS.77          	18.775         	8.669
MS.78          	18.737         	8.667
MS.79          	18.7           	8.687
MS.80          	18.663         	8.685
MS.81          	18.625         	8.721
MS.82          	18.587         	8.697
MS.83          	18.55          	8.661
MS.84          	18.515         	8.719
MS.85          	18.477         	8.695
MS.86          	18.44          	8.56
MS.87          	18.403         	8.627
MS.88          	18.368         	8.584
MS.89          	18.33          	8.558
MS.90          	18.292         	8.478
MS.91          	18.257         	8.55
MS.92          	18.22          	8.558
MS.93          	18.182         	8.604
MS.94          	18.147         	8.512
MS.95          	18.11          	8.468
MS.96          	18.075         	8.466
MS.97          	18.038         	8.466
MS.98          	18.003         	8.58
MS.99          	17.967         	8.466
MS.100         	17.93          	8.433
MS.101         	17.895         	8.433
MS.102         	17.86          	8.359
MS.103         	17.823         	8.25
MS.104         	17.788         	8.48
MS.105         	17.753         	8.377
MS.106         	17.717         	8.23
MS.107         	17.682         	8.316
MS.108         	17.645         	7.988
MS.109         	17.61          	8.212
MS.110         	17.575         	8.248
MS.111         	17.54          	8.208
MS.112         	17.505         	8.186
MS.113         	17.47          	8.097
MS.114         	17.435         	7.75
MS.115         	17.4           	7.942
MS.116         	17.365         	8.069
MS.117         	17.333         	7.803
MS.118         	17.297         	7.497
MS.119         	17.262         	7.696
MS.120         	17.227         	7.585
MS.121         	17.192         	7.783
MS.122         	17.16          	7.537
MS.123         	17.125         	7.416
MS.124         	17.09          	7.607
MS.125         	17.057         	7.662
MS.126         	17.022         	7.553
MS.127         	16.987         	7.501
MS.128         	16.955         	7.609
MS.129         	16.92          	7.491
MS.130         	16.887         	7.18
MS.131         	16.852         	7.172
MS.132         	16.82          	7.261
MS.133         	16.785         	7.092
MS.134         	16.753         	7.124
MS.135         	16.717         	7.096
MS.136         	16.685         	7.164
MS.137         	16.653         	7.152
MS.138         	16.618         	7.174
MS.139         	16.585         	7.162
MS.140         	16.552         	7.102
MS.141         	16.52          	7.146
MS.142         	16.485         	7.108
MS.143         	16.452         	7.06
MS.144         	16.42          	6.858
MS.145         	16.387         	6.874
MS.146         	16.355         	6.766
MS.147         	16.323         	6.898
MS.148         	16.29          	6.751
MS.149         	16.257         	6.888
MS.150         	16.225         	6.886
MS.151         	16.192         	6.735
MS.152         	16.16          	6.419
MS.153         	16.128         	6.403
MS.154         	16.095         	6.673
MS.155         	16.062         	6.393
MS.156         	16.03          	6.401
MS.157         	16             	6.308
MS.158         	15.967         	6.226
MS.159         	15.935         	6.212
MS.160         	15.902         	6.242
MS.161         	15.872         	6.038
MS.162         	15.84          	6.059
MS.163         	15.807         	6.165
MS.164         	15.777         	5.99
MS.165         	15.745         	6.032
MS.166         	15.712         	6.067
MS.167         	15.682         	6.016
MS.168         	15.65          	5.666
MS.169         	15.62          	5.932
MS.170         	15.587         	5.738
MS.171         	15.557         	5.815
MS.172         	15.525         	5.609
MS.173         	15.495         	5.771
MS.174         	15.465         	5.668
MS.175         	15.432         	5.565
MS.176         	15.402         	5.454
MS.177         	15.372         	5.615
MS.178         	15.34          	5.535
MS.179         	15.31          	5.267
MS.180         	15.28          	5.331
MS.181         	15.25          	5.567
MS.182         	15.217         	5.295
MS.183         	15.188         	5.271
MS.184         	15.157         	5.327
MS.185         	15.127         	5.211
MS.186         	15.097         	5.386
MS.187         	15.068         	5.025
MS.188         	15.037         	4.957
MS.189         	15.007         	4.854
MS.190         	14.977         	4.88
MS.191         	14.947         	4.896
MS.192         	14.917         	4.909
MS.193         	14.887         	5.003
MS.194         	14.858         	4.81
MS.195         	14.827         	4.703
MS.196         	14.797         	4.56
MS.197         	14.77          	4.598
MS.198         	14.74          	4.391
MS.199         	14.71          	4.451
MS.200         	14.68          	4.568
MS.201         	14.65          	4.288
MS.202         	14.622         	4.308
MS.203         	14.592         	4.373
MS.204         	14.562         	4.254
MS.205         	14.535         	4.183
MS.206         	14.505         	4.288
MS.207         	14.477         	4.131
MS.208         	14.447         	4.153
MS.209         	14.417         	4.075
MS.210         	14.39          	3.678
MS.211         	14.36          	3.928
MS.212         	14.332         	3.7
MS.213         	14.302         	3.708
MS.214         	14.275         	3.587
MS.215         	14.247         	3.644
MS.216         	14.217         	3.591
MS.217         	14.19          	3.307
MS.218         	14.162         	3.384
MS.219         	14.132         	3.41
MS.220         	14.105         	3.301
MS.221         	14.077         	3.033
MS.222         	14.047         	3.184
MS.223         	14.02          	3.291
MS.224         	13.992         	2.945
MS.225         	13.965         	2.804
MS.226         	13.938         	2.965
MS.227         	13.91          	2.882
MS.228         	13.88          	2.802
MS.229         	13.852         	2.584
MS.230         	13.825         	2.546
MS.231         	13.797         	2.576
MS.232         	13.77          	2.677
MS.233         	13.742         	2.661
MS.234         	13.715         	2.5
MS.235         	13.688         	2.558
MS.236         	13.66          	2.286
MS.237         	13.632         	2.338
MS.238         	13.605         	2.3
MS.239         	13.58          	2.02
MS.240         	13.552         	2.175
MS.241         	13.525         	2.304
MS.242         	13.497         	2.23
MS.243         	13.47          	2.107
MS.244         	13.445         	2.278
MS.245         	13.417         	2.03
MS.246         	13.39          	2.036
MS.247         	13.362         	1.913
MS.248         	13.337         	1.871
MS.249         	13.31          	1.984
MS.250         	13.282         	1.889
MS.251         	13.257         	1.762
MS.252         	13.23          	1.934
MS.253         	13.205         	1.895
MS.254         	13.177         	1.734
MS.255         	13.153         	1.867
MS.256         	13.125         	1.795
MS.257         	13.1           	1.821
MS.258         	13.072         	1.67
MS.259         	13.047         	1.629
MS.260         	13.02          	1.758
MS.261         	12.995         	1.66
MS.262         	12.967         	1.754
MS.263         	12.943         	1.704
MS.264         	12.917         	1.581
MS.265         	12.89          	1.718
MS.266         	12.865         	1.543
MS.267         	12.84          	1.642
MS.268         	12.812         	1.559
MS.269         	12.787         	1.529
MS.270         	12.762         	1.587
MS.271         	12.738         	1.591
MS.272         	12.712         	1.501
MS.273         	12.685         	1.547
MS.274         	12.66          	1.527
MS.275         	12.635         	1.46
MS.276         	12.61          	1.535
MS.277         	12.585         	1.416
MS.278         	12.56          	1.495
MS.279         	12.535         	1.488
MS.280         	12.51          	1.299
MS.281         	12.485         	1.293
MS.282         	12.46          	1.354
MS.283         	12.435         	1.406
MS.284         	12.41          	1.458
MS.285         	12.385         	1.392
MS.286         	12.36          	1.198
MS.287         	12.335         	1.313
MS.288         	12.312         	1.476
MS.289         	12.287         	1.178
MS.290         	12.262         	1.188
MS.291         	12.238         	1.142
MS.292         	12.212         	1.023
MS.293         	12.19          	1.023
MS.294         	12.165         	1.033
MS.295         	12.14          	1.261
MS.296         	12.115         	1.086
MS.297         	12.092         	1.132
MS.298         	12.068         	1.057
MS.299         	12.042         	1.043
MS.300         	12.02          	0.983
MS.301         	11.995         	1.043
MS.302         	11.972         	0.949
MS.303         	11.947         	0.908
MS.304         	11.922         	0.963
MS.305         	11.9           	0.943
MS.306         	11.875         	0.92
MS.307         	11.852         	0.987
MS.308         	11.827         	0.856
MS.309         	11.805         	0.902
MS.310         	11.782         	0.906
MS.311         	11.757         	0.794
MS.312         	11.735         	0.878
MS.313         	11.71          	0.852
MS.314         	11.688         	0.951
MS.315         	11.665         	0.82
MS.316         	11.64          	0.914
MS.317         	11.617         	0.771
MS.318         	11.595         	0.828
MS.319         	11.57          	0.836
MS.320         	11.547         	0.802
MS.321         	11.525         	0.779
MS.322         	11.502         	0.796
MS.323         	11.48          	0.781
MS.324         	11.455         	0.771
MS.325         	11.432         	0.824
MS.326         	11.41          	0.85
MS.327         	11.387         	0.8
MS.328         	11.365         	0.775
MS.329         	11.342         	0.804
MS.330         	11.32          	0.767
MS.331         	11.297         	0.8
MS.332         	11.275         	0.707
MS.333         	11.252         	0.832
MS.334         	11.23          	0.757
MS.335         	11.207         	0.796
MS.336         	11.185         	0.761
MS.337         	11.162         	0.628
MS.338         	11.14          	0.691
MS.339         	11.117         	0.802
MS.340         	11.095         	0.636
MS.341         	11.073         	0.669
MS.342         	11.05          	0.624
MS.343         	11.03          	0.685
MS.344         	11.007         	0.677
MS.345         	10.985         	0.638
MS.346         	10.962         	0.584
MS.347         	10.94          	0.636
MS.348         	10.92          	0.52
MS.349         	10.898         	0.606
MS.350         	10.875         	0.634
MS.351         	10.855         	0.632
MS.352         	10.832         	0.729
MS.353         	10.81          	0.586
MS.354         	10.79          	0.572
MS.355         	10.767         	0.538
MS.356         	10.745         	0.61
MS.357         	10.725         	0.59
MS.358         	10.702         	0.61
MS.359         	10.682         	0.451
MS.360         	10.66          	0.435
MS.361         	10.64          	0.532
MS.362         	10.617         	0.514
MS.363         	10.597         	0.604
MS.364         	10.575         	0.437
MS.365         	10.555         	0.538
MS.366         	10.532         	0.435
MS.367         	10.512         	0.467
MS.368         	10.49          	0.574
MS.369         	10.47          	0.514
MS.370         	10.45          	0.423
MS.371         	10.427         	0.457
MS.372         	10.407         	0.497
MS.373         	10.387         	0.453
MS.374         	10.365         	0.437
MS.375         	10.345         	0.423
MS.376         	10.325         	0.401
MS.377         	10.305         	0.425
MS.378         	10.282         	0.445
MS.379         	10.262         	0.421
MS.380         	10.242         	0.417
MS.381         	10.222         	0.409
MS.382         	10.202         	0.413
MS.383         	10.18          	0.383
MS.384         	10.16          	0.35
MS.385         	10.14          	0.399
MS.386         	10.12          	0.393
MS.387         	10.1           	0.401
MS.388         	10.08          	0.354
MS.389         	10.06          	0.361
MS.390         	10.04          	0.373
MS.391         	10.02          	0.375
MS.392         	10             	0.369
MS.393         	9.98           	0.35
MS.394         	9.96           	0.348
MS.395         	9.94           	0.334
MS.396         	9.92           	0.342
MS.397         	9.9            	0.326
MS.398         	9.88           	0.32
MS.399         	9.86           	0.312
MS.400         	9.84           	0.328
MS.401         	9.82           	0.312
MS.402         	9.802          	0.306
MS.403         	9.782          	0.318
MS.404         	9.762          	0.308
MS.405         	9.742          	0.312
MS.406         	9.722          	0.298
MS.407         	9.705          	0.298
MS.408         	9.685          	0.3
MS.409         	9.665          	0.318
MS.410         	9.645          	0.298
MS.411         	9.627          	0.296
MS.412         	9.608          	0.302
MS.413         	9.587          	0.278
MS.414         	9.57           	0.29
MS.415         	9.55           	0.286
MS.416         	9.53           	0.3
MS.417         	9.512          	0.294
MS.418         	9.492          	0.29
MS.419         	9.472          	0.294
MS.420         	9.455          	0.29
MS.421         	9.435          	0.302
MS.422         	9.417          	0.29
MS.423         	9.398          	0.274
MS.424         	9.38           	0.29
MS.425         	9.36           	0.298
MS.426         	9.342          	0.282
MS.427         	9.323          	0.286
MS.428         	9.305          	0.284
MS.429         	9.285          	0.29
MS.430         	9.267          	0.282
MS.431         	9.25           	0.286
MS.432         	9.23           	0.292
MS.433         	9.212          	0.284
MS.434         	9.193          	0.286
MS.435         	9.175          	0.28
MS.436         	9.158          	0.288
MS.437         	9.137          	0.292
MS.438         	9.12           	0.286
MS.439         	9.102          	0.284
MS.440         	9.085          	0.296
MS.441         	9.065          	0.298
MS.442         	9.047          	0.286
MS.443         	9.03           	0.27
MS.444         	9.012          	0.282
MS.445         	8.992          	0.274
MS.446         	8.975          	0.28
MS.447         	8.957          	0.284
MS.448         	8.94           	0.292
MS.449         	8.922          	0.284
MS.450         	8.905          	0.286
MS.451         	8.887          	0.274
MS.452         	8.867          	0.262
MS.453         	8.85           	0.266
MS.454         	8.832          	0.282
MS.455         	8.815          	0.254
MS.456         	8.797          	0.272
MS.457         	8.78           	0.264
MS.458         	8.762          	0.272
MS.459         	8.745          	0.248
MS.460         	8.727          	0.248
MS.461         	8.71           	0.25
MS.462         	8.693          	0.234
MS.463         	8.675          	0.242
MS.464         	8.658          	0.236
MS.465         	8.64           	0.244
MS.466         	8.622          	0.238
MS.467         	8.608          	0.232
MS.468         	8.59           	0.236
MS.469         	8.573          	0.24
MS.470         	8.555          	0.246
MS.471         	8.537          	0.24
MS.472         	8.52           	0.24
MS.473         	8.505          	0.236
MS.474         	8.488          	0.236
MS.475         	8.47           	0.238
MS.476         	8.452          	0.234
MS.477         	8.435          	0.226
MS.478         	8.42           	0.222
MS.479         	8.403          	0.226
MS.480         	8.385          	0.238
MS.481         	8.37           	0.236
MS.482         	8.352          	0.236
MS.483         	8.335          	0.234
MS.484         	8.32           	0.23
MS.485         	8.302          	0.226
MS.486         	8.285          	0.22
MS.487         	8.27           	0.222
MS.488         	8.252          	0.232
MS.489         	8.235          	0.216
MS.490         	8.22           	0.22
MS.491         	8.202          	0.218
MS.492         	8.188          	0.226
MS.493         	8.17           	0.218
MS.494         	8.155          	0.222
MS.495         	8.137          	0.222
MS.496         	8.122          	0.22
MS.497         	8.105          	0.222
MS.498         	8.09           	0.216
MS.499         	8.073          	0.22
MS.500         	8.057          	0.218
MS.501         	8.04           	0.218
MS.502         	8.025          	0.22
MS.503         	8.007          	0.214
MS.504         	7.992          	0.218
MS.505         	7.977          	0.218
MS.506         	7.96           	0.22
MS.507         	7.945          	0.214
MS.508         	7.93           	0.218
MS.509         	7.912          	0.211
MS.510         	7.898          	0.222
MS.511         	7.882          	0.209
MS.512         	7.865          	0.214
MS.513         	7.85           	0.211
MS.514         	7.835          	0.207
MS.515         	7.817          	0.214
MS.516         	7.802          	0.207
MS.517         	7.787          	0.209
MS.518         	7.773          	0.199
MS.519         	7.757          	0.211
MS.520         	7.74           	0.207
MS.521         	7.725          	0.199
MS.522         	7.71           	0.207
MS.523         	7.695          	0.197
MS.524         	7.68           	0.201
MS.525         	7.665          	0.201
MS.526         	7.648          	0.203
MS.527         	7.632          	0.199
MS.528         	7.617          	0.207
MS.529         	7.602          	0.203
MS.530         	7.587          	0.199
MS.531         	7.572          	0.199
MS.532         	7.557          	0.201
MS.533         	7.543          	0.209
MS.534         	7.527          	0.195
MS.535         	7.512          	0.203
MS.536         	7.497          	0.195
MS.537         	7.482          	0.195
MS.538         	7.467          	0.201
MS.539         	7.452          	0.201
MS.540         	7.438          	0.193
MS.541         	7.422          	0.197
MS.542         	7.407          	0.193
MS.543         	7.392          	0.193
MS.544         	7.378          	0.189
MS.545         	7.347          	0.187
MS.546         	7.335          	0.193
MS.547         	7.32           	0.187
MS.548         	7.29           	0.193
MS.549         	7.275          	0.185
MS.550         	7.26           	0.191
MS.551         	7.247          	0.183
MS.552         	7.233          	0.189
MS.553         	7.217          	0.177
MS.554         	7.202          	0.183
MS.555         	7.19           	0.187
MS.556         	7.175          	0.177
MS.557         	7.16           	0.187
MS.558         	7.145          	0.181
MS.559         	7.132          	0.187
MS.560         	7.117          	0.185
MS.561         	7.102          	0.181
MS.562         	7.09           	0.185
MS.563         	7.075          	0.185
MS.564         	7.06           	0.183
MS.565         	7.047          	0.171
MS.566         	7.032          	0.177
MS.567         	7.017          	0.179
MS.568         	7.005          	0.181
MS.569         	6.99           	0.177
MS.570         	6.977          	0.179
MS.571         	6.962          	0.179
MS.572         	6.947          	0.177
MS.573         	6.935          	0.177
MS.574         	6.92           	0.177
MS.575         	6.907          	0.177
MS.576         	6.892          	0.173
MS.577         	6.88           	0.179
MS.578         	6.865          	0.167
MS.579         	6.852          	0.175
MS.580         	6.837          	0.175
MS.581         	6.825          	0.163
MS.582         	6.81           	0.169
MS.583         	6.797          	0.167
MS.584         	6.782          	0.177
MS.585         	6.77           	0.165
MS.586         	6.757          	0.175
MS.587         	6.742          	0.165
MS.588         	6.73           	0.165
MS.589         	6.715          	0.167
MS.590         	6.702          	0.169
MS.591         	6.69           	0.175
MS.592         	6.675          	0.167
MS.593         	6.662          	0.169
MS.594         	6.65           	0.169
MS.595         	6.635          	0.163
MS.596         	6.622          	0.165
MS.597         	6.61           	0.159
MS.598         	6.597          	0.163
MS.599         	6.582          	0.161
MS.600         	6.57           	0.165
MS.601         	6.557          	0.159
MS.602         	6.545          	0.165
MS.603         	6.53           	0.165
MS.604         	6.517          	0.153
MS.605         	6.505          	0.155
MS.606         	6.492          	0.155
MS.607         	6.477          	0.165
MS.608         	6.465          	0.159
MS.609         	6.452          	0.163
MS.610         	6.44           	0.165
MS.611         	6.427          	0.155
MS.612         	6.415          	0.159
MS.613         	6.402          	0.157
MS.614         	6.387          	0.165
MS.615         	6.375          	0.161
MS.616         	6.362          	0.163
MS.617         	6.35           	0.159
MS.618         	6.338          	0.151
MS.619         	6.325          	0.155
MS.620         	6.312          	0.155
MS.621         	6.3            	0.157
MS.622         	6.287          	0.149
MS.623         	6.275          	0.157
MS.624         	6.262          	0.155
MS.625         	6.25           	0.145
MS.626         	6.237          	0.153
MS.627         	6.225          	0.151
MS.628         	6.213          	0.153
MS.629         	6.2            	0.155
MS.630         	6.188          	0.155
MS.631         	6.175          	0.147
MS.632         	6.162          	0.141
MS.633         	6.15           	0.151
MS.634         	6.137          	0.147
MS.635         	6.112          	0.147
MS.636         	6.102          	0.149
MS.637         	6.09           	0.145
MS.638         	6.077          	0.139
MS.639         	6.065          	0.147
MS.640         	6.052          	0.145
MS.641         	6.04           	0.141
MS.642         	6.027          	0.141
MS.643         	6.017          	0.147
MS.644         	6.005          	0.147
MS.645         	5.992          	0.139
MS.646         	5.98           	0.145
MS.647         	5.967          	0.141
MS.648         	5.957          	0.238
MS.649         	5.945          	0.143
MS.650         	5.932          	0.153
MS.651         	5.92           	0.137
MS.652         	5.91           	0.115
MS.653         	5.898          	0.147
MS.654         	5.885          	0.139
MS.655         	5.875          	0.151
MS.656         	5.862          	0.141
MS.657         	5.85           	0.163
MS.658         	5.84           	0.147
MS.659         	5.827          	0.175
MS.660         	5.815          	0.141
MS.661         	5.805          	0.159
MS.662         	5.793          	0.139
MS.663         	5.78           	0.135
MS.664         	5.77           	0.149
MS.665         	5.757          	0.133
MS.666         	5.745          	0.139
MS.667         	5.735          	0.143
MS.668         	5.722          	0.131
MS.669         	5.713          	0.163
MS.670         	5.7            	0.127
MS.671         	5.69           	0.139
MS.672         	5.677          	0.119
MS.673         	5.665          	0.121
MS.674         	5.655          	0.111
MS.675         	5.642          	0.125
MS.676         	5.632          	0.133
MS.677         	5.62           	0.133
MS.678         	5.61           	0.135
MS.679         	5.597          	0.165
MS.680         	5.588          	0.119
MS.681         	5.577          	0.137
MS.682         	5.565          	0.099
MS.683         	5.555          	0.135
MS.684         	5.543          	0.119
MS.685         	5.532          	0.161
MS.686         	5.52           	0.123
MS.687         	5.51           	0.131
MS.688         	5.497          	0.135
MS.689         	5.487          	0.135
MS.690         	5.477          	0.135
MS.691         	5.465          	0.127
MS.692         	5.455          	0.137
MS.693         	5.445          	0.207
MS.694         	5.432          	0.137
MS.695         	5.422          	0.131
MS.696         	5.412          	0.105
MS.697         	5.4            	0.135
MS.698         	5.39           	0.089
MS.699         	5.38           	0.119
MS.700         	5.367          	0.117
MS.701         	5.358          	0.133
MS.702         	5.347          	0.151
MS.703         	5.335          	0.113
MS.704         	5.325          	0.155
MS.705         	5.315          	0.113
MS.706         	5.305          	0.127
MS.707         	5.293          	0.099
MS.708         	5.282          	0.133
MS.709         	5.273          	0.133
MS.710         	5.262          	0.133
MS.711         	5.253          	0.127
MS.712         	5.24           	0.123
MS.713         	5.23           	0.107
MS.714         	5.22           	0.131
MS.715         	5.21           	0.119
MS.716         	5.2            	0.113
MS.717         	5.19           	0.139
MS.718         	5.177          	0.149
MS.719         	5.168          	0.107
MS.720         	5.157          	0.111
MS.721         	5.148          	0.109
MS.722         	5.137          	0.139
MS.723         	5.128          	0.139
MS.724         	5.117          	0.125
MS.725         	5.108          	0.113
MS.726         	5.097          	0.105
MS.727         	5.085          	0.119
MS.728         	5.075          	0.103
MS.729         	5.065          	0.115
MS.730         	5.055          	0.101
MS.731         	5.045          	0.115
MS.732         	5.035          	0.153
MS.733         	5.025          	0.125
MS.734         	5.015          	0.195
MS.735         	5.005          	0.167
MS.736         	4.995          	1.327
MS.737         	4.985          	0.137
MS.738         	4.975          	0.209
MS.739         	4.965          	0.135
MS.740         	4.955          	0.167
MS.741         	4.945          	0.159
MS.742         	4.935          	0.131
MS.743         	4.925          	0.117
MS.744         	4.915          	0.125
MS.745         	4.907          	0.147
MS.746         	4.898          	0.125
MS.747         	4.887          	0.129
MS.748         	4.878          	0.137
MS.749         	4.867          	0.151
MS.750         	4.858          	0.129
MS.751         	4.847          	0.125
MS.752         	4.838          	0.131
MS.753         	4.827          	0.121
MS.754         	4.82           	0.115
MS.755         	4.81           	0.119
MS.756         	4.8            	0.155
MS.757         	4.79           	0.119
MS.758         	4.78           	0.095
MS.759         	4.77           	0.129
MS.760         	4.762          	0.093
MS.761         	4.753          	0.103
MS.762         	4.742          	0.111
MS.763         	4.733          	0.105
MS.764         	4.722          	0.133
MS.765         	4.715          	0.129
MS.766         	4.705          	0.105
MS.767         	4.695          	0.099
MS.768         	4.685          	0.099
MS.769         	4.677          	0.117
MS.770         	4.668          	0.103
MS.771         	4.657          	0.093
MS.772         	4.648          	0.111
MS.773         	4.64           	0.113
MS.774         	4.63           	0.099
MS.775         	4.62           	0.079
MS.776         	4.612          	0.089
MS.777         	4.602          	0.111
MS.778         	4.592          	0.091
MS.779         	4.585          	0.093
MS.780         	4.575          	0.109
MS.781         	4.565          	0.141
MS.782         	4.557          	0.115
MS.783         	4.548          	0.113
MS.784         	4.537          	0.107
MS.785         	4.53           	0.101
MS.786         	4.52           	0.083
MS.787         	4.51           	0.101
MS.788         	4.503          	0.105
MS.789         	4.492          	0.091
MS.790         	4.485          	0.145
MS.791         	4.475          	0.107
MS.792         	4.465          	0.103
MS.793         	4.457          	0.105
MS.794         	4.447          	0.085
MS.795         	4.44           	0.093
MS.796         	4.43           	0.056
MS.797         	4.423          	0.119
MS.798         	4.412          	0.087
MS.799         	4.405          	0.095
MS.800         	4.395          	0.093
MS.801         	4.387          	0.103
MS.802         	4.378          	0.101
MS.803         	4.37           	0.089
MS.804         	4.36           	0.079
MS.805         	4.352          	0.097
MS.806         	4.342          	0.099
MS.807         	4.335          	0.091
MS.808         	4.325          	0.087
MS.809         	4.318          	0.109
MS.810         	4.307          	0.095
MS.811         	4.3            	0.093
MS.812         	4.29           	0.103
MS.813         	4.282          	0.099
MS.814         	4.275          	0.093
MS.815         	4.265          	0.103
MS.816         	4.257          	0.083
MS.817         	4.247          	0.091
MS.818         	4.24           	0.087
MS.819         	4.233          	0.089
MS.820         	4.222          	0.085
MS.821         	4.215          	0.091
MS.822         	4.205          	0.099
MS.823         	4.197          	0.089
MS.824         	4.19           	0.121
MS.825         	4.18           	0.085
MS.826         	4.173          	0.105
MS.827         	4.165          	0.085
MS.828         	4.155          	0.087
MS.829         	4.148          	0.083
MS.830         	4.14           	0.095
MS.831         	4.13           	0.077
MS.832         	4.122          	0.081
MS.833         	4.115          	0.085
MS.834         	4.108          	0.085
MS.835         	4.097          	0.077
MS.836         	4.09           	0.079
MS.837         	4.082          	0.099
MS.838         	4.072          	0.079
MS.839         	4.065          	0.085
MS.840         	4.057          	0.087
MS.841         	4.05           	0.121
MS.842         	4.04           	0.075
MS.843         	4.032          	0.068
MS.844         	4.025          	0.062
MS.845         	4.017          	0.093
MS.846         	4.01           	0.075
MS.847         	4              	0.085
MS.848         	3.992          	0.077
MS.849         	3.985          	0.081
MS.850         	3.977          	0.083
MS.851         	3.97           	0.054
MS.852         	3.96           	0.095
MS.853         	3.952          	0.095
MS.854         	3.945          	0.083
MS.855         	3.938          	0.093
MS.856         	3.93           	0.081
MS.857         	3.922          	0.077
MS.858         	3.915          	0.075
MS.859         	3.905          	0.097
MS.860         	3.897          	0.087
MS.861         	3.89           	0.113
MS.862         	3.882          	0.129
MS.863         	3.875          	0.077
MS.864         	3.867          	0.075
MS.865         	3.86           	0.083
MS.866         	3.852          	0.079
MS.867         	3.845          	0.077
MS.868         	3.837          	0.081
MS.869         	3.827          	0.073
MS.870         	3.82           	0.068
MS.871         	3.812          	0.085
MS.872         	3.805          	0.075
MS.873         	3.797          	0.091
MS.874         	3.79           	0.073
MS.875         	3.783          	0.073
MS.876         	3.775          	0.073
MS.877         	3.767          	0.075
MS.878         	3.76           	0.081
MS.879         	3.752          	0.073
MS.880         	3.745          	0.081
MS.881         	3.737          	0.093
MS.882         	3.73           	0.07
MS.883         	3.722          	0.097
MS.884         	3.715          	0.073
MS.885         	3.707          	0.095
MS.886         	3.7            	0.079
MS.887         	3.692          	0.085
MS.888         	3.685          	0.109
MS.889         	3.678          	0.068
MS.890         	3.67           	0.079
MS.891         	3.665          	0.077
MS.892         	3.658          	0.079
MS.893         	3.65           	0.083
MS.894         	3.642          	0.089
MS.895         	3.635          	0.075
MS.896         	3.627          	0.06
MS.897         	3.62           	0.07
MS.898         	3.612          	0.064
MS.899         	3.605          	0.083
MS.900         	3.597          	0.068
MS.901         	3.592          	0.058
MS.902         	3.585          	0.073
MS.903         	3.577          	0.066
MS.904         	3.57           	0.064
MS.905         	3.562          	0.075
MS.906         	3.555          	0.058
MS.907         	3.547          	0.07
MS.908         	3.543          	0.06
MS.909         	3.535          	0.085
MS.910         	3.527          	0.068
MS.911         	3.52           	0.07
MS.912         	3.512          	0.068
MS.913         	3.505          	0.062
MS.914         	3.5            	0.064
MS.915         	3.492          	0.087
MS.916         	3.485          	0.077
MS.917         	3.477          	0.064
MS.918         	3.472          	0.046
MS.919         	3.465          	0.091
MS.920         	3.457          	0.068
MS.921         	3.45           	0.083
MS.922         	3.442          	0.07
MS.923         	3.438          	0.066
MS.924         	3.43           	0.062
MS.925         	3.422          	0.095
MS.926         	3.415          	0.068
MS.927         	3.41           	0.058
MS.928         	3.402          	0.068
MS.929         	3.395          	0.062
MS.930         	3.39           	0.068
MS.931         	3.382          	0.064
MS.932         	3.375          	0.062
MS.933         	3.367          	0.064
MS.934         	3.362          	0.06
MS.935         	3.355          	0.073
MS.936         	3.347          	0.062
MS.937         	3.342          	0.066
MS.938         	3.335          	0.062
MS.939         	3.327          	0.054
MS.940         	3.322          	0.062
MS.941         	3.315          	0.064
MS.942         	3.307          	0.062
MS.943         	3.303          	0.06
MS.944         	3.295          	0.058
MS.945         	3.29           	0.062
MS.946         	3.283          	0.056
MS.947         	3.275          	0.064
MS.948         	3.27           	0.06
MS.949         	3.262          	0.066
MS.950         	3.255          	0.058
MS.951         	3.25           	0.058
MS.952         	3.242          	0.062
MS.953         	3.237          	0.066
MS.954         	3.23           	0.075
MS.955         	3.222          	0.06
MS.956         	3.217          	0.058
MS.957         	3.21           	0.066
MS.958         	3.205          	0.056
MS.959         	3.197          	0.062
MS.960         	3.192          	0.058
MS.961         	3.185          	0.064
MS.962         	3.18           	0.058
MS.963         	3.172          	0.054
MS.964         	3.165          	0.058
MS.965         	3.16           	0.062
MS.966         	3.152          	0.068
MS.967         	3.148          	0.058
MS.968         	3.14           	0.054
MS.969         	3.135          	0.054
MS.970         	3.127          	0.054
MS.971         	3.122          	0.064
MS.972         	3.115          	0.064
MS.973         	3.11           	0.068
MS.974         	3.102          	0.05
MS.975         	3.097          	0.058
MS.976         	3.09           	0.064
MS.977         	3.085          	0.056
MS.978         	3.077          	0.064
MS.979         	3.072          	0.056
MS.980         	3.067          	0.042
MS.981         	3.06           	0.054
MS.982         	3.055          	0.062
MS.983         	3.047          	0.058
MS.984         	3.043          	0.054
MS.985         	3.035          	0.06
MS.986         	3.03           	0.052
MS.987         	3.025          	0.05
MS.988         	3.017          	0.058
MS.989         	3.013          	0.048
MS.990         	3.005          	0.062
MS.991         	3              	0.056
MS.992         	2.992          	0.054
MS.993         	2.987          	0.054
MS.994         	2.982          	0.052
MS.995         	2.975          	0.058
MS.996         	2.97           	0.046
MS.997         	2.965          	0.054
MS.998         	2.957          	0.05
MS.999         	2.952          	0.052
MS.1000        	2.945          	0.062
MS.1001        	2.94           	0.05
MS.1002        	2.935          	0.05
MS.1003        	2.928          	0.056
MS.1004        	2.922          	0.052
MS.1005        	2.918          	0.054
MS.1006        	2.91           	0.054
MS.1007        	2.905          	0.056
MS.1008        	2.9            	0.05
MS.1009        	2.892          	0.044
MS.1010        	2.888          	0.052
MS.1011        	2.882          	0.05
MS.1012        	2.877          	0.054
MS.1013        	2.87           	0.052
MS.1014        	2.865          	0.05
MS.1015        	2.86           	0.05
MS.1016        	2.852          	0.046
MS.1017        	2.847          	0.056
MS.1018        	2.842          	0.046
MS.1019        	2.837          	0.05
MS.1020        	2.83           	0.054
MS.1021        	2.825          	0.042
MS.1022        	2.82           	0.048
MS.1023        	2.815          	0.048
MS.1024        	2.807          	0.052
MS.1025        	2.803          	0.042
MS.1026        	2.797          	0.048
MS.1027        	2.793          	0.05
MS.1028        	2.785          	0.046
MS.1029        	2.78           	0.05
MS.1030        	2.775          	0.046
MS.1031        	2.77           	0.048
MS.1032        	2.763          	0.046
MS.1033        	2.757          	0.046
MS.1034        	2.753          	0.048
MS.1035        	2.747          	0.044
MS.1036        	2.742          	0.056
MS.1037        	2.735          	0.048
MS.1038        	2.73           	0.044
MS.1039        	2.725          	0.044
MS.1040        	2.72           	0.04
MS.1041        	2.715          	0.052
MS.1042        	2.71           	0.05
MS.1043        	2.702          	0.058
MS.1044        	2.697          	0.048
MS.1045        	2.692          	0.046
MS.1046        	2.688          	0.044
MS.1047        	2.682          	0.032
MS.1048        	2.678          	0.046
MS.1049        	2.67           	0.044
MS.1050        	2.665          	0.05
MS.1051        	2.66           	0.046
MS.1052        	2.655          	0.048
MS.1053        	2.65           	0.044
MS.1054        	2.645          	0.04
MS.1055        	2.64           	0.048
MS.1056        	2.635          	0.042
MS.1057        	2.63           	0.052
MS.1058        	2.622          	0.05
MS.1059        	2.617          	0.038
MS.1060        	2.612          	0.048
MS.1061        	2.607          	0.044
MS.1062        	2.602          	0.054
MS.1063        	2.597          	0.042
MS.1064        	2.592          	0.044
MS.1065        	2.587          	0.058
MS.1066        	2.582          	0.034
MS.1067        	2.577          	0.036
MS.1068        	2.572          	0.038
MS.1069        	2.567          	0.044
MS.1070        	2.562          	0.044
MS.1071        	2.555          	0.046
MS.1072        	2.55           	0.058
MS.1073        	2.545          	0.038
MS.1074        	2.54           	0.044
MS.1075        	2.535          	0.042
MS.1076        	2.53           	0.052
MS.1077        	2.525          	0.046
MS.1078        	2.52           	0.058
MS.1079        	2.515          	0.04
MS.1080        	2.51           	0.04
MS.1081        	2.505          	0.046
MS.1082        	2.5            	0.044
MS.1083        	2.495          	0.044
MS.1084        	2.49           	0.042
MS.1085        	2.485          	0.058
MS.1086        	2.48           	0.044
MS.1087        	2.475          	0.046
MS.1088        	2.47           	0.054
MS.1089        	2.465          	0.044
MS.1090        	2.46           	0.042
MS.1091        	2.455          	0.04
MS.1092        	2.45           	0.034
MS.1093        	2.445          	0.04
MS.1094        	2.442          	0.048
MS.1095        	2.438          	0.048
MS.1096        	2.432          	0.044
MS.1097        	2.428          	0.04
MS.1098        	2.422          	0.046
MS.1099        	2.418          	0.032
MS.1100        	2.412          	0.038
MS.1101        	2.408          	0.036
MS.1102        	2.402          	0.046
MS.1103        	2.398          	0.04
MS.1104        	2.392          	0.038
MS.1105        	2.388          	0.042
MS.1106        	2.382          	0.046
MS.1107        	2.378          	0.044
MS.1108        	2.375          	0.042
MS.1109        	2.37           	0.042
MS.1110        	2.365          	0.038
MS.1111        	2.36           	0.022
MS.1112        	2.355          	0.048
MS.1113        	2.35           	0.034
MS.1114        	2.345          	0.044
MS.1115        	2.34           	0.04
MS.1116        	2.335          	0.036
MS.1117        	2.332          	0.038
MS.1118        	2.327          	0.03
MS.1119        	2.322          	0.05
MS.1120        	2.317          	0.038
MS.1121        	2.312          	0.042
MS.1122        	2.307          	0.048
MS.1123        	2.303          	0.032
MS.1124        	2.3            	0.034
MS.1125        	2.295          	0.038
MS.1126        	2.29           	0.04
MS.1127        	2.285          	0.038
MS.1128        	2.28           	0.044
MS.1129        	2.275          	0.044
MS.1130        	2.273          	0.04
MS.1131        	2.267          	0.038
MS.1132        	2.263          	0.02
MS.1133        	2.257          	0.034
MS.1134        	2.253          	0.038
MS.1135        	2.25           	0.044
MS.1136        	2.245          	0.04
MS.1137        	2.24           	0.046
MS.1138        	2.235          	0.038
MS.1139        	2.23           	0.046
MS.1140        	2.227          	0.038
MS.1141        	2.222          	0.032
MS.1142        	2.217          	0.05
MS.1143        	2.212          	0.04
MS.1144        	2.21           	0.044
MS.1145        	2.205          	0.034
MS.1146        	2.2            	0.036
MS.1147        	2.195          	0.042
MS.1148        	2.192          	0.034
MS.1149        	2.188          	0.038
MS.1150        	2.182          	0.032
MS.1151        	2.178          	0.038
MS.1152        	2.175          	0.034
MS.1153        	2.17           	0.026
MS.1154        	2.165          	0.036
MS.1155        	2.16           	0.036
MS.1156        	2.158          	0.04
MS.1157        	2.152          	0.032
MS.1158        	2.148          	0.038
MS.1159        	2.142          	0.042
MS.1160        	2.14           	0.036
MS.1161        	2.135          	0.044
MS.1162        	2.13           	0.034
MS.1163        	2.128          	0.034
MS.1164        	2.122          	0.052
MS.1165        	2.118          	0.032
MS.1166        	2.115          	0.03
MS.1167        	2.11           	0.032
MS.1168        	2.105          	0.044
MS.1169        	2.1            	0.038
MS.1170        	2.097          	0.026
MS.1171        	2.092          	0.026
MS.1172        	2.087          	0.026
MS.1173        	2.085          	0.036
MS.1174        	2.08           	0.038
MS.1175        	2.075          	0.042
MS.1176        	2.072          	0.034
MS.1177        	2.067          	0.026
MS.1178        	2.062          	0.038
MS.1179        	2.06           	0.034
MS.1180        	2.055          	0.03
MS.1181        	2.053          	0.034
MS.1182        	2.047          	0.048
MS.1183        	2.043          	0.042
MS.1184        	2.04           	0.036
MS.1185        	2.035          	0.046
MS.1186        	2.03           	0.028
MS.1187        	2.027          	0.036
MS.1188        	2.023          	0.036
MS.1189        	2.02           	0.032
MS.1190        	2.015          	0.028
MS.1191        	2.01           	0.034
MS.1192        	2.007          	0.028
MS.1193        	2.003          	0.034
MS.1194        	1.997          	0.042
MS.1195        	1.995          	0.034
MS.1196        	1.99           	0.036
MS.1197        	1.987          	0.028
MS.1198        	1.982          	0.034
MS.1199        	1.98           	0.034
MS.1200        	1.975          	0.038
MS.1201        	1.97           	0.024
MS.1202        	1.967          	0.024
MS.1203        	1.962          	0.036
MS.1204        	1.96           	0.038
MS.1205        	1.955          	0.032
MS.1206        	1.952          	0.028
MS.1207        	1.947          	0.032
DERIVED EXCITABILITY VARIABLES
Program = QTracP 3/4/2020
Threshold method = 6 (optimised for CAP, using data for present condition only)
SR method = 1 (using actual data values)
6.                 	0.000               	Peak response\(mV)
9.                 	31.7                	Temperature ( C)
17.                	21                  	Age (years)
18.                	2                   	Sex (M=1, F=2)

EXTRA VARIABLES

MScPeak(mV) = 8.73
MScS5(mA) = 9.47
MScS50(mA) = 14.61
MScS95(mA) = 17.75
MScNSteps = 3
MScSteps(%) = 7.1
MScStepMax(%) = 2.9
MScD50 = 44
MScSlope = 5.59
MSFPeakAmp(mV) = 8.74
MSFNUnits = 141
MSFMeanUnitAmp(uV) = 62
MSFHuntTime(m) = 6.82
MSFError(%) = 2.47
MSFNLarge = 44.06
MSFMedianAmp(%) = 0.609
MSFMedianAmp(mV) = 0.0532
MSFHalfAmpAmp(%) = 0.735
MSFHalfAmpAmp(mV) = 0.0642
MSFLargestAmp(%) = 2.99
MSFLargestAmp(mV) = 0.261
MSFMeanRS(%) = 2
MSFOpts = 10106121
MScDuration(min) = 11.7
MSFTraces = 1203
MSFSizeLimit(uV) = 21.8
MSFLimitType = 1
MSFSmallestAmp(uV) = 25.1

EXTRA WAVEFORMS


!MScan Model
!141
	1	3.01	0.65	2
	2	4.62	0.31	2
	3	5.7	0.37	2
	4	6.78	0.4	2
	5	7.44	0.3	2
	6	8.55	0.49	2
	7	8.85	0.37	2
	8	9.72	0.4	2
	9	9.94	0.42	2
	10	10.07	0.49	2
	11	10.31	0.5	2
	12	10.44	0.46	2
	13	10.69	0.84	2
	14	10.97	0.98	2
	15	11.07	0.53	2
	16	11.26	1.11	2
	17	11.79	1.58	2
	18	11.94	0.67	2
	19	11.98	0.35	2
	20	12.02	0.44	2
	21	12.19	1.05	2
	22	12.35	1.93	2
	23	12.5	1.23	2
	24	12.6	0.58	2
	25	12.67	0.75	2
	26	12.76	0.57	2
	27	12.84	0.47	2
	28	12.92	0.61	2
	29	13.01	0.56	2
	30	13.1	0.53	2
	31	13.18	0.74	2
	32	13.27	0.79	2
	33	13.33	0.58	2
	34	13.35	0.33	2
	35	13.38	0.41	2
	36	13.43	0.99	2
	37	13.52	1.23	2
	38	13.58	0.75	2
	39	13.62	0.62	2
	40	13.66	0.71	2
	41	13.7	0.78	2
	42	13.73	0.83	2
	43	13.77	0.84	2
	44	13.81	0.71	2
	45	13.84	0.49	2
	46	13.86	0.41	2
	47	13.88	0.43	2
	48	13.91	0.4	2
	49	13.93	0.57	2
	50	13.95	0.61	2
	51	13.97	0.63	2
	52	14	0.62	2
	53	14.02	0.61	2
	54	14.04	0.63	2
	55	14.07	0.61	2
	56	14.09	0.6	2
	57	14.11	0.62	2
	58	14.14	0.63	2
	59	14.16	0.49	2
	60	14.19	0.52	2
	61	14.21	0.61	2
	62	14.23	0.48	2
	63	14.25	0.46	2
	64	14.27	0.46	2
	65	14.29	0.64	2
	66	14.31	0.67	2
	67	14.33	0.63	2
	68	14.35	0.54	2
	69	14.36	0.5	2
	70	14.38	0.5	2
	71	14.41	0.71	2
	72	14.44	0.74	2
	73	14.47	0.71	2
	74	14.5	0.67	2
	75	14.54	0.73	2
	76	14.57	0.7	2
	77	14.6	0.6	2
	78	14.64	0.56	2
	79	14.67	0.53	2
	80	14.7	0.36	2
	81	14.72	0.38	2
	82	14.74	0.46	2
	83	14.76	0.46	2
	84	14.78	0.47	2
	85	14.81	0.58	2
	86	14.85	0.91	2
	87	14.89	0.82	2
	88	14.93	0.77	2
	89	14.97	0.78	2
	90	15	0.64	2
	91	15.04	0.47	2
	92	15.07	0.44	2
	93	15.11	0.86	2
	94	15.28	2.99	2
	95	15.35	0.87	2
	96	15.41	0.85	2
	97	15.44	0.47	2
	98	15.48	0.48	2
	99	15.52	0.49	2
	100	15.55	0.59	2
	101	15.59	0.63	2
	102	15.64	0.94	2
	103	15.7	0.79	2
	104	15.74	0.45	2
	105	15.76	0.38	2
	106	15.79	0.44	2
	107	15.82	0.46	2
	108	15.85	0.41	2
	109	15.88	0.36	2
	110	15.91	0.36	2
	111	15.94	0.39	2
	112	15.97	0.5	2
	113	16	0.49	2
	114	16.03	0.64	2
	115	16.09	1.23	2
	116	16.14	1.11	2
	117	16.2	0.56	2
	118	16.2	1.02	2
	119	16.28	1.45	2
	120	16.36	1.4	2
	121	16.42	0.64	2
	122	16.48	0.35	2
	123	16.77	1.48	2
	124	16.8	0.48	1.8
	125	16.83	0.41	2
	126	16.9	1.76	2
	127	17.05	1.21	2
	128	17.18	1.51	2
	129	17.26	0.94	2
	130	17.31	0.76	2
	131	17.37	0.86	2
	132	17.51	2.48	2
	133	17.65	1.62	2
	134	17.8	1.28	2
	135	17.94	1.08	2
	136	18.14	0.9	2
	137	18.24	0.34	2
	138	18.32	0.34	2
	139	20.2	0.29	2
	140	20.55	0.84	2
	141	21.04	0.68	2

