File:              	C:\Qtrac\Data\Daniel M Sørensen\MScan multicentre study\Data from centres\Antalya\Processed data\TR.NC.ANT.9.2- NCC01208I.QZD
Name:              	TR.NC.ANT.9.2
Protocol:          	MSCAN-R2
Date:              	8/12/20
Start time:        	18:29:58
Age:               	48
Sex:               	f
Temperature:       	31.8
S/R sites:         	ADM
NC/disease:        	NC
Operator:          	ab
Comments:
M-SCAN DATA (Repeat 2/2, 10.6-3.6m)
Scanpts: 75, 85, 704, 709
Stim. (mA)     	Amp. (mV)
MS.1           	28.5           	7.291
MS.2           	28.5           	7.273
MS.3           	28.5           	7.267
MS.4           	28.5           	7.255
MS.5           	28.5           	7.259
MS.6           	28.5           	7.285
MS.7           	28.5           	7.299
MS.8           	28.5           	7.291
MS.9           	28.5           	7.295
MS.10          	28.5           	7.279
MS.11          	28.5           	7.301
MS.12          	28.5           	7.305
MS.13          	28.5           	7.291
MS.14          	28.5           	7.328
MS.15          	28.5           	7.315
MS.16          	28.5           	7.289
MS.17          	28.5           	7.299
MS.18          	28.5           	7.348
MS.19          	28.5           	7.269
MS.20          	28.5           	7.33
MS.21          	28.5           	7.426
MS.22          	28.5           	7.344
MS.23          	28.5           	7.328
MS.24          	28.442         	7.338
MS.25          	28.385         	7.336
MS.26          	28.33          	7.346
MS.27          	28.272         	7.332
MS.28          	28.217         	7.321
MS.29          	28.16          	7.356
MS.30          	28.105         	7.364
MS.31          	28.047         	7.348
MS.32          	27.993         	7.348
MS.33          	27.935         	7.334
MS.34          	27.88          	7.328
MS.35          	27.825         	7.354
MS.36          	27.767         	7.354
MS.37          	27.712         	7.34
MS.38          	27.657         	7.374
MS.39          	27.602         	7.362
MS.40          	27.547         	7.354
MS.41          	27.493         	7.356
MS.42          	27.438         	7.36
MS.43          	27.382         	7.354
MS.44          	27.327         	7.368
MS.45          	27.272         	7.35
MS.46          	27.217         	7.376
MS.47          	27.165         	7.368
MS.48          	27.11          	7.382
MS.49          	27.055         	7.366
MS.50          	27.002         	7.384
MS.51          	26.948         	7.404
MS.52          	26.895         	7.378
MS.53          	26.84          	7.394
MS.54          	26.787         	7.392
MS.55          	26.733         	7.376
MS.56          	26.68          	7.394
MS.57          	26.627         	7.376
MS.58          	26.573         	7.358
MS.59          	26.52          	7.386
MS.60          	26.467         	7.396
MS.61          	26.415         	7.39
MS.62          	26.362         	7.378
MS.63          	26.31          	7.38
MS.64          	26.257         	7.374
MS.65          	26.205         	7.396
MS.66          	26.153         	7.37
MS.67          	26.1           	7.372
MS.68          	26.047         	7.386
MS.69          	25.995         	7.37
MS.70          	25.942         	7.372
MS.71          	25.89          	7.416
MS.72          	25.84          	7.384
MS.73          	25.787         	7.388
MS.74          	25.737         	7.396
MS.75          	25.685         	7.386
MS.76          	25.632         	7.376
MS.77          	25.582         	7.39
MS.78          	25.532         	7.4
MS.79          	25.48          	7.418
MS.80          	25.43          	7.41
MS.81          	25.377         	7.418
MS.82          	25.327         	7.406
MS.83          	25.278         	7.366
MS.84          	25.227         	7.406
MS.85          	25.177         	7.386
MS.86          	25.125         	7.398
MS.87          	25.075         	7.424
MS.88          	25.025         	7.38
MS.89          	24.975         	7.372
MS.90          	24.925         	7.354
MS.91          	24.875         	7.346
MS.92          	24.827         	7.342
MS.93          	24.778         	7.291
MS.94          	24.727         	7.34
MS.95          	24.677         	7.378
MS.96          	24.627         	7.338
MS.97          	24.58          	7.313
MS.98          	24.53          	7.336
MS.99          	24.48          	7.33
MS.100         	24.432         	7.285
MS.101         	24.382         	7.323
MS.102         	24.335         	7.346
MS.103         	24.285         	7.364
MS.104         	24.237         	7.372
MS.105         	24.19          	7.319
MS.106         	24.14          	7.321
MS.107         	24.092         	7.356
MS.108         	24.045         	7.305
MS.109         	23.997         	7.34
MS.110         	23.948         	7.338
MS.111         	23.9           	7.346
MS.112         	23.852         	7.33
MS.113         	23.805         	7.275
MS.114         	23.757         	7.313
MS.115         	23.71          	7.293
MS.116         	23.663         	7.231
MS.117         	23.615         	7.313
MS.118         	23.567         	7.267
MS.119         	23.52          	7.386
MS.120         	23.475         	7.38
MS.121         	23.427         	7.273
MS.122         	23.38          	7.245
MS.123         	23.335         	7.315
MS.124         	23.288         	7.315
MS.125         	23.24          	7.287
MS.126         	23.195         	7.291
MS.127         	23.147         	7.309
MS.128         	23.102         	7.279
MS.129         	23.055         	7.271
MS.130         	23.01          	7.259
MS.131         	22.962         	7.237
MS.132         	22.917         	7.376
MS.133         	22.872         	7.287
MS.134         	22.825         	7.267
MS.135         	22.78          	7.328
MS.136         	22.735         	7.271
MS.137         	22.69          	7.213
MS.138         	22.645         	7.287
MS.139         	22.6           	7.199
MS.140         	22.555         	7.249
MS.141         	22.507         	7.255
MS.142         	22.465         	7.237
MS.143         	22.42          	7.263
MS.144         	22.375         	7.231
MS.145         	22.33          	7.221
MS.146         	22.285         	7.275
MS.147         	22.24          	7.178
MS.148         	22.195         	7.126
MS.149         	22.153         	7.116
MS.150         	22.108         	7.267
MS.151         	22.062         	7.176
MS.152         	22.02          	7.17
MS.153         	21.975         	7.217
MS.154         	21.93          	7.082
MS.155         	21.887         	7.152
MS.156         	21.842         	7.201
MS.157         	21.8           	7.195
MS.158         	21.757         	7.233
MS.159         	21.712         	7.321
MS.160         	21.67          	7.309
MS.161         	21.625         	7.058
MS.162         	21.583         	7.275
MS.163         	21.54          	7.287
MS.164         	21.497         	7.245
MS.165         	21.455         	7.239
MS.166         	21.41          	7.207
MS.167         	21.368         	7.144
MS.168         	21.325         	7.245
MS.169         	21.282         	7.219
MS.170         	21.24          	7.088
MS.171         	21.198         	7.269
MS.172         	21.155         	7.231
MS.173         	21.112         	7.148
MS.174         	21.07          	6.917
MS.175         	21.03          	7.185
MS.176         	20.987         	6.961
MS.177         	20.945         	6.945
MS.178         	20.903         	7.136
MS.179         	20.862         	6.758
MS.180         	20.82          	6.858
MS.181         	20.778         	7.118
MS.182         	20.737         	6.979
MS.183         	20.695         	6.86
MS.184         	20.655         	6.858
MS.185         	20.612         	6.733
MS.186         	20.573         	6.685
MS.187         	20.53          	7.011
MS.188         	20.49          	6.578
MS.189         	20.448         	6.576
MS.190         	20.407         	6.766
MS.191         	20.368         	6.721
MS.192         	20.325         	6.566
MS.193         	20.285         	6.735
MS.194         	20.245         	6.635
MS.195         	20.205         	6.492
MS.196         	20.165         	6.806
MS.197         	20.125         	6.606
MS.198         	20.083         	6.359
MS.199         	20.042         	6.669
MS.200         	20.002         	6.643
MS.201         	19.962         	6.546
MS.202         	19.922         	6.802
MS.203         	19.885         	6.437
MS.204         	19.845         	6.443
MS.205         	19.805         	6.508
MS.206         	19.765         	6.729
MS.207         	19.725         	6.429
MS.208         	19.685         	6.572
MS.209         	19.647         	6.884
MS.210         	19.608         	6.758
MS.211         	19.567         	6.455
MS.212         	19.53          	6.888
MS.213         	19.49          	6.945
MS.214         	19.45          	7.277
MS.215         	19.413         	7.074
MS.216         	19.372         	6.909
MS.217         	19.335         	6.77
MS.218         	19.295         	6.828
MS.219         	19.257         	6.798
MS.220         	19.22          	6.627
MS.221         	19.18          	6.339
MS.222         	19.142         	6.31
MS.223         	19.105         	6.238
MS.224         	19.065         	6.119
MS.225         	19.028         	6.246
MS.226         	18.99          	6.149
MS.227         	18.952         	6.012
MS.228         	18.915         	5.716
MS.229         	18.875         	6.083
MS.230         	18.837         	5.95
MS.231         	18.8           	5.779
MS.232         	18.762         	5.74
MS.233         	18.725         	5.652
MS.234         	18.688         	5.91
MS.235         	18.65          	6.004
MS.236         	18.615         	5.698
MS.237         	18.577         	5.68
MS.238         	18.54          	5.628
MS.239         	18.503         	5.787
MS.240         	18.465         	5.867
MS.241         	18.427         	5.462
MS.242         	18.392         	5.523
MS.243         	18.355         	5.313
MS.244         	18.317         	5.551
MS.245         	18.282         	5.295
MS.246         	18.245         	5.271
MS.247         	18.21          	5.495
MS.248         	18.172         	5.603
MS.249         	18.135         	5.247
MS.250         	18.1           	5.559
MS.251         	18.062         	6.548
MS.252         	18.028         	5.791
MS.253         	17.993         	5.545
MS.254         	17.955         	5.416
MS.255         	17.92          	5.245
MS.256         	17.885         	5.333
MS.257         	17.847         	5.068
MS.258         	17.812         	5.239
MS.259         	17.778         	5.366
MS.260         	17.743         	5.168
MS.261         	17.705         	5.289
MS.262         	17.67          	5.305
MS.263         	17.635         	5.295
MS.264         	17.6           	5.049
MS.265         	17.565         	5.1
MS.266         	17.53          	5.017
MS.267         	17.495         	4.731
MS.268         	17.46          	4.663
MS.269         	17.425         	5.114
MS.270         	17.39          	4.518
MS.271         	17.355         	4.814
MS.272         	17.32          	4.715
MS.273         	17.285         	4.606
MS.274         	17.253         	5.009
MS.275         	17.217         	4.457
MS.276         	17.182         	4.544
MS.277         	17.147         	4.598
MS.278         	17.115         	4.431
MS.279         	17.08          	4.169
MS.280         	17.045         	4.232
MS.281         	17.012         	4.091
MS.282         	16.977         	4.399
MS.283         	16.945         	4.161
MS.284         	16.91          	4.143
MS.285         	16.875         	3.849
MS.286         	16.842         	3.716
MS.287         	16.81          	4.234
MS.288         	16.775         	3.658
MS.289         	16.743         	3.605
MS.290         	16.708         	3.905
MS.291         	16.675         	3.642
MS.292         	16.642         	3.623
MS.293         	16.608         	3.708
MS.294         	16.575         	3.638
MS.295         	16.542         	3.37
MS.296         	16.51          	3.597
MS.297         	16.475         	3.559
MS.298         	16.442         	2.987
MS.299         	16.41          	3.108
MS.300         	16.378         	3.43
MS.301         	16.345         	3.366
MS.302         	16.312         	3.144
MS.303         	16.28          	3.172
MS.304         	16.247         	2.941
MS.305         	16.215         	3.241
MS.306         	16.182         	3.088
MS.307         	16.15          	2.715
MS.308         	16.118         	2.717
MS.309         	16.085         	2.761
MS.310         	16.052         	2.882
MS.311         	16.02          	2.671
MS.312         	15.99          	2.467
MS.313         	15.957         	2.618
MS.314         	15.925         	2.602
MS.315         	15.892         	2.635
MS.316         	15.862         	2.286
MS.317         	15.83          	2.081
MS.318         	15.797         	2.479
MS.319         	15.767         	2.312
MS.320         	15.735         	2.256
MS.321         	15.705         	2.042
MS.322         	15.672         	2.268
MS.323         	15.64          	2.034
MS.324         	15.61          	2.117
MS.325         	15.577         	1.934
MS.326         	15.547         	2.107
MS.327         	15.517         	2.042
MS.328         	15.485         	2.284
MS.329         	15.455         	1.972
MS.330         	15.422         	1.565
MS.331         	15.392         	1.579
MS.332         	15.362         	1.97
MS.333         	15.332         	1.452
MS.334         	15.3           	1.585
MS.335         	15.27          	1.93
MS.336         	15.24          	1.95
MS.337         	15.21          	1.654
MS.338         	15.18          	1.966
MS.339         	15.148         	2.02
MS.340         	15.117         	2.044
MS.341         	15.087         	1.73
MS.342         	15.057         	1.263
MS.343         	15.027         	1.325
MS.344         	14.997         	1.388
MS.345         	14.967         	1.527
MS.346         	14.938         	1.527
MS.347         	14.907         	1.99
MS.348         	14.877         	1.724
MS.349         	14.847         	1.742
MS.350         	14.82          	1.654
MS.351         	14.79          	1.412
MS.352         	14.76          	1.388
MS.353         	14.73          	1.728
MS.354         	14.7           	1.275
MS.355         	14.672         	1.122
MS.356         	14.642         	1.42
MS.357         	14.612         	1.142
MS.358         	14.582         	1.114
MS.359         	14.555         	1.291
MS.360         	14.525         	1.275
MS.361         	14.497         	1.289
MS.362         	14.467         	1.484
MS.363         	14.438         	1.279
MS.364         	14.41          	1.418
MS.365         	14.38          	1.573
MS.366         	14.352         	1.644
MS.367         	14.322         	1.408
MS.368         	14.295         	1.333
MS.369         	14.267         	1.919
MS.370         	14.237         	1.599
MS.371         	14.21          	1.194
MS.372         	14.18          	1.39
MS.373         	14.153         	1.337
MS.374         	14.125         	1.374
MS.375         	14.095         	1.48
MS.376         	14.068         	1.347
MS.377         	14.04          	1.168
MS.378         	14.012         	1.599
MS.379         	13.985         	1.331
MS.380         	13.955         	0.898
MS.381         	13.927         	1.335
MS.382         	13.9           	1.396
MS.383         	13.872         	1.029
MS.384         	13.845         	1.059
MS.385         	13.818         	1.211
MS.386         	13.79          	1.12
MS.387         	13.762         	1.134
MS.388         	13.735         	1.118
MS.389         	13.707         	0.975
MS.390         	13.68          	0.918
MS.391         	13.653         	1.237
MS.392         	13.625         	1.146
MS.393         	13.597         	0.838
MS.394         	13.57          	1.156
MS.395         	13.542         	1.049
MS.396         	13.517         	1.011
MS.397         	13.49          	1.158
MS.398         	13.462         	0.937
MS.399         	13.435         	0.91
MS.400         	13.407         	1.152
MS.401         	13.382         	1.114
MS.402         	13.355         	0.763
MS.403         	13.327         	1.118
MS.404         	13.302         	1.047
MS.405         	13.275         	0.876
MS.406         	13.25          	1.015
MS.407         	13.222         	0.814
MS.408         	13.195         	0.735
MS.409         	13.17          	1.235
MS.410         	13.142         	1.07
MS.411         	13.117         	0.816
MS.412         	13.09          	0.717
MS.413         	13.065         	0.765
MS.414         	13.037         	0.677
MS.415         	13.012         	0.707
MS.416         	12.987         	0.838
MS.417         	12.96          	0.63
MS.418         	12.935         	0.661
MS.419         	12.907         	0.999
MS.420         	12.882         	0.641
MS.421         	12.858         	0.536
MS.422         	12.832         	0.804
MS.423         	12.805         	0.701
MS.424         	12.78          	0.586
MS.425         	12.755         	0.679
MS.426         	12.73          	0.584
MS.427         	12.705         	0.564
MS.428         	12.677         	0.759
MS.429         	12.653         	0.673
MS.430         	12.627         	0.544
MS.431         	12.602         	0.739
MS.432         	12.577         	0.723
MS.433         	12.552         	0.542
MS.434         	12.528         	0.743
MS.435         	12.502         	0.681
MS.436         	12.477         	0.568
MS.437         	12.452         	0.814
MS.438         	12.427         	0.61
MS.439         	12.403         	0.548
MS.440         	12.377         	0.796
MS.441         	12.352         	0.719
MS.442         	12.327         	0.55
MS.443         	12.302         	0.645
MS.444         	12.28          	0.63
MS.445         	12.255         	0.622
MS.446         	12.23          	0.729
MS.447         	12.205         	0.51
MS.448         	12.182         	0.485
MS.449         	12.157         	0.572
MS.450         	12.132         	0.53
MS.451         	12.108         	0.475
MS.452         	12.085         	0.632
MS.453         	12.06          	0.544
MS.454         	12.035         	0.542
MS.455         	12.012         	0.649
MS.456         	11.988         	0.516
MS.457         	11.965         	0.447
MS.458         	11.94          	0.52
MS.459         	11.917         	0.491
MS.460         	11.892         	0.485
MS.461         	11.867         	0.588
MS.462         	11.845         	0.493
MS.463         	11.822         	0.445
MS.464         	11.797         	0.526
MS.465         	11.775         	0.5
MS.466         	11.75          	0.415
MS.467         	11.727         	0.526
MS.468         	11.702         	0.518
MS.469         	11.68          	0.441
MS.470         	11.657         	0.508
MS.471         	11.632         	0.465
MS.472         	11.61          	0.431
MS.473         	11.587         	0.487
MS.474         	11.565         	0.485
MS.475         	11.54          	0.403
MS.476         	11.517         	0.491
MS.477         	11.495         	0.423
MS.478         	11.472         	0.487
MS.479         	11.45          	0.548
MS.480         	11.425         	0.469
MS.481         	11.403         	0.437
MS.482         	11.38          	0.495
MS.483         	11.358         	0.439
MS.484         	11.335         	0.405
MS.485         	11.312         	0.532
MS.486         	11.29          	0.393
MS.487         	11.267         	0.403
MS.488         	11.245         	0.504
MS.489         	11.222         	0.469
MS.490         	11.2           	0.455
MS.491         	11.177         	0.516
MS.492         	11.155         	0.542
MS.493         	11.132         	0.473
MS.494         	11.11          	0.429
MS.495         	11.087         	0.415
MS.496         	11.068         	0.451
MS.497         	11.045         	0.421
MS.498         	11.023         	0.415
MS.499         	11             	0.399
MS.500         	10.977         	0.493
MS.501         	10.955         	0.435
MS.502         	10.935         	0.441
MS.503         	10.912         	0.407
MS.504         	10.89          	0.461
MS.505         	10.87          	0.437
MS.506         	10.847         	0.465
MS.507         	10.825         	0.439
MS.508         	10.805         	0.389
MS.509         	10.782         	0.389
MS.510         	10.76          	0.387
MS.511         	10.74          	0.346
MS.512         	10.717         	0.324
MS.513         	10.698         	0.391
MS.514         	10.675         	0.399
MS.515         	10.653         	0.365
MS.516         	10.632         	0.399
MS.517         	10.61          	0.322
MS.518         	10.59          	0.359
MS.519         	10.57          	0.344
MS.520         	10.547         	0.308
MS.521         	10.528         	0.318
MS.522         	10.505         	0.359
MS.523         	10.485         	0.361
MS.524         	10.462         	0.381
MS.525         	10.443         	0.282
MS.526         	10.422         	0.272
MS.527         	10.4           	0.294
MS.528         	10.38          	0.284
MS.529         	10.36          	0.306
MS.530         	10.34          	0.288
MS.531         	10.318         	0.264
MS.532         	10.297         	0.288
MS.533         	10.278         	0.296
MS.534         	10.257         	0.308
MS.535         	10.235         	0.252
MS.536         	10.215         	0.214
MS.537         	10.195         	0.25
MS.538         	10.175         	0.268
MS.539         	10.155         	0.292
MS.540         	10.135         	0.25
MS.541         	10.115         	0.236
MS.542         	10.092         	0.201
MS.543         	10.073         	0.26
MS.544         	10.052         	0.256
MS.545         	10.032         	0.246
MS.546         	10.012         	0.254
MS.547         	9.992          	0.224
MS.548         	9.972          	0.238
MS.549         	9.952          	0.214
MS.550         	9.932          	0.177
MS.551         	9.912          	0.181
MS.552         	9.895          	0.222
MS.553         	9.875          	0.222
MS.554         	9.855          	0.157
MS.555         	9.835          	0.222
MS.556         	9.815          	0.244
MS.557         	9.795          	0.246
MS.558         	9.775          	0.205
MS.559         	9.755          	0.226
MS.560         	9.738          	0.157
MS.561         	9.717          	0.216
MS.562         	9.698          	0.207
MS.563         	9.677          	0.161
MS.564         	9.66           	0.207
MS.565         	9.64           	0.211
MS.566         	9.62           	0.157
MS.567         	9.602          	0.216
MS.568         	9.582          	0.155
MS.569         	9.562          	0.149
MS.570         	9.545          	0.177
MS.571         	9.525          	0.143
MS.572         	9.505          	0.167
MS.573         	9.488          	0.155
MS.574         	9.467          	0.155
MS.575         	9.45           	0.121
MS.576         	9.43           	0.113
MS.577         	9.41           	0.155
MS.578         	9.392          	0.109
MS.579         	9.372          	0.111
MS.580         	9.355          	0.121
MS.581         	9.335          	0.155
MS.582         	9.318          	0.117
MS.583         	9.3            	0.101
MS.584         	9.28           	0.119
MS.585         	9.262          	0.125
MS.586         	9.242          	0.105
MS.587         	9.225          	0.173
MS.588         	9.207          	0.123
MS.589         	9.188          	0.107
MS.590         	9.17           	0.087
MS.591         	9.153          	0.105
MS.592         	9.132          	0.167
MS.593         	9.115          	0.123
MS.594         	9.097          	0.131
MS.595         	9.077          	0.103
MS.596         	9.06           	0.125
MS.597         	9.042          	0.159
MS.598         	9.025          	0.107
MS.599         	9.005          	0.101
MS.600         	8.988          	0.089
MS.601         	8.97           	0.103
MS.602         	8.952          	0.125
MS.603         	8.935          	0.107
MS.604         	8.917          	0.111
MS.605         	8.898          	0.105
MS.606         	8.88           	0.105
MS.607         	8.863          	0.129
MS.608         	8.845          	0.101
MS.609         	8.827          	0.103
MS.610         	8.81           	0.093
MS.611         	8.792          	0.099
MS.612         	8.775          	0.103
MS.613         	8.757          	0.111
MS.614         	8.74           	0.089
MS.615         	8.722          	0.091
MS.616         	8.705          	0.093
MS.617         	8.688          	0.083
MS.618         	8.67           	0.091
MS.619         	8.653          	0.095
MS.620         	8.635          	0.089
MS.621         	8.617          	0.093
MS.622         	8.6            	0.089
MS.623         	8.585          	0.089
MS.624         	8.568          	0.093
MS.625         	8.55           	0.091
MS.626         	8.533          	0.091
MS.627         	8.515          	0.095
MS.628         	8.497          	0.091
MS.629         	8.483          	0.099
MS.630         	8.465          	0.093
MS.631         	8.448          	0.099
MS.632         	8.43           	0.038
MS.633         	8.415          	0.038
MS.634         	8.398          	0.097
MS.635         	8.38           	0.093
MS.636         	8.363          	0.038
MS.637         	8.347          	0.034
MS.638         	8.33           	0.006
MS.639         	8.312          	0.038
MS.640         	8.297          	0.105
MS.641         	8.28           	0.038
MS.642         	8.265          	0.04
MS.643         	8.247          	0.038
MS.644         	8.23           	0.103
MS.645         	8.215          	0.036
MS.646         	8.198          	0.038
MS.647         	8.182          	0.052
MS.648         	8.165          	0.046
MS.649         	8.15           	0.05
MS.650         	8.132          	0.046
MS.651         	8.117          	0.056
MS.652         	8.1            	0.044
MS.653         	8.085          	0.038
MS.654         	8.068          	0.034
MS.655         	8.052          	0.042
MS.656         	8.035          	0.038
MS.657         	8.02           	0.036
MS.658         	8.002          	0.046
MS.659         	7.987          	0.048
MS.660         	7.972          	0.042
MS.661         	7.955          	0.026
MS.662         	7.94           	0.024
MS.663         	7.925          	0.036
MS.664         	7.907          	0.024
MS.665         	7.892          	0.048
MS.666         	7.878          	0.048
MS.667         	7.86           	0.026
MS.668         	7.845          	0.028
MS.669         	7.83           	0.028
MS.670         	7.815          	0.01
MS.671         	7.797          	-0.006
MS.672         	7.782          	0.04
MS.673         	7.767          	0.000
MS.674         	7.753          	0.024
MS.675         	7.735          	0.02
MS.676         	7.72           	-0.006
MS.677         	7.705          	0.026
MS.678         	7.69           	0.018
MS.679         	7.675          	-0.006
MS.680         	7.66           	0.028
MS.681         	7.645          	0.026
MS.682         	7.628          	0.032
MS.683         	7.612          	-0.006
MS.684         	7.597          	-0.008
MS.685         	7.582          	-0.008
MS.686         	7.567          	0.026
MS.687         	7.552          	0.024
MS.688         	7.537          	-0.01
MS.689         	7.523          	0.02
MS.690         	7.507          	0.028
MS.691         	7.492          	0.032
MS.692         	7.477          	-0.008
MS.693         	7.462          	0.024
MS.694         	7.447          	-0.006
MS.695         	7.432          	-0.008
MS.696         	7.418          	0.034
MS.697         	7.402          	-0.008
MS.698         	7.387          	-0.012
MS.699         	7.372          	-0.006
MS.700         	7.36           	-0.006
MS.701         	7.345          	-0.01
MS.702         	7.33           	0.000
MS.703         	7.315          	-0.008
MS.704         	7.3            	-0.004
MS.705         	7.285          	-0.006
MS.706         	7.27           	-0.008
MS.707         	7.257          	-0.01
MS.708         	7.242          	-0.01
MS.709         	7.227          	-0.012
MS.710         	7.212          	-0.002
MS.711         	7.197          	-0.01
MS.712         	7.185          	-0.006
MS.713         	7.17           	-0.006
MS.714         	7.155          	-0.004
MS.715         	7.142          	-0.012
MS.716         	7.128          	-0.002
MS.717         	7.112          	-0.004
MS.718         	7.097          	-0.006
MS.719         	7.085          	-0.006
MS.720         	7.07           	-0.004
MS.721         	7.055          	-0.004
MS.722         	7.043          	-0.006
MS.723         	7.027          	-0.008
MS.724         	7.015          	-0.008
MS.725         	7              	-0.01
MS.726         	6.985          	-0.008
MS.727         	6.972          	-0.006
MS.728         	6.957          	-0.006
MS.729         	6.945          	-0.006
MS.730         	6.93           	-0.006
MS.731         	6.918          	-0.002
MS.732         	6.902          	-0.004
MS.733         	6.89           	-0.006
MS.734         	6.875          	-0.002
MS.735         	6.862          	-0.008
DERIVED EXCITABILITY VARIABLES
Program = QTracP 3/4/2020
Threshold method = 6 (optimised for CAP, using data for present condition only)
SR method = 1 (using actual data values)
6.                 	0.000               	Peak response\(mV)
9.                 	31.8                	Temperature ( C)
17.                	48                  	Age (years)
18.                	2                   	Sex (M=1, F=2)

EXTRA VARIABLES

MScPeak(mV) = 7.31
MScS5(mA) = 10.62
MScS50(mA) = 16.68
MScS95(mA) = 20.5
MScNSteps = 4
MScSteps(%) = 9.5
MScStepMax(%) = 2.7
MScD50 = 48
MScSlope = 5.16
MSFPeakAmp(mV) = 7.4
MSFNUnits = 79
MSFMeanUnitAmp(uV) = 93.7
MSFHuntTime(m) = 2.71
MSFError(%) = 9.33
MSFNLarge = 19.76
MSFMedianAmp(%) = 0.967
MSFMedianAmp(mV) = 0.0716
MSFHalfAmpAmp(%) = 1.69
MSFHalfAmpAmp(mV) = 0.125
MSFLargestAmp(%) = 4.6
MSFLargestAmp(mV) = 0.341
MSFMeanRS(%) = 2.01
MSFOpts = 10106121
MSFTraces = 635
MSFSizeLimit(uV) = 18.7
MSFLimitType = 3
MSFSmallestAmp(uV) = 19.4

EXTRA WAVEFORMS


!MScan Model
!79
	1	7.79	0.43	2
	2	8.63	0.95	2
	3	9.53	0.79	2
	4	9.62	0.35	2
	5	9.93	0.42	2
	6	10.3	0.86	2
	7	10.45	0.52	2
	8	10.65	0.6	2
	9	10.74	0.38	2
	10	10.97	0.63	2
	11	12.09	2.18	2
	12	12.86	2.54	2
	13	13.57	2.94	2
	14	13.57	1.96	2
	15	14.04	2.7	2
	16	14.68	0.92	2
	17	15.04	4.16	2
	18	15.46	2.86	2
	19	15.64	3.55	2
	20	15.71	0.87	2
	21	15.76	0.62	2
	22	15.8	0.78	2
	23	15.85	1.01	2
	24	15.89	0.98	2
	25	15.93	0.81	2
	26	15.97	0.93	2
	27	16.01	0.82	2
	28	16.03	0.69	2
	29	16.06	0.64	2
	30	16.09	0.56	2
	31	16.12	0.56	2
	32	16.14	0.73	2
	33	16.17	0.74	2
	34	16.23	1.42	2
	35	16.32	1.33	2
	36	16.39	1.47	2
	37	16.46	1.69	2
	38	16.54	1.68	2
	39	16.65	1.68	2
	40	16.72	1.51	2
	41	16.8	1.84	2
	42	16.87	1.39	2
	43	16.92	1.19	2
	44	16.98	1.32	2
	45	17.07	1.99	2
	46	17.15	1.93	2
	47	17.29	2.99	2
	48	17.37	1.18	2
	49	17.43	0.97	2
	50	17.5	1.17	2
	51	17.6	1.76	2
	52	17.84	4.6	2
	53	18.37	1.95	2
	54	18.53	1.63	2
	55	18.66	1.44	2
	56	18.76	1.19	2
	57	18.79	0.37	2
	58	18.82	0.37	2
	59	18.85	0.32	2
	60	18.88	0.27	2
	61	18.91	0.26	2
	62	18.94	0.59	2
	63	18.97	0.64	2
	64	19	0.57	2
	65	19.02	0.43	2
	66	19.04	0.46	2
	67	19.05	0.5	2
	68	19.07	0.48	2
	69	19.09	0.46	2
	70	19.11	0.54	2
	71	19.13	0.63	2
	72	19.24	1.92	2.4
	73	20.45	2.76	2
	74	20.65	1.62	2
	75	20.89	1.98	2
	76	21.14	2.11	2
	77	22.35	1.07	2
	78	23.72	1.17	2
	79	24.88	0.69	2

