File:              	C:\Qtrac\Data\Daniel M Sørensen\MScan multicentre study\Data from centres\Oxford\Processed data\ATC01214A.QZD
Name:              	UK.OXF.NC.7.2
Protocol:          	MSCAN-R2
Date:              	14/12/20
Start time:        	11:14:50
Age:               	33
Sex:               	M
Temperature:       	32.5
S/R sites:         	APB
NC/disease:        	NC
Operator:          	AT
Comments:          	Median N ABP 2nd
M-SCAN DATA (5.7-1.6m)
Scanpts: 15, 21, 439, 461
Stim. (mA)     	Amp. (mV)
MS.1           	18             	7.033
MS.2           	18             	7.017
MS.3           	18             	7.058
MS.4           	18             	6.961
MS.5           	18             	6.933
MS.6           	18             	6.929
MS.7           	18             	6.985
MS.8           	18             	6.961
MS.9           	18             	6.969
MS.10          	18             	6.923
MS.11          	18             	6.933
MS.12          	18             	6.993
MS.13          	18             	6.973
MS.14          	18             	6.943
MS.15          	18             	6.917
MS.16          	18             	6.882
MS.17          	18             	6.945
MS.18          	18             	6.991
MS.19          	18             	6.989
MS.20          	18             	6.929
MS.21          	18             	6.909
MS.22          	18             	6.941
MS.23          	18             	6.965
MS.24          	17.927         	6.955
MS.25          	17.892         	6.941
MS.26          	17.858         	6.949
MS.27          	17.82          	6.921
MS.28          	17.785         	6.919
MS.29          	17.75          	6.939
MS.30          	17.715         	6.969
MS.31          	17.68          	6.981
MS.32          	17.642         	7.009
MS.33          	17.608         	6.923
MS.34          	17.573         	6.931
MS.35          	17.538         	6.963
MS.36          	17.503         	6.901
MS.37          	17.467         	6.896
MS.38          	17.432         	6.894
MS.39          	17.397         	6.923
MS.40          	17.362         	6.915
MS.41          	17.33          	6.937
MS.42          	17.295         	6.925
MS.43          	17.26          	6.921
MS.44          	17.225         	6.818
MS.45          	17.19          	6.872
MS.46          	17.157         	6.903
MS.47          	17.122         	6.834
MS.48          	17.087         	6.862
MS.49          	17.052         	6.896
MS.50          	17.02          	6.947
MS.51          	16.985         	6.848
MS.52          	16.952         	6.898
MS.53          	16.917         	6.894
MS.54          	16.885         	6.876
MS.55          	16.85          	6.878
MS.56          	16.817         	6.888
MS.57          	16.782         	6.903
MS.58          	16.75          	6.937
MS.59          	16.715         	6.903
MS.60          	16.682         	6.88
MS.61          	16.65          	6.838
MS.62          	16.615         	6.913
MS.63          	16.583         	6.915
MS.64          	16.55          	6.955
MS.65          	16.517         	6.85
MS.66          	16.483         	6.844
MS.67          	16.45          	6.852
MS.68          	16.417         	6.868
MS.69          	16.385         	6.717
MS.70          	16.352         	6.89
MS.71          	16.32          	6.864
MS.72          	16.288         	6.721
MS.73          	16.255         	6.878
MS.74          	16.222         	6.735
MS.75          	16.19          	6.719
MS.76          	16.157         	6.737
MS.77          	16.125         	6.721
MS.78          	16.092         	6.727
MS.79          	16.06          	6.737
MS.80          	16.028         	6.778
MS.81          	15.997         	6.725
MS.82          	15.965         	6.705
MS.83          	15.932         	6.699
MS.84          	15.9           	6.723
MS.85          	15.87          	6.737
MS.86          	15.837         	6.766
MS.87          	15.805         	6.753
MS.88          	15.775         	6.78
MS.89          	15.742         	6.749
MS.90          	15.71          	6.755
MS.91          	15.68          	6.667
MS.92          	15.648         	6.735
MS.93          	15.617         	6.727
MS.94          	15.585         	6.675
MS.95          	15.555         	6.711
MS.96          	15.523         	6.701
MS.97          	15.492         	6.717
MS.98          	15.462         	6.669
MS.99          	15.43          	6.711
MS.100         	15.4           	6.721
MS.101         	15.37          	6.665
MS.102         	15.337         	6.713
MS.103         	15.307         	6.667
MS.104         	15.277         	6.707
MS.105         	15.247         	6.683
MS.106         	15.217         	6.631
MS.107         	15.185         	6.685
MS.108         	15.155         	6.669
MS.109         	15.125         	6.677
MS.110         	15.095         	6.711
MS.111         	15.065         	6.693
MS.112         	15.035         	6.695
MS.113         	15.005         	6.661
MS.114         	14.975         	6.647
MS.115         	14.945         	6.651
MS.116         	14.915         	6.663
MS.117         	14.885         	6.627
MS.118         	14.855         	6.681
MS.119         	14.825         	6.643
MS.120         	14.795         	6.621
MS.121         	14.767         	6.608
MS.122         	14.737         	6.647
MS.123         	14.707         	6.665
MS.124         	14.677         	6.649
MS.125         	14.65          	6.61
MS.126         	14.62          	6.677
MS.127         	14.59          	6.625
MS.128         	14.562         	6.615
MS.129         	14.532         	6.625
MS.130         	14.502         	6.602
MS.131         	14.475         	6.659
MS.132         	14.445         	6.58
MS.133         	14.417         	6.584
MS.134         	14.387         	6.619
MS.135         	14.36          	6.582
MS.136         	14.33          	6.596
MS.137         	14.302         	6.568
MS.138         	14.273         	6.592
MS.139         	14.245         	6.572
MS.140         	14.215         	6.606
MS.141         	14.188         	6.681
MS.142         	14.16          	6.443
MS.143         	14.13          	6.421
MS.144         	14.102         	6.522
MS.145         	14.075         	6.449
MS.146         	14.047         	6.465
MS.147         	14.017         	6.508
MS.148         	13.99          	6.476
MS.149         	13.962         	6.411
MS.150         	13.935         	6.401
MS.151         	13.907         	6.57
MS.152         	13.88          	6.322
MS.153         	13.85          	6.435
MS.154         	13.822         	6.413
MS.155         	13.795         	6.379
MS.156         	13.767         	6.32
MS.157         	13.74          	6.387
MS.158         	13.712         	6.415
MS.159         	13.685         	6.337
MS.160         	13.657         	6.326
MS.161         	13.632         	6.363
MS.162         	13.605         	6.312
MS.163         	13.577         	6.256
MS.164         	13.55          	6.367
MS.165         	13.523         	6.322
MS.166         	13.495         	6.302
MS.167         	13.467         	6.306
MS.168         	13.443         	6.161
MS.169         	13.415         	6.214
MS.170         	13.387         	6.159
MS.171         	13.362         	6.224
MS.172         	13.335         	6.143
MS.173         	13.307         	6.224
MS.174         	13.282         	6.175
MS.175         	13.255         	6.228
MS.176         	13.227         	6.036
MS.177         	13.202         	6.234
MS.178         	13.175         	6.264
MS.179         	13.15          	6.038
MS.180         	13.122         	6.192
MS.181         	13.097         	6.117
MS.182         	13.07          	5.996
MS.183         	13.045         	6.028
MS.184         	13.017         	6.113
MS.185         	12.992         	6.04
MS.186         	12.967         	6.022
MS.187         	12.94          	6.097
MS.188         	12.915         	5.91
MS.189         	12.89          	5.726
MS.190         	12.862         	6.022
MS.191         	12.837         	5.855
MS.192         	12.812         	5.831
MS.193         	12.785         	5.869
MS.194         	12.76          	5.821
MS.195         	12.735         	5.942
MS.196         	12.71          	5.956
MS.197         	12.685         	5.934
MS.198         	12.66          	5.549
MS.199         	12.632         	5.464
MS.200         	12.608         	5.654
MS.201         	12.582         	5.712
MS.202         	12.557         	5.253
MS.203         	12.532         	5.307
MS.204         	12.507         	5.513
MS.205         	12.483         	5.273
MS.206         	12.457         	5.448
MS.207         	12.432         	5.088
MS.208         	12.407         	5.195
MS.209         	12.382         	5.221
MS.210         	12.36          	5.023
MS.211         	12.335         	5.049
MS.212         	12.31          	4.991
MS.213         	12.285         	4.967
MS.214         	12.26          	4.904
MS.215         	12.235         	4.824
MS.216         	12.212         	4.963
MS.217         	12.188         	5.148
MS.218         	12.162         	4.751
MS.219         	12.137         	4.757
MS.220         	12.115         	4.768
MS.221         	12.09          	4.709
MS.222         	12.065         	4.721
MS.223         	12.042         	4.677
MS.224         	12.017         	4.647
MS.225         	11.992         	4.411
MS.226         	11.97          	4.564
MS.227         	11.945         	4.334
MS.228         	11.922         	4.612
MS.229         	11.898         	4.165
MS.230         	11.875         	4.314
MS.231         	11.85          	4.417
MS.232         	11.827         	4.477
MS.233         	11.802         	4.282
MS.234         	11.78          	4.377
MS.235         	11.755         	4.345
MS.236         	11.733         	4.153
MS.237         	11.71          	4.389
MS.238         	11.685         	4.119
MS.239         	11.662         	4.212
MS.240         	11.64          	4.133
MS.241         	11.615         	3.998
MS.242         	11.592         	4.165
MS.243         	11.57          	4.022
MS.244         	11.547         	3.851
MS.245         	11.523         	3.944
MS.246         	11.5           	3.903
MS.247         	11.477         	3.998
MS.248         	11.455         	3.748
MS.249         	11.432         	4.006
MS.250         	11.407         	3.861
MS.251         	11.385         	3.764
MS.252         	11.363         	3.916
MS.253         	11.34          	3.744
MS.254         	11.318         	3.666
MS.255         	11.295         	3.408
MS.256         	11.273         	3.398
MS.257         	11.25          	3.368
MS.258         	11.227         	3.295
MS.259         	11.205         	3.563
MS.260         	11.182         	3.011
MS.261         	11.16          	3.293
MS.262         	11.137         	3.146
MS.263         	11.115         	3.114
MS.264         	11.092         	3.227
MS.265         	11.073         	3.176
MS.266         	11.05          	3.1
MS.267         	11.028         	3.203
MS.268         	11.005         	3.029
MS.269         	10.983         	2.983
MS.270         	10.962         	2.993
MS.271         	10.94          	2.991
MS.272         	10.917         	2.784
MS.273         	10.895         	2.941
MS.274         	10.875         	2.78
MS.275         	10.852         	2.888
MS.276         	10.83          	2.765
MS.277         	10.81          	2.782
MS.278         	10.787         	2.804
MS.279         	10.765         	2.606
MS.280         	10.745         	2.604
MS.281         	10.722         	2.675
MS.282         	10.702         	2.747
MS.283         	10.68          	2.659
MS.284         	10.657         	2.618
MS.285         	10.637         	2.62
MS.286         	10.615         	2.411
MS.287         	10.595         	2.51
MS.288         	10.573         	2.618
MS.289         	10.552         	2.252
MS.290         	10.532         	2.469
MS.291         	10.51          	2.441
MS.292         	10.49          	2.308
MS.293         	10.467         	2.411
MS.294         	10.448         	2.419
MS.295         	10.427         	2.399
MS.296         	10.405         	2.238
MS.297         	10.385         	2.332
MS.298         	10.365         	2.328
MS.299         	10.342         	2.429
MS.300         	10.323         	2.312
MS.301         	10.302         	2.187
MS.302         	10.282         	2.208
MS.303         	10.26          	2.232
MS.304         	10.24          	2.266
MS.305         	10.22          	2.21
MS.306         	10.2           	2.026
MS.307         	10.18          	2.165
MS.308         	10.16          	2.062
MS.309         	10.14          	2.016
MS.310         	10.117         	2.006
MS.311         	10.097         	2.216
MS.312         	10.077         	1.869
MS.313         	10.057         	2.016
MS.314         	10.037         	1.839
MS.315         	10.017         	1.557
MS.316         	9.997          	1.424
MS.317         	9.977          	1.442
MS.318         	9.957          	1.086
MS.319         	9.938          	1.829
MS.320         	9.917          	1.579
MS.321         	9.898          	1.466
MS.322         	9.877          	1.708
MS.323         	9.86           	1.565
MS.324         	9.84           	1.132
MS.325         	9.82           	1.372
MS.326         	9.8            	1.366
MS.327         	9.78           	1.158
MS.328         	9.76           	0.987
MS.329         	9.74           	1.114
MS.330         	9.722          	0.844
MS.331         	9.702          	1.128
MS.332         	9.682          	1.15
MS.333         	9.662          	1.053
MS.334         	9.645          	1.023
MS.335         	9.625          	0.979
MS.336         	9.605          	0.945
MS.337         	9.587          	0.979
MS.338         	9.568          	0.727
MS.339         	9.547          	0.886
MS.340         	9.53           	0.846
MS.341         	9.51           	0.532
MS.342         	9.49           	0.804
MS.343         	9.472          	0.83
MS.344         	9.452          	0.86
MS.345         	9.435          	0.729
MS.346         	9.415          	0.79
MS.347         	9.398          	0.834
MS.348         	9.377          	0.749
MS.349         	9.36           	0.713
MS.350         	9.34           	0.552
MS.351         	9.323          	0.902
MS.352         	9.302          	0.771
MS.353         	9.285          	0.767
MS.354         	9.265          	0.431
MS.355         	9.247          	0.403
MS.356         	9.23           	0.703
MS.357         	9.21           	0.753
MS.358         	9.193          	0.709
MS.359         	9.175          	0.693
MS.360         	9.155          	0.415
MS.361         	9.137          	0.481
MS.362         	9.12           	0.582
MS.363         	9.1            	0.514
MS.364         	9.082          	0.429
MS.365         	9.065          	0.399
MS.366         	9.047          	0.308
MS.367         	9.028          	0.534
MS.368         	9.01           	0.338
MS.369         	8.992          	0.346
MS.370         	8.975          	0.435
MS.371         	8.957          	0.361
MS.372         	8.938          	0.209
MS.373         	8.92           	0.252
MS.374         	8.903          	0.268
MS.375         	8.885          	0.334
MS.376         	8.867          	0.185
MS.377         	8.85           	0.145
MS.378         	8.832          	0.197
MS.379         	8.815          	0.135
MS.380         	8.797          	0.149
MS.381         	8.78           	0.093
MS.382         	8.762          	0.173
MS.383         	8.745          	0.111
MS.384         	8.727          	0.127
MS.385         	8.71           	0.028
MS.386         	8.693          	0.044
MS.387         	8.675          	0.042
MS.388         	8.658          	0.133
MS.389         	8.64           	0.052
MS.390         	8.622          	0.149
MS.391         	8.605          	0.103
MS.392         	8.587          	0.01
MS.393         	8.57           	0.012
MS.394         	8.552          	0.026
MS.395         	8.537          	0.123
MS.396         	8.52           	0.004
MS.397         	8.502          	0.004
MS.398         	8.485          	0.006
MS.399         	8.467          	0.014
MS.400         	8.452          	0.018
MS.401         	8.435          	0.012
MS.402         	8.417          	0.000
MS.403         	8.4            	0.006
MS.404         	8.385          	0.008
MS.405         	8.367          	0.012
MS.406         	8.35           	-0.008
MS.407         	8.335          	0.008
MS.408         	8.318          	0.016
MS.409         	8.3            	0.012
MS.410         	8.285          	-0.006
MS.411         	8.267          	0.014
MS.412         	8.252          	-0.002
MS.413         	8.235          	0.016
MS.414         	8.217          	0.01
MS.415         	8.202          	0.008
MS.416         	8.185          	-0.006
MS.417         	8.17           	0.014
MS.418         	8.153          	0.01
MS.419         	8.137          	-0.004
MS.420         	8.12           	-0.006
MS.421         	8.105          	-0.004
MS.422         	8.087          	-0.004
MS.423         	8.073          	-0.004
MS.424         	8.055          	-0.006
MS.425         	8.04           	0.014
MS.426         	8.023          	-0.004
MS.427         	8.007          	-0.008
MS.428         	7.992          	-0.004
MS.429         	7.975          	-0.006
MS.430         	7.96           	-0.004
MS.431         	7.942          	0.000
MS.432         	7.927          	-0.004
MS.433         	7.912          	-0.006
MS.434         	7.895          	-0.006
MS.435         	7.88           	-0.008
MS.436         	7.865          	0.000
MS.437         	7.85           	-0.006
MS.438         	7.832          	0.000
MS.439         	7.817          	0.002
MS.440         	7.802          	-0.01
MS.441         	7.787          	-0.006
MS.442         	7.77           	-0.006
MS.443         	7.755          	-0.004
MS.444         	7.74           	-0.004
MS.445         	7.725          	-0.002
MS.446         	7.71           	-0.008
MS.447         	7.692          	-0.006
MS.448         	7.677          	-0.008
MS.449         	7.662          	-0.004
MS.450         	7.648          	-0.004
MS.451         	7.632          	-0.006
MS.452         	7.617          	-0.006
MS.453         	7.602          	-0.002
MS.454         	7.587          	-0.006
MS.455         	7.572          	-0.004
MS.456         	7.555          	-0.004
MS.457         	7.54           	-0.008
MS.458         	7.525          	-0.006
MS.459         	7.51           	-0.006
MS.460         	7.495          	-0.008
MS.461         	7.48           	-0.002
DERIVED EXCITABILITY VARIABLES
Program = QTracP 3/4/2020
Threshold method = 6 (optimised for CAP, using data for present condition only)
SR method = 1 (using actual data values)
6.                 	0.000               	Peak response\(mV)
9.                 	32.5                	Temperature ( C)
17.                	33                  	Age (years)
18.                	1                   	Sex (M=1, F=2)

EXTRA VARIABLES

MScPeak(mV) = 6.97
MScS5(mA) = 9.01
MScS50(mA) = 11.24
MScS95(mA) = 14.51
MScNSteps = 2
MScSteps(%) = 5
MScStepMax(%) = 3
MScD50 = 46
MScSlope = 4.54
MSFPeakAmp(mV) = 6.94
MSFNUnits = 105
MSFMeanUnitAmp(uV) = 66.1
MSFHuntTime(m) = 1.89
MSFError(%) = 3.33
MSFNLarge = 30.82
MSFMedianAmp(%) = 0.802
MSFMedianAmp(mV) = 0.0557
MSFHalfAmpAmp(%) = 1.05
MSFHalfAmpAmp(mV) = 0.0732
MSFLargestAmp(%) = 4.28
MSFLargestAmp(mV) = 0.297
MSFMeanRS(%) = 1.98
MSFOpts = 10106121
MScDuration(min) = 4.1
MSFTraces = 447
MSFSizeLimit(uV) = 17.4
MSFLimitType = 1
MSFSmallestAmp(uV) = 18.8

EXTRA WAVEFORMS


!MScan Model
!105
	1	8.55	0.66	2
	2	8.74	1.05	2
	3	8.79	0.44	2
	4	8.82	0.41	2
	5	8.86	0.46	2
	6	8.89	0.54	2
	7	8.93	0.72	2
	8	8.98	0.79	2
	9	9.02	0.71	2
	10	9.07	1.01	2
	11	9.15	1.01	2
	12	9.32	2.87	1.6
	13	9.49	1.03	2
	14	9.55	0.96	2
	15	9.61	0.8	2
	16	9.67	1.21	2
	17	9.73	1.87	2
	18	9.79	2.17	2
	19	9.83	2.21	2
	20	9.95	4.28	2
	21	10.01	1.53	1.8
	22	10.06	1.71	2
	23	10.1	1.44	2
	24	10.14	1.12	2
	25	10.28	1.24	2
	26	10.34	0.77	2
	27	10.45	1.36	2
	28	10.5	0.45	2
	29	10.55	0.84	2
	30	10.59	0.9	2
	31	10.65	0.65	2
	32	10.69	0.71	2
	33	10.73	0.68	2
	34	10.76	0.68	2
	35	10.79	0.52	2
	36	10.81	0.31	2
	37	10.83	0.27	2
	38	10.85	0.36	2
	39	10.87	0.41	2
	40	10.89	0.43	2
	41	10.91	0.43	2
	42	10.93	0.41	2
	43	10.95	0.38	2
	44	10.97	0.36	2
	45	10.98	0.4	2
	46	11	0.4	2
	47	11.07	1.5	2
	48	11.12	0.72	2
	49	11.15	0.58	2
	50	11.18	0.89	2
	51	11.21	0.99	2
	52	11.24	0.95	2
	53	11.26	0.81	2
	54	11.29	0.76	2
	55	11.33	1.11	2
	56	11.39	2.5	2
	57	11.45	0.98	2
	58	11.5	1.26	2
	59	11.55	0.95	2
	60	11.58	0.49	2
	61	11.6	0.45	2
	62	11.63	0.47	2
	63	11.66	0.57	2
	64	11.68	0.6	2
	65	11.83	2.31	2
	66	11.9	1.42	2
	67	11.95	0.89	2
	68	11.99	0.54	2
	69	12.03	0.77	2
	70	12.07	1.09	2
	71	12.11	1.09	2
	72	12.15	0.76	2
	73	12.2	0.9	2
	74	12.24	1.11	2
	75	12.29	1.05	2
	76	12.32	0.73	2
	77	12.35	0.44	2
	78	12.38	0.5	2
	79	12.4	0.72	2
	80	12.43	0.95	2
	81	12.47	0.97	2
	82	12.5	0.97	2
	83	12.54	1.09	2
	84	12.58	1.24	2
	85	12.62	0.74	2
	86	12.67	1.39	1.6
	87	12.78	2.22	1.8
	88	12.88	1.44	2
	89	13	1.28	2
	90	13.19	1.61	2
	91	13.38	1.21	2
	92	13.46	0.53	2
	93	13.54	0.4	2
	94	13.63	0.59	2
	95	13.82	1.04	2
	96	14	1	2
	97	14.1	0.44	2
	98	14.23	0.76	2
	99	14.53	0.98	2
	100	14.83	0.45	2
	101	15.43	0.71	2
	102	16	0.52	2
	103	16.23	0.64	2
	104	16.53	1.27	2
	105	17.4	0.7	2

