File:              	C:\Qtrac\Data\Daniel M Sørensen\MScan multicentre study\Data from centres\Ankara\Processed data\BAC10104B.QZD
Name:              	TR.ANK.NC.1.1
Protocol:          	MSCAN-R2
Date:              	4/1/21
Start time:        	17:04:41
Age:                         29
Sex:               	F
Temperature:
S/R sites:         	APB
NC/disease:        	NC
Operator:          	HA
Comments:
M-SCAN DATA (4.8-1.4m)
Scanpts: 33, 37, 361, 382
Stim. (mA)     	Amp. (mV)
MS.1           	13.5           	10.49
MS.2           	13.5           	10.504
MS.3           	13.5           	10.522
MS.4           	13.5           	10.522
MS.5           	13.5           	10.502
MS.6           	13.5           	10.518
MS.7           	13.5           	10.556
MS.8           	13.5           	10.558
MS.9           	13.5           	10.572
MS.10          	13.5           	10.594
MS.11          	13.5           	10.613
MS.12          	13.5           	10.588
MS.13          	13.5           	10.592
MS.14          	13.5           	10.584
MS.15          	13.5           	10.592
MS.16          	13.5           	10.592
MS.17          	13.5           	10.592
MS.18          	13.5           	10.599
MS.19          	13.5           	10.601
MS.20          	13.5           	10.615
MS.21          	13.5           	10.623
MS.22          	13.5           	10.647
MS.23          	13.5           	10.639
MS.24          	13.445         	10.645
MS.25          	13.42          	10.639
MS.26          	13.392         	10.705
MS.27          	13.365         	10.705
MS.28          	13.34          	10.675
MS.29          	13.312         	10.675
MS.30          	13.285         	10.711
MS.31          	13.26          	10.719
MS.32          	13.233         	10.717
MS.33          	13.205         	10.705
MS.34          	13.18          	10.723
MS.35          	13.153         	10.744
MS.36          	13.127         	10.737
MS.37          	13.1           	10.721
MS.38          	13.075         	10.721
MS.39          	13.047         	10.713
MS.40          	13.023         	10.735
MS.41          	12.997         	10.731
MS.42          	12.97          	10.701
MS.43          	12.945         	10.752
MS.44          	12.92          	10.746
MS.45          	12.892         	10.705
MS.46          	12.867         	10.665
MS.47          	12.842         	10.659
MS.48          	12.815         	10.653
MS.49          	12.79          	10.641
MS.50          	12.765         	10.675
MS.51          	12.74          	10.601
MS.52          	12.715         	10.762
MS.53          	12.688         	10.611
MS.54          	12.662         	10.643
MS.55          	12.637         	10.592
MS.56          	12.613         	10.687
MS.57          	12.587         	10.653
MS.58          	12.562         	10.627
MS.59          	12.537         	10.516
MS.60          	12.512         	10.52
MS.61          	12.488         	10.572
MS.62          	12.462         	10.552
MS.63          	12.438         	10.56
MS.64          	12.412         	10.552
MS.65          	12.387         	10.55
MS.66          	12.363         	10.562
MS.67          	12.337         	10.484
MS.68          	12.312         	10.57
MS.69          	12.29          	10.568
MS.70          	12.265         	10.568
MS.71          	12.24          	10.506
MS.72          	12.215         	10.508
MS.73          	12.19          	10.564
MS.74          	12.167         	10.51
MS.75          	12.142         	10.482
MS.76          	12.117         	10.466
MS.77          	12.092         	10.359
MS.78          	12.07          	10.528
MS.79          	12.045         	10.445
MS.80          	12.023         	10.439
MS.81          	11.997         	10.441
MS.82          	11.972         	10.431
MS.83          	11.95          	10.202
MS.84          	11.925         	10.194
MS.85          	11.903         	10.484
MS.86          	11.877         	10.232
MS.87          	11.855         	10.167
MS.88          	11.83          	10.012
MS.89          	11.807         	10.546
MS.90          	11.782         	10.484
MS.91          	11.76          	10.029
MS.92          	11.738         	10.133
MS.93          	11.712         	10.131
MS.94          	11.69          	10.153
MS.95          	11.665         	10.081
MS.96          	11.642         	9.996
MS.97          	11.62          	9.964
MS.98          	11.597         	10.151
MS.99          	11.572         	10.163
MS.100         	11.55          	10.081
MS.101         	11.528         	9.942
MS.102         	11.505         	9.928
MS.103         	11.48          	9.956
MS.104         	11.457         	9.97
MS.105         	11.435         	10.037
MS.106         	11.412         	9.926
MS.107         	11.39          	9.942
MS.108         	11.367         	9.898
MS.109         	11.345         	9.885
MS.110         	11.322         	9.535
MS.111         	11.297         	9.821
MS.112         	11.275         	9.855
MS.113         	11.252         	9.875
MS.114         	11.23          	9.557
MS.115         	11.207         	9.753
MS.116         	11.188         	9.799
MS.117         	11.165         	9.376
MS.118         	11.142         	9.434
MS.119         	11.12          	9.682
MS.120         	11.097         	9.475
MS.121         	11.075         	9.624
MS.122         	11.052         	9.416
MS.123         	11.03          	9.299
MS.124         	11.007         	9.39
MS.125         	10.988         	9.205
MS.126         	10.965         	9.09
MS.127         	10.943         	9.229
MS.128         	10.92          	9.11
MS.129         	10.9           	9.336
MS.130         	10.877         	8.862
MS.131         	10.855         	9.207
MS.132         	10.835         	8.756
MS.133         	10.812         	8.586
MS.134         	10.79          	8.661
MS.135         	10.77          	8.651
MS.136         	10.747         	8.252
MS.137         	10.725         	8.615
MS.138         	10.705         	8.204
MS.139         	10.682         	8.461
MS.140         	10.662         	8.54
MS.141         	10.64          	8.242
MS.142         	10.62          	7.887
MS.143         	10.597         	8.292
MS.144         	10.577         	8
MS.145         	10.555         	8.182
MS.146         	10.535         	7.805
MS.147         	10.515         	7.869
MS.148         	10.492         	8.01
MS.149         	10.472         	7.775
MS.150         	10.45          	7.69
MS.151         	10.43          	7.571
MS.152         	10.41          	7.418
MS.153         	10.387         	7.174
MS.154         	10.367         	7.694
MS.155         	10.347         	7.462
MS.156         	10.325         	7.748
MS.157         	10.305         	7.303
MS.158         	10.285         	7.029
MS.159         	10.265         	6.669
MS.160         	10.245         	6.836
MS.161         	10.222         	7.273
MS.162         	10.202         	6.931
MS.163         	10.182         	6.647
MS.164         	10.162         	6.723
MS.165         	10.142         	6.878
MS.166         	10.122         	6.88
MS.167         	10.102         	6.774
MS.168         	10.082         	6.459
MS.169         	10.06          	5.934
MS.170         	10.04          	6.536
MS.171         	10.02          	6.141
MS.172         	10             	6.21
MS.173         	9.98           	6.431
MS.174         	9.96           	6.363
MS.175         	9.94           	5.615
MS.176         	9.922          	5.845
MS.177         	9.903          	5.698
MS.178         	9.882          	5.797
MS.179         	9.863          	5.551
MS.180         	9.842          	5.877
MS.181         	9.823          	5.366
MS.182         	9.802          	5.323
MS.183         	9.782          	5.434
MS.184         	9.765          	5.424
MS.185         	9.745          	4.719
MS.186         	9.725          	5.027
MS.187         	9.705          	4.993
MS.188         	9.685          	4.701
MS.189         	9.667          	4.906
MS.190         	9.648          	4.933
MS.191         	9.627          	4.443
MS.192         	9.61           	5.047
MS.193         	9.59           	4.441
MS.194         	9.57           	4.26
MS.195         	9.552          	4.141
MS.196         	9.532          	4.125
MS.197         	9.512          	4.171
MS.198         	9.495          	3.984
MS.199         	9.475          	3.509
MS.200         	9.457          	3.863
MS.201         	9.438          	3.998
MS.202         	9.417          	3.688
MS.203         	9.4            	3.702
MS.204         	9.38           	3.611
MS.205         	9.363          	3.491
MS.206         	9.342          	3.064
MS.207         	9.325          	3.112
MS.208         	9.305          	3.466
MS.209         	9.287          	3.07
MS.210         	9.27           	3.146
MS.211         	9.25           	3.156
MS.212         	9.233          	2.902
MS.213         	9.212          	3.019
MS.214         	9.195          	2.566
MS.215         	9.177          	2.695
MS.216         	9.158          	2.467
MS.217         	9.14           	2.367
MS.218         	9.122          	2.647
MS.219         	9.102          	2.244
MS.220         	9.085          	2.373
MS.221         	9.068          	2.485
MS.222         	9.05           	2.578
MS.223         	9.03           	2.365
MS.224         	9.012          	2.115
MS.225         	8.995          	2.199
MS.226         	8.977          	2.31
MS.227         	8.96           	1.76
MS.228         	8.943          	2.292
MS.229         	8.922          	1.71
MS.230         	8.905          	2.139
MS.231         	8.887          	1.563
MS.232         	8.87           	1.694
MS.233         	8.852          	1.998
MS.234         	8.835          	2.228
MS.235         	8.818          	1.509
MS.236         	8.8            	2.026
MS.237         	8.783          	1.362
MS.238         	8.765          	2.01
MS.239         	8.747          	1.819
MS.240         	8.73           	1.446
MS.241         	8.712          	1.347
MS.242         	8.695          	1.497
MS.243         	8.677          	1.44
MS.244         	8.66           	1.045
MS.245         	8.642          	1.468
MS.246         	8.625          	1.088
MS.247         	8.608          	1.215
MS.248         	8.59           	1.118
MS.249         	8.573          	1.043
MS.250         	8.557          	1.07
MS.251         	8.54           	1.148
MS.252         	8.523          	0.985
MS.253         	8.505          	0.912
MS.254         	8.488          	1.198
MS.255         	8.472          	0.924
MS.256         	8.455          	1.007
MS.257         	8.438          	1.003
MS.258         	8.42           	0.941
MS.259         	8.405          	0.906
MS.260         	8.387          	0.902
MS.261         	8.37           	0.89
MS.262         	8.352          	0.904
MS.263         	8.337          	0.999
MS.264         	8.32           	0.979
MS.265         	8.302          	0.888
MS.266         	8.287          	0.894
MS.267         	8.27           	0.884
MS.268         	8.255          	0.884
MS.269         	8.238          	0.892
MS.270         	8.22           	0.892
MS.271         	8.205          	0.89
MS.272         	8.188          	0.876
MS.273         	8.172          	0.902
MS.274         	8.155          	0.886
MS.275         	8.14           	0.884
MS.276         	8.122          	0.894
MS.277         	8.108          	0.886
MS.278         	8.09           	0.882
MS.279         	8.075          	0.9
MS.280         	8.057          	0.82
MS.281         	8.042          	0.9
MS.282         	8.025          	0.806
MS.283         	8.01           	0.812
MS.284         	7.995          	0.8
MS.285         	7.977          	0.89
MS.286         	7.962          	0.89
MS.287         	7.945          	0.884
MS.288         	7.93           	0.816
MS.289         	7.915          	0.745
MS.290         	7.898          	0.816
MS.291         	7.882          	0.822
MS.292         	7.867          	0.8
MS.293         	7.852          	0.725
MS.294         	7.835          	0.695
MS.295         	7.82           	0.457
MS.296         	7.805          	0.34
MS.297         	7.79           	0.661
MS.298         	7.773          	0.395
MS.299         	7.757          	0.526
MS.300         	7.742          	0.35
MS.301         	7.727          	0.546
MS.302         	7.712          	0.342
MS.303         	7.695          	0.586
MS.304         	7.68           	0.516
MS.305         	7.665          	0.272
MS.306         	7.65           	0.354
MS.307         	7.635          	0.308
MS.308         	7.62           	0.35
MS.309         	7.605          	0.425
MS.310         	7.59           	0.274
MS.311         	7.572          	0.276
MS.312         	7.557          	0.272
MS.313         	7.543          	0.27
MS.314         	7.527          	0.27
MS.315         	7.512          	0.157
MS.316         	7.497          	0.526
MS.317         	7.482          	0.27
MS.318         	7.467          	0.272
MS.319         	7.452          	0.153
MS.320         	7.438          	0.153
MS.321         	7.425          	0.268
MS.322         	7.41           	0.276
MS.323         	7.395          	0.159
MS.324         	7.38           	0.151
MS.325         	7.365          	0.274
MS.326         	7.35           	0.348
MS.327         	7.335          	0.042
MS.328         	7.32           	0.157
MS.329         	7.305          	0.272
MS.330         	7.293          	0.157
MS.331         	7.277          	0.131
MS.332         	7.262          	0.04
MS.333         	7.247          	0.042
MS.334         	7.233          	0.155
MS.335         	7.22           	0.153
MS.336         	7.205          	0.022
MS.337         	7.19           	0.153
MS.338         	7.175          	0.042
MS.339         	7.162          	0.038
MS.340         	7.148          	0.036
MS.341         	7.132          	0.042
MS.342         	7.117          	0.038
MS.343         	7.105          	0.042
MS.344         	7.09           	0.038
MS.345         	7.075          	0.042
MS.346         	7.062          	0.02
MS.347         	7.047          	0.024
MS.348         	7.032          	0.04
MS.349         	7.02           	0.024
MS.350         	7.005          	0.042
MS.351         	6.992          	0.02
MS.352         	6.977          	0.018
MS.353         	6.962          	0.022
MS.354         	6.95           	0.022
MS.355         	6.935          	0.038
MS.356         	6.922          	0.02
MS.357         	6.907          	0.024
MS.358         	6.895          	0.024
MS.359         	6.88           	0.02
MS.360         	6.867          	0.02
MS.361         	6.852          	0.02
MS.362         	6.84           	0.024
MS.363         	6.825          	0.022
MS.364         	6.812          	0.02
MS.365         	6.797          	0.018
MS.366         	6.785          	0.022
MS.367         	6.773          	0.022
MS.368         	6.757          	0.02
MS.369         	6.745          	0.018
MS.370         	6.73           	0.016
MS.371         	6.717          	0.022
MS.372         	6.705          	0.02
MS.373         	6.69           	0.022
MS.374         	6.677          	0.018
MS.375         	6.665          	0.018
MS.376         	6.65           	0.018
MS.377         	6.637          	0.018
MS.378         	6.625          	0.012
MS.379         	6.61           	0.016
MS.380         	6.597          	0.022
MS.381         	6.585          	0.016
MS.382         	6.57           	0.022
DERIVED EXCITABILITY VARIABLES
Program = QTracP 3/4/2020
Threshold method = 6 (optimised for CAP, using data for present condition only)
SR method = 1 (using actual data values)
6.                 	0.000               	Peak response\(mV)
17.                	29              	Age (years)
18.                	2                   	Sex (M=1, F=2)

EXTRA VARIABLES

MScPeak(mV) = 10.55
MScS5(mA) = 7.75
MScS50(mA) = 9.76
MScS95(mA) = 11.62
MScNSteps = 4
MScSteps(%) = 10.2
MScStepMax(%) = 2.9
MScD50 = 38
MScSlope = 7
MSFPeakAmp(mV) = 10.7
MSFNUnits = 99
MSFMeanUnitAmp(uV) = 108.1
MSFHuntTime(m) = 2.07
MSFError(%) = 4.8
MSFNLarge = 32.32
MSFMedianAmp(%) = 0.928
MSFMedianAmp(mV) = 0.0993
MSFHalfAmpAmp(%) = 1.09
MSFHalfAmpAmp(mV) = 0.117
MSFLargestAmp(%) = 2.86
MSFLargestAmp(mV) = 0.306
MSFMeanRS(%) = 1.99
MSFOpts = 10106121
MScDuration(min) = 3.4
MSFTraces = 350
MSFSizeLimit(uV) = 26.8
MSFLimitType = 1
MSFSmallestAmp(uV) = 31.8

EXTRA WAVEFORMS


!MScan Model
!99
	1	7.18	0.46	2
	2	7.27	1.05	2
	3	7.42	0.7	2
	4	7.65	1.11	2
	5	7.7	0.69	2
	6	7.72	0.75	2
	7	7.74	1.79	1.6
	8	7.8	0.36	2
	9	7.84	0.91	2
	10	8.17	0.3	2
	11	8.38	0.56	2
	12	8.46	0.44	2
	13	8.52	0.67	2
	14	8.58	0.97	2
	15	8.63	0.93	2
	16	8.69	1.57	2
	17	8.79	2.11	2
	18	8.9	2.86	2
	19	8.97	1.16	2
	20	9.01	1.13	2
	21	9.05	1.15	2
	22	9.1	1.11	2
	23	9.12	0.78	2
	24	9.15	0.96	2
	25	9.18	0.93	2
	26	9.19	0.53	2
	27	9.21	0.51	2
	28	9.22	0.42	2
	29	9.24	0.38	2
	30	9.25	0.48	2
	31	9.27	0.64	2
	32	9.28	0.64	2
	33	9.31	1.05	2
	34	9.33	1.22	2
	35	9.36	0.94	2
	36	9.38	0.7	2
	37	9.4	0.73	2
	38	9.42	0.8	2
	39	9.44	0.77	2
	40	9.46	0.77	2
	41	9.48	0.86	2
	42	9.5	1.06	2
	43	9.52	0.98	2
	44	9.55	0.88	2
	45	9.57	0.93	2
	46	9.59	0.91	2
	47	9.61	0.88	2
	48	9.63	1.01	2
	49	9.66	1.25	2
	50	9.69	1.46	2
	51	9.72	1.23	2
	52	9.75	1.05	2
	53	9.77	0.71	2
	54	9.79	0.6	2
	55	9.81	0.84	2
	56	9.84	1.43	2
	57	9.88	1.71	2
	58	9.92	1.26	2
	59	9.96	1.28	2
	60	10	1.53	2
	61	10.06	2	2
	62	10.14	2.46	2
	63	10.2	2.62	2
	64	10.25	1.41	2
	65	10.3	1.01	2
	66	10.34	1.39	2
	67	10.38	1.46	2
	68	10.42	1.3	2
	69	10.45	0.81	2
	70	10.48	0.61	2
	71	10.51	0.37	2
	72	10.53	0.73	2
	73	10.57	1.01	2
	74	10.62	0.45	1.8
	75	10.62	1.55	2
	76	10.66	0.93	2
	77	10.69	0.8	2
	78	10.72	1.14	2
	79	10.76	1.03	2
	80	10.78	0.86	2
	81	10.81	0.52	2
	82	10.86	0.71	2
	83	10.89	1.09	2
	84	10.94	1.99	2
	85	11	0.82	2
	86	11.01	1.05	2
	87	11.03	0.72	2
	88	11.07	0.6	2
	89	11.15	1.45	2
	90	11.3	0.79	2
	91	11.4	1.24	2
	92	11.5	0.86	2
	93	11.71	1.45	2
	94	11.93	1.85	2
	95	12.08	0.89	2
	96	12.19	0.47	2
	97	12.48	0.61	2
	98	12.63	0.44	2
	99	12.87	0.66	2


