File:              	C:\Qtrac\Data\Daniel M Sørensen\MScan multicentre study\Data from centres\Ankara\Processed data\HBC10122A.QZD
Name:              	TR.ANK.NC.7.2
Protocol:          	MSCAN-R2
Date:              	22/1/21
Start time:        	19:05:12
Age:               	33
Sex:               	M
Temperature:
S/R sites:         	APB
NC/disease:        	NC
Operator:          	HA
Comments:
M-SCAN DATA (4.2-1m)
Scanpts: 42, 45, 345, 366
Stim. (mA)     	Amp. (mV)
MS.1           	13.5           	10.851
MS.2           	13.5           	10.807
MS.3           	13.5           	10.854
MS.4           	13.5           	10.79
MS.5           	13.5           	10.806
MS.6           	13.5           	10.757
MS.7           	13.5           	10.751
MS.8           	13.5           	10.748
MS.9           	13.5           	10.741
MS.10          	13.5           	10.721
MS.11          	13.5           	10.767
MS.12          	13.5           	10.757
MS.13          	13.5           	10.753
MS.14          	13.5           	10.785
MS.15          	13.5           	10.79
MS.16          	13.5           	10.798
MS.17          	13.5           	10.802
MS.18          	13.5           	10.812
MS.19          	13.5           	10.834
MS.20          	13.5           	10.826
MS.21          	13.5           	10.848
MS.22          	13.5           	10.863
MS.23          	13.445         	10.869
MS.24          	13.42          	10.68
MS.25          	13.392         	10.712
MS.26          	13.365         	10.87
MS.27          	13.34          	10.9
MS.28          	13.312         	10.912
MS.29          	13.285         	10.89
MS.30          	13.26          	10.925
MS.31          	13.233         	10.751
MS.32          	13.205         	10.948
MS.33          	13.18          	10.725
MS.34          	13.153         	10.724
MS.35          	13.127         	10.752
MS.36          	13.1           	10.747
MS.37          	13.075         	10.897
MS.38          	13.047         	10.758
MS.39          	13.023         	10.936
MS.40          	12.997         	10.74
MS.41          	12.97          	10.735
MS.42          	12.945         	10.729
MS.43          	12.92          	10.752
MS.44          	12.892         	10.758
MS.45          	12.867         	10.757
MS.46          	12.842         	10.75
MS.47          	12.815         	10.759
MS.48          	12.79          	10.787
MS.49          	12.765         	10.774
MS.50          	12.74          	10.813
MS.51          	12.715         	10.791
MS.52          	12.688         	10.824
MS.53          	12.662         	10.782
MS.54          	12.637         	10.775
MS.55          	12.613         	10.424
MS.56          	12.587         	10.831
MS.57          	12.562         	10.67
MS.58          	12.537         	10.554
MS.59          	12.512         	10.704
MS.60          	12.488         	10.465
MS.61          	12.462         	10.457
MS.62          	12.438         	10.431
MS.63          	12.412         	10.698
MS.64          	12.387         	10.436
MS.65          	12.363         	10.675
MS.66          	12.337         	10.454
MS.67          	12.312         	10.387
MS.68          	12.29          	10.422
MS.69          	12.265         	10.366
MS.70          	12.24          	10.392
MS.71          	12.215         	10.378
MS.72          	12.19          	10.675
MS.73          	12.167         	10.315
MS.74          	12.142         	10.383
MS.75          	12.117         	10.437
MS.76          	12.092         	10.37
MS.77          	12.07          	9.919
MS.78          	12.045         	10.002
MS.79          	12.023         	10.388
MS.80          	11.997         	9.933
MS.81          	11.972         	10.223
MS.82          	11.95          	9.912
MS.83          	11.925         	10.088
MS.84          	11.903         	9.928
MS.85          	11.877         	10.027
MS.86          	11.855         	10.189
MS.87          	11.83          	9.817
MS.88          	11.807         	10.24
MS.89          	11.782         	10.087
MS.90          	11.76          	9.899
MS.91          	11.738         	9.845
MS.92          	11.712         	9.875
MS.93          	11.69          	9.791
MS.94          	11.665         	9.531
MS.95          	11.642         	9.323
MS.96          	11.62          	9.572
MS.97          	11.597         	9.741
MS.98          	11.572         	9.286
MS.99          	11.55          	9.39
MS.100         	11.528         	9.537
MS.101         	11.505         	9.374
MS.102         	11.48          	9.327
MS.103         	11.457         	9.142
MS.104         	11.435         	9.37
MS.105         	11.412         	9.166
MS.106         	11.39          	9.062
MS.107         	11.367         	8.966
MS.108         	11.345         	9.153
MS.109         	11.322         	9.105
MS.110         	11.297         	8.528
MS.111         	11.275         	8.77
MS.112         	11.252         	8.569
MS.113         	11.23          	8.607
MS.114         	11.207         	8.254
MS.115         	11.188         	7.935
MS.116         	11.165         	8.121
MS.117         	11.142         	8.347
MS.118         	11.12          	8.296
MS.119         	11.097         	8.075
MS.120         	11.075         	7.905
MS.121         	11.052         	7.897
MS.122         	11.03          	7.739
MS.123         	11.007         	7.583
MS.124         	10.988         	7.612
MS.125         	10.965         	7.737
MS.126         	10.943         	7.992
MS.127         	10.92          	7.9
MS.128         	10.9           	7.556
MS.129         	10.877         	7.261
MS.130         	10.855         	7.035
MS.131         	10.835         	7.209
MS.132         	10.812         	7.2
MS.133         	10.79          	6.461
MS.134         	10.77          	7.039
MS.135         	10.747         	6.492
MS.136         	10.725         	7.181
MS.137         	10.705         	6.51
MS.138         	10.682         	6.283
MS.139         	10.662         	6.925
MS.140         	10.64          	6.693
MS.141         	10.62          	5.967
MS.142         	10.597         	6.121
MS.143         	10.577         	5.825
MS.144         	10.555         	5.933
MS.145         	10.535         	5.643
MS.146         	10.515         	5.68
MS.147         	10.492         	5.671
MS.148         	10.472         	5.527
MS.149         	10.45          	5.627
MS.150         	10.43          	5.986
MS.151         	10.41          	5.209
MS.152         	10.387         	5.209
MS.153         	10.367         	5.278
MS.154         	10.347         	5.171
MS.155         	10.325         	4.885
MS.156         	10.305         	4.784
MS.157         	10.285         	4.701
MS.158         	10.265         	4.603
MS.159         	10.245         	4.722
MS.160         	10.222         	4.551
MS.161         	10.202         	4.458
MS.162         	10.182         	4.514
MS.163         	10.162         	4.653
MS.164         	10.142         	4.371
MS.165         	10.122         	4.485
MS.166         	10.102         	4.285
MS.167         	10.082         	4.402
MS.168         	10.06          	4.252
MS.169         	10.04          	4.137
MS.170         	10.02          	4.59
MS.171         	10             	4.275
MS.172         	9.98           	4.319
MS.173         	9.96           	4.084
MS.174         	9.94           	3.553
MS.175         	9.922          	3.872
MS.176         	9.903          	3.788
MS.177         	9.882          	3.685
MS.178         	9.863          	3.727
MS.179         	9.842          	3.787
MS.180         	9.823          	3.058
MS.181         	9.802          	3.585
MS.182         	9.782          	3.228
MS.183         	9.765          	3.555
MS.184         	9.745          	3.687
MS.185         	9.725          	3.474
MS.186         	9.705          	2.96
MS.187         	9.685          	3.031
MS.188         	9.667          	3.096
MS.189         	9.648          	3.132
MS.190         	9.627          	3.276
MS.191         	9.61           	2.823
MS.192         	9.59           	2.776
MS.193         	9.57           	2.389
MS.194         	9.552          	2.4
MS.195         	9.532          	3.083
MS.196         	9.512          	2.723
MS.197         	9.495          	2.388
MS.198         	9.475          	2.472
MS.199         	9.457          	2.561
MS.200         	9.438          	2.401
MS.201         	9.417          	2.134
MS.202         	9.4            	2.119
MS.203         	9.38           	2.266
MS.204         	9.363          	2.225
MS.205         	9.342          	2.023
MS.206         	9.325          	2.072
MS.207         	9.305          	2.218
MS.208         	9.287          	2.04
MS.209         	9.27           	2.174
MS.210         	9.25           	1.713
MS.211         	9.233          	1.902
MS.212         	9.212          	1.851
MS.213         	9.195          	1.926
MS.214         	9.177          	1.539
MS.215         	9.158          	1.863
MS.216         	9.14           	1.483
MS.217         	9.122          	1.732
MS.218         	9.102          	1.74
MS.219         	9.085          	1.364
MS.220         	9.068          	1.451
MS.221         	9.05           	1.791
MS.222         	9.03           	1.329
MS.223         	9.012          	1.726
MS.224         	8.995          	1.243
MS.225         	8.977          	1.417
MS.226         	8.96           	1.252
MS.227         	8.943          	1.19
MS.228         	8.922          	1.31
MS.229         	8.905          	1.293
MS.230         	8.887          	1.156
MS.231         	8.87           	0.991
MS.232         	8.852          	1.128
MS.233         	8.835          	1.008
MS.234         	8.818          	0.994
MS.235         	8.8            	0.983
MS.236         	8.783          	1.078
MS.237         	8.765          	1.035
MS.238         	8.747          	1.119
MS.239         	8.73           	0.901
MS.240         	8.712          	0.991
MS.241         	8.695          	0.796
MS.242         	8.677          	0.906
MS.243         	8.66           	0.809
MS.244         	8.642          	0.933
MS.245         	8.625          	0.734
MS.246         	8.608          	0.743
MS.247         	8.59           	0.677
MS.248         	8.573          	0.695
MS.249         	8.557          	0.707
MS.250         	8.54           	0.571
MS.251         	8.523          	0.642
MS.252         	8.505          	0.69
MS.253         	8.488          	0.687
MS.254         	8.472          	0.752
MS.255         	8.455          	0.854
MS.256         	8.438          	0.671
MS.257         	8.42           	0.703
MS.258         	8.405          	0.603
MS.259         	8.387          	0.587
MS.260         	8.37           	0.576
MS.261         	8.352          	0.587
MS.262         	8.337          	0.735
MS.263         	8.32           	0.505
MS.264         	8.302          	0.596
MS.265         	8.287          	0.56
MS.266         	8.27           	0.546
MS.267         	8.255          	0.48
MS.268         	8.238          	0.559
MS.269         	8.22           	0.457
MS.270         	8.205          	0.49
MS.271         	8.188          	0.446
MS.272         	8.172          	0.371
MS.273         	8.155          	0.448
MS.274         	8.14           	0.448
MS.275         	8.122          	0.444
MS.276         	8.108          	0.442
MS.277         	8.09           	0.303
MS.278         	8.075          	0.444
MS.279         	8.057          	0.455
MS.280         	8.042          	0.483
MS.281         	8.025          	0.348
MS.282         	8.01           	0.35
MS.283         	7.995          	0.228
MS.284         	7.977          	0.419
MS.285         	7.962          	0.411
MS.286         	7.945          	0.319
MS.287         	7.93           	0.245
MS.288         	7.915          	0.237
MS.289         	7.898          	0.084
MS.290         	7.882          	0.118
MS.291         	7.867          	0.38
MS.292         	7.852          	0.115
MS.293         	7.835          	0.167
MS.294         	7.82           	0.146
MS.295         	7.805          	0.07
MS.296         	7.79           	0.271
MS.297         	7.773          	0.073
MS.298         	7.757          	0.273
MS.299         	7.742          	0.063
MS.300         	7.727          	0.037
MS.301         	7.712          	0.054
MS.302         	7.695          	0.154
MS.303         	7.68           	0.106
MS.304         	7.665          	0.061
MS.305         	7.65           	0.071
MS.306         	7.635          	0.07
MS.307         	7.62           	0.052
MS.308         	7.605          	0.066
MS.309         	7.59           	0.038
MS.310         	7.572          	0.061
MS.311         	7.557          	0.032
MS.312         	7.543          	0.04
MS.313         	7.527          	0.034
MS.314         	7.512          	0.027
MS.315         	7.497          	0.032
MS.316         	7.482          	0.033
MS.317         	7.467          	0.033
MS.318         	7.452          	0.06
MS.319         	7.438          	0.022
MS.320         	7.425          	0.039
MS.321         	7.41           	0.023
MS.322         	7.395          	0.034
MS.323         	7.38           	0.032
MS.324         	7.365          	0.032
MS.325         	7.35           	0.034
MS.326         	7.335          	0.017
MS.327         	7.32           	0.034
MS.328         	7.305          	0.013
MS.329         	7.293          	0.033
MS.330         	7.277          	0.01
MS.331         	7.262          	0.034
MS.332         	7.247          	0.039
MS.333         	7.233          	0.013
MS.334         	7.22           	0.013
MS.335         	7.205          	0.02
MS.336         	7.19           	0.013
MS.337         	7.175          	0.013
MS.338         	7.162          	0.029
MS.339         	7.148          	0.013
MS.340         	7.132          	0.015
MS.341         	7.117          	0.016
MS.342         	7.105          	0.01
MS.343         	7.09           	0.012
MS.344         	7.075          	0.007
MS.345         	7.062          	0.006
MS.346         	7.047          	0.007
MS.347         	7.032          	0.012
MS.348         	7.02           	0.009
MS.349         	7.005          	0.009
MS.350         	6.992          	0.007
MS.351         	6.977          	0.007
MS.352         	6.962          	0.007
MS.353         	6.95           	0.007
MS.354         	6.935          	0.007
MS.355         	6.922          	0.005
MS.356         	6.907          	0.007
MS.357         	6.895          	0.007
MS.358         	6.88           	0.007
MS.359         	6.867          	0.006
MS.360         	6.852          	0.015
MS.361         	6.84           	0.007
MS.362         	6.825          	0.007
MS.363         	6.812          	0.009
MS.364         	6.797          	0.007
MS.365         	6.785          	0.012
MS.366         	6.773          	0.018
DERIVED EXCITABILITY VARIABLES
Program = QTracP 3/4/2020
Threshold method = 6 (optimised for CAP, using data for present condition only)
SR method = 1 (using actual data values)
6.                 	0.000               	Peak response\(mV)
17.                	33                  	Age (years)
18.                	1                   	Sex (M=1, F=2)

EXTRA VARIABLES

MScPeak(mV) = 10.79
MScS5(mA) = 8.28
MScS50(mA) = 10.41
MScS95(mA) = 12.04
MScNSteps = 4
MScSteps(%) = 9.8
MScStepMax(%) = 2.7
MScD50 = 36
MScSlope = 6.48
MSFPeakAmp(mV) = 10.7
MSFNUnits = 88
MSFMeanUnitAmp(uV) = 122.1
MSFHuntTime(m) = 1.93
MSFError(%) = 6.35
MSFNLarge = 33
MSFMedianAmp(%) = 1.12
MSFMedianAmp(mV) = 0.121
MSFHalfAmpAmp(%) = 1.23
MSFHalfAmpAmp(mV) = 0.133
MSFLargestAmp(%) = 2.68
MSFLargestAmp(mV) = 0.288
MSFMeanRS(%) = 2
MSFOpts = 10106121
MScDuration(min) = 3.2
MSFTraces = 325
MSFSizeLimit(uV) = 26.9
MSFLimitType = 1
MSFSmallestAmp(uV) = 37.2

EXTRA WAVEFORMS


!MScan Model
!88
	1	7.36	0.45	2
	2	7.73	0.6	2
	3	7.87	0.9	2
	4	7.98	1.09	2
	5	8.02	0.82	2
	6	8.2	0.71	2
	7	8.27	0.45	2
	8	8.37	0.64	2
	9	8.51	1.01	2
	10	8.6	0.81	2
	11	8.67	0.67	2
	12	8.72	0.43	2
	13	8.76	0.7	2
	14	8.82	0.98	2
	15	8.88	0.87	2
	16	8.93	0.87	2
	17	8.98	0.84	2
	18	9.03	0.96	2
	19	9.08	1.02	2
	20	9.14	1.23	2
	21	9.2	1.1	2
	22	9.24	0.93	2
	23	9.29	1.09	2
	24	9.35	1.22	2
	25	9.4	1.08	2
	26	9.44	1.27	2
	27	9.48	1.1	2
	28	9.53	1.23	2
	29	9.58	1.37	2
	30	9.63	1.31	2
	31	9.68	1.67	2
	32	9.74	1.64	2
	33	9.79	1.6	2
	34	9.84	1.58	2
	35	9.89	1.32	2
	36	9.94	1.36	2
	37	9.99	1.3	2
	38	10.05	1.31	2
	39	10.1	1.42	2
	40	10.14	1.23	2
	41	10.19	1.52	2
	42	10.23	1.56	2
	43	10.26	0.35	2
	44	10.29	0.88	1.9
	45	10.31	0.69	2
	46	10.33	0.81	2
	47	10.36	0.82	2
	48	10.38	0.81	2
	49	10.41	0.93	2
	50	10.43	1.02	2
	51	10.46	1.12	2
	52	10.5	1.32	2
	53	10.53	1.33	2
	54	10.56	1.39	2
	55	10.6	1.44	2
	56	10.63	1.46	2
	57	10.67	1.41	2
	58	10.7	1.22	2
	59	10.73	1.21	2
	60	10.77	1.45	2
	61	10.81	1.7	2
	62	10.85	1.51	2
	63	10.89	1.48	2
	64	10.94	1.45	2
	65	10.98	1.22	2
	66	11.01	1.3	2
	67	11.05	1.31	2
	68	11.08	1.1	2
	69	11.12	1.29	2
	70	11.16	1.21	2
	71	11.19	1.1	2
	72	11.22	0.68	2
	73	11.24	0.61	2
	74	11.26	0.63	2
	75	11.29	0.64	2
	76	11.31	0.72	2
	77	11.34	0.94	2
	78	11.38	0.94	2
	79	11.42	0.87	2
	80	11.47	1.13	2
	81	11.51	1.58	2
	82	11.56	1.12	2
	83	11.62	1.17	2
	84	11.73	1.73	2
	85	11.87	2.11	2
	86	12.08	1.83	2
	87	12.26	1.02	2
	88	12.52	2.68	2

