File:              	C:\Qtrac\Data\Daniel M Sørensen\MScan multicentre study\Data from centres\Ankara\Processed data\IAC10113C.QZD
Name:              	TR.ANK.NC.9.1
Protocol:          	MSCAN-R2
Date:              	13/1/21
Start time:        	14:27:48
Age:               	27
Sex:               	m
Temperature:
S/R sites:         	APB
NC/disease:        	NC
Operator:          	eb
Comments:
M-SCAN DATA (4.4-0.6m)
Scanpts: 65, 68, 402, 423
Stim. (mA)     	Amp. (mV)
MS.1           	19.5           	11.958
MS.2           	19.5           	11.962
MS.3           	19.5           	11.964
MS.4           	19.5           	11.95
MS.5           	19.5           	11.936
MS.6           	19.5           	11.946
MS.7           	19.5           	11.946
MS.8           	19.5           	11.94
MS.9           	19.5           	11.95
MS.10          	19.5           	11.958
MS.11          	19.5           	11.962
MS.12          	19.5           	11.96
MS.13          	19.5           	11.982
MS.14          	19.5           	11.98
MS.15          	19.5           	11.99
MS.16          	19.5           	11.996
MS.17          	19.5           	11.984
MS.18          	19.5           	11.994
MS.19          	19.5           	12.004
MS.20          	19.5           	12.006
MS.21          	19.5           	12.006
MS.22          	19.5           	12.023
MS.23          	19.5           	12.025
MS.24          	19.422         	12.012
MS.25          	19.382         	12.016
MS.26          	19.345         	12.016
MS.27          	19.305         	12.018
MS.28          	19.267         	12.027
MS.29          	19.23          	12.029
MS.30          	19.19          	12.031
MS.31          	19.153         	12.037
MS.32          	19.115         	11.998
MS.33          	19.075         	12.006
MS.34          	19.038         	12.023
MS.35          	19             	12.025
MS.36          	18.962         	12.016
MS.37          	18.922         	12.027
MS.38          	18.885         	12.031
MS.39          	18.847         	12.018
MS.40          	18.81          	12.031
MS.41          	18.772         	12.018
MS.42          	18.735         	12.023
MS.43          	18.698         	12.029
MS.44          	18.66          	12.025
MS.45          	18.622         	12.027
MS.46          	18.585         	12.018
MS.47          	18.55          	12.027
MS.48          	18.512         	12.023
MS.49          	18.475         	12.018
MS.50          	18.438         	12.039
MS.51          	18.4           	11.998
MS.52          	18.365         	12.051
MS.53          	18.327         	12.051
MS.54          	18.29          	12.051
MS.55          	18.255         	12.057
MS.56          	18.217         	12.057
MS.57          	18.182         	12.055
MS.58          	18.145         	12.063
MS.59          	18.11          	12.039
MS.60          	18.073         	12.027
MS.61          	18.038         	12.035
MS.62          	18             	12.031
MS.63          	17.965         	12.023
MS.64          	17.93          	12.049
MS.65          	17.892         	12.059
MS.66          	17.858         	12.055
MS.67          	17.823         	12.049
MS.68          	17.785         	12.051
MS.69          	17.75          	12.055
MS.70          	17.715         	12.043
MS.71          	17.68          	12.033
MS.72          	17.645         	12.045
MS.73          	17.61          	12.023
MS.74          	17.575         	12.057
MS.75          	17.538         	12.041
MS.76          	17.503         	12.061
MS.77          	17.467         	12.047
MS.78          	17.435         	12.051
MS.79          	17.4           	12.041
MS.80          	17.365         	12.043
MS.81          	17.33          	11.986
MS.82          	17.295         	12.077
MS.83          	17.26          	12.077
MS.84          	17.225         	12.016
MS.85          	17.192         	12.089
MS.86          	17.157         	12.012
MS.87          	17.122         	11.986
MS.88          	17.087         	11.996
MS.89          	17.055         	11.998
MS.90          	17.02          	12.004
MS.91          	16.987         	11.996
MS.92          	16.952         	12.089
MS.93          	16.917         	12.111
MS.94          	16.885         	12.006
MS.95          	16.85          	11.996
MS.96          	16.817         	12.018
MS.97          	16.782         	12.006
MS.98          	16.75          	12.018
MS.99          	16.717         	12.109
MS.100         	16.682         	12.135
MS.101         	16.65          	12.109
MS.102         	16.618         	12.027
MS.103         	16.583         	12.023
MS.104         	16.55          	12.023
MS.105         	16.517         	12.002
MS.106         	16.485         	12.131
MS.107         	16.452         	12.023
MS.108         	16.417         	12.033
MS.109         	16.385         	12.035
MS.110         	16.352         	12.021
MS.111         	16.32          	12.029
MS.112         	16.288         	12.035
MS.113         	16.255         	12.041
MS.114         	16.222         	12.018
MS.115         	16.19          	11.968
MS.116         	16.157         	11.966
MS.117         	16.125         	11.978
MS.118         	16.092         	11.972
MS.119         	16.062         	11.958
MS.120         	16.03          	12.002
MS.121         	15.997         	11.958
MS.122         	15.965         	11.426
MS.123         	15.932         	11.944
MS.124         	15.902         	11.956
MS.125         	15.87          	11.444
MS.126         	15.837         	11.976
MS.127         	15.807         	11.916
MS.128         	15.775         	11.928
MS.129         	15.742         	11.946
MS.130         	15.712         	11.958
MS.131         	15.68          	11.916
MS.132         	15.65          	11.882
MS.133         	15.617         	11.434
MS.134         	15.587         	11.404
MS.135         	15.555         	11.412
MS.136         	15.525         	11.438
MS.137         	15.492         	11.958
MS.138         	15.462         	11.438
MS.139         	15.432         	11.41
MS.140         	15.4           	11.382
MS.141         	15.37          	11.356
MS.142         	15.34          	11.42
MS.143         	15.307         	11.348
MS.144         	15.277         	11.364
MS.145         	15.247         	11.344
MS.146         	15.217         	11.35
MS.147         	15.188         	11.35
MS.148         	15.155         	11.32
MS.149         	15.125         	11.35
MS.150         	15.095         	11.295
MS.151         	15.065         	11.34
MS.152         	15.035         	11.326
MS.153         	15.005         	11.336
MS.154         	14.975         	11.307
MS.155         	14.945         	11.285
MS.156         	14.915         	11.301
MS.157         	14.885         	11.36
MS.158         	14.855         	11.265
MS.159         	14.827         	11.128
MS.160         	14.797         	11.265
MS.161         	14.767         	11.193
MS.162         	14.737         	11.134
MS.163         	14.707         	11.257
MS.164         	14.68          	11.189
MS.165         	14.65          	11.15
MS.166         	14.62          	11.164
MS.167         	14.59          	11.257
MS.168         	14.562         	11.197
MS.169         	14.532         	11.195
MS.170         	14.505         	10.993
MS.171         	14.475         	10.784
MS.172         	14.445         	10.621
MS.173         	14.417         	10.893
MS.174         	14.387         	10.784
MS.175         	14.36          	10.518
MS.176         	14.33          	10.742
MS.177         	14.302         	10.46
MS.178         	14.273         	10.562
MS.179         	14.245         	10.379
MS.180         	14.217         	10.472
MS.181         	14.188         	10.721
MS.182         	14.16          	10.139
MS.183         	14.132         	10.548
MS.184         	14.102         	9.682
MS.185         	14.075         	10.174
MS.186         	14.047         	10.006
MS.187         	14.02          	9.978
MS.188         	13.99          	9.503
MS.189         	13.962         	10.178
MS.190         	13.935         	9.98
MS.191         	13.907         	9.823
MS.192         	13.88          	9.243
MS.193         	13.852         	9.823
MS.194         	13.825         	9.815
MS.195         	13.797         	9.942
MS.196         	13.77          	9.712
MS.197         	13.742         	9.368
MS.198         	13.715         	9.724
MS.199         	13.688         	9.372
MS.200         	13.66          	9.062
MS.201         	13.632         	9.084
MS.202         	13.605         	9.025
MS.203         	13.577         	9.612
MS.204         	13.55          	9.217
MS.205         	13.523         	8.935
MS.206         	13.495         	9.41
MS.207         	13.47          	8.657
MS.208         	13.443         	9.463
MS.209         	13.415         	8.574
MS.210         	13.387         	8.629
MS.211         	13.362         	8.725
MS.212         	13.335         	9.058
MS.213         	13.307         	8.725
MS.214         	13.282         	8.745
MS.215         	13.255         	8.361
MS.216         	13.23          	8.484
MS.217         	13.202         	8.85
MS.218         	13.175         	8.008
MS.219         	13.15          	8.631
MS.220         	13.122         	8.032
MS.221         	13.097         	7.761
MS.222         	13.07          	8.304
MS.223         	13.045         	8.161
MS.224         	13.02          	7.589
MS.225         	12.992         	7.481
MS.226         	12.967         	7.428
MS.227         	12.94          	7.791
MS.228         	12.915         	7.285
MS.229         	12.89          	6.933
MS.230         	12.862         	7.001
MS.231         	12.837         	7.07
MS.232         	12.812         	7.36
MS.233         	12.787         	6.995
MS.234         	12.76          	6.927
MS.235         	12.735         	6.528
MS.236         	12.71          	6.19
MS.237         	12.685         	6.598
MS.238         	12.66          	6.542
MS.239         	12.635         	6.23
MS.240         	12.61          	6.318
MS.241         	12.585         	6.53
MS.242         	12.557         	6.22
MS.243         	12.532         	6.216
MS.244         	12.507         	5.926
MS.245         	12.483         	5.579
MS.246         	12.457         	5.803
MS.247         	12.432         	6.294
MS.248         	12.41          	5.815
MS.249         	12.385         	4.943
MS.250         	12.36          	4.888
MS.251         	12.335         	4.874
MS.252         	12.31          	5.418
MS.253         	12.285         	4.84
MS.254         	12.26          	4.955
MS.255         	12.238         	5.001
MS.256         	12.212         	4.256
MS.257         	12.188         	4.884
MS.258         	12.162         	4.282
MS.259         	12.14          	4.266
MS.260         	12.115         	4.735
MS.261         	12.09          	3.978
MS.262         	12.065         	4.23
MS.263         	12.042         	3.877
MS.264         	12.017         	4.23
MS.265         	11.995         	3.986
MS.266         	11.97          	3.551
MS.267         	11.945         	3.531
MS.268         	11.922         	3.706
MS.269         	11.898         	3.329
MS.270         	11.875         	3.42
MS.271         	11.85          	3.116
MS.272         	11.827         	3.303
MS.273         	11.802         	3.333
MS.274         	11.78          	3.319
MS.275         	11.757         	3.259
MS.276         	11.733         	2.858
MS.277         	11.71          	3.305
MS.278         	11.685         	2.927
MS.279         	11.662         	2.995
MS.280         	11.64          	2.814
MS.281         	11.617         	2.703
MS.282         	11.592         	3.084
MS.283         	11.57          	2.592
MS.284         	11.547         	2.864
MS.285         	11.525         	2.56
MS.286         	11.5           	2.743
MS.287         	11.477         	2.522
MS.288         	11.455         	2.552
MS.289         	11.432         	2.461
MS.290         	11.41          	2.316
MS.291         	11.387         	2.125
MS.292         	11.363         	2.133
MS.293         	11.34          	2.244
MS.294         	11.318         	2.397
MS.295         	11.295         	2.206
MS.296         	11.273         	1.835
MS.297         	11.25          	1.752
MS.298         	11.227         	2.065
MS.299         	11.205         	1.841
MS.300         	11.182         	1.734
MS.301         	11.16          	1.474
MS.302         	11.137         	1.803
MS.303         	11.117         	1.682
MS.304         	11.095         	1.601
MS.305         	11.073         	1.478
MS.306         	11.05          	1.376
MS.307         	11.028         	1.406
MS.308         	11.005         	1.223
MS.309         	10.983         	1.2
MS.310         	10.962         	1.432
MS.311         	10.94          	1.265
MS.312         	10.917         	1.094
MS.313         	10.895         	1.025
MS.314         	10.875         	1.227
MS.315         	10.852         	1.001
MS.316         	10.83          	1.049
MS.317         	10.81          	1.255
MS.318         	10.787         	0.989
MS.319         	10.765         	1.146
MS.320         	10.745         	1.009
MS.321         	10.722         	0.916
MS.322         	10.702         	0.892
MS.323         	10.68          	0.959
MS.324         	10.66          	0.931
MS.325         	10.637         	0.659
MS.326         	10.617         	0.769
MS.327         	10.595         	0.719
MS.328         	10.575         	0.661
MS.329         	10.552         	0.737
MS.330         	10.532         	0.677
MS.331         	10.51          	0.626
MS.332         	10.49          	0.729
MS.333         	10.47          	0.506
MS.334         	10.448         	0.522
MS.335         	10.427         	0.532
MS.336         	10.407         	0.449
MS.337         	10.385         	0.582
MS.338         	10.365         	0.316
MS.339         	10.345         	0.481
MS.340         	10.323         	0.451
MS.341         	10.302         	0.425
MS.342         	10.282         	0.359
MS.343         	10.262         	0.485
MS.344         	10.24          	0.316
MS.345         	10.22          	0.403
MS.346         	10.2           	0.346
MS.347         	10.18          	0.282
MS.348         	10.16          	0.334
MS.349         	10.14          	0.348
MS.350         	10.12          	0.348
MS.351         	10.097         	0.242
MS.352         	10.077         	0.205
MS.353         	10.057         	0.175
MS.354         	10.037         	0.199
MS.355         	10.017         	0.197
MS.356         	9.997          	0.278
MS.357         	9.977          	0.177
MS.358         	9.957          	0.177
MS.359         	9.938          	0.149
MS.360         	9.917          	0.173
MS.361         	9.9            	0.163
MS.362         	9.88           	0.155
MS.363         	9.86           	0.123
MS.364         	9.84           	0.201
MS.365         	9.82           	0.195
MS.366         	9.8            	0.185
MS.367         	9.78           	0.191
MS.368         	9.76           	0.073
MS.369         	9.742          	0.133
MS.370         	9.722          	0.079
MS.371         	9.702          	0.083
MS.372         	9.682          	0.131
MS.373         	9.665          	0.091
MS.374         	9.645          	0.01
MS.375         	9.625          	0.147
MS.376         	9.605          	0.101
MS.377         	9.587          	0.022
MS.378         	9.568          	0.032
MS.379         	9.55           	0.032
MS.380         	9.53           	0.008
MS.381         	9.51           	0.026
MS.382         	9.492          	0.062
MS.383         	9.472          	0.04
MS.384         	9.452          	0.012
MS.385         	9.435          	0.165
MS.386         	9.415          	0.073
MS.387         	9.398          	0.083
MS.388         	9.377          	0.016
MS.389         	9.36           	0.075
MS.390         	9.34           	0.02
MS.391         	9.323          	0.075
MS.392         	9.302          	0.012
MS.393         	9.285          	0.01
MS.394         	9.267          	0.014
MS.395         	9.247          	0.012
MS.396         	9.23           	0.016
MS.397         	9.21           	0.012
MS.398         	9.193          	0.01
MS.399         	9.175          	0.01
MS.400         	9.155          	0.01
MS.401         	9.137          	0.004
MS.402         	9.12           	0.012
MS.403         	9.1            	0.01
MS.404         	9.082          	0.01
MS.405         	9.065          	0.006
MS.406         	9.047          	-0.002
MS.407         	9.028          	0.02
MS.408         	9.01           	0.006
MS.409         	8.992          	0.008
MS.410         	8.975          	0.018
MS.411         	8.957          	0.014
MS.412         	8.94           	0.01
MS.413         	8.92           	0.012
MS.414         	8.903          	0.008
MS.415         	8.885          	0.016
MS.416         	8.867          	0.008
MS.417         	8.85           	0.006
MS.418         	8.832          	0.008
MS.419         	8.815          	0.006
MS.420         	8.797          	0.008
MS.421         	8.78           	0.012
MS.422         	8.762          	0.01
MS.423         	8.745          	0.01
DERIVED EXCITABILITY VARIABLES
Program = QTracP 3/4/2020
Threshold method = 6 (optimised for CAP, using data for present condition only)
SR method = 1 (using actual data values)
6.                 	0.000               	Peak response\(mV)
17.                	27                  	Age (years)
18.                	1                   	Sex (M=1, F=2)

EXTRA VARIABLES

MScPeak(mV) = 11.96
MScS5(mA) = 10.48
MScS50(mA) = 12.46
MScS95(mA) = 15.35
MScNSteps = 5
MScSteps(%) = 14.4
MScStepMax(%) = 3.8
MScD50 = 32
MScSlope = 7.03
MSFPeakAmp(mV) = 12
MSFNUnits = 100
MSFMeanUnitAmp(uV) = 120.4
MSFHuntTime(m) = 1.88
MSFError(%) = 5.81
MSFNLarge = 26.62
MSFMedianAmp(%) = 0.848
MSFMedianAmp(mV) = 0.102
MSFHalfAmpAmp(%) = 1.16
MSFHalfAmpAmp(mV) = 0.14
MSFLargestAmp(%) = 4.41
MSFLargestAmp(mV) = 0.531
MSFMeanRS(%) = 2
MSFOpts = 10106121
MScDuration(min) = 3.8
MSFTraces = 359
MSFSizeLimit(uV) = 30.1
MSFLimitType = 1
MSFSmallestAmp(uV) = 36.7

EXTRA WAVEFORMS


!MScan Model
!100
	1	9.54	0.53	2
	2	9.75	0.44	2
	3	9.92	0.55	2
	4	10.07	0.59	2
	5	10.17	0.49	2
	6	10.24	0.36	2
	7	10.29	0.42	2
	8	10.34	0.37	2
	9	10.38	0.31	2
	10	10.43	0.37	2
	11	10.46	0.31	2
	12	10.52	0.5	2
	13	10.55	0.33	2
	14	10.57	0.3	2
	15	10.6	0.42	2
	16	10.63	0.4	2
	17	10.66	0.34	2
	18	10.7	0.46	2
	19	10.74	0.37	2
	20	10.81	0.9	2
	21	10.88	0.75	2
	22	10.92	0.48	2
	23	10.96	0.65	2
	24	10.99	0.48	2
	25	11.02	0.38	2
	26	11.05	0.42	2
	27	11.08	0.57	2
	28	11.11	0.53	2
	29	11.14	0.57	2
	30	11.17	0.65	2
	31	11.19	0.57	2
	32	11.22	0.53	2
	33	11.24	0.59	2
	34	11.27	0.68	2
	35	11.3	0.53	2
	36	11.32	0.6	2
	37	11.36	0.75	2
	38	11.39	0.71	2
	39	11.42	0.72	2
	40	11.46	0.77	2
	41	11.49	0.41	2
	42	11.53	0.73	2
	43	11.55	0.87	2
	44	11.57	0.88	2
	45	11.63	1.23	2
	46	11.68	0.91	2
	47	11.74	0.89	2
	48	11.82	0.69	2
	49	11.85	0.97	2
	50	11.88	0.79	2
	51	11.92	0.91	2
	52	11.95	0.72	2
	53	11.99	0.98	2
	54	12.02	1.01	2
	55	12.05	1.1	2
	56	12.09	1.26	2
	57	12.13	1.16	2
	58	12.17	1.43	2
	59	12.21	1.34	2
	60	12.26	1.28	2
	61	12.29	1.53	2
	62	12.33	0.97	2
	63	12.39	3.42	2
	64	12.49	2.46	2
	65	12.55	1.85	2
	66	12.61	2.18	2
	67	12.66	1.35	2
	68	12.7	0.88	2
	69	12.73	0.91	2
	70	12.77	0.92	2
	71	12.8	0.88	2
	72	12.83	0.82	2
	73	12.86	0.96	2
	74	12.89	0.97	2
	75	12.93	1.1	2
	76	12.97	1.4	2
	77	13.01	1.34	2
	78	13.06	1.51	2
	79	13.12	1.88	2
	80	13.18	1.5	2
	81	13.33	3.13	2
	82	13.53	3.69	2
	83	13.66	1.68	2
	84	13.77	1.77	2
	85	13.9	2.02	2
	86	14.02	2	2
	87	14.11	1	2
	88	14.18	1.31	2
	89	14.25	1.17	2
	90	14.31	0.93	2
	91	14.31	1.15	2
	92	14.36	1.05	2
	93	14.39	1.16	2
	94	14.41	0.81	2
	95	14.46	1.06	2
	96	14.56	0.73	2
	97	15.19	0.58	2
	98	15.42	0.46	2
	99	15.66	4.41	2
	100	16.39	0.81	2

