File:              	C:\Qtrac\Data\Daniel M Sørensen\MScan multicentre study\Data from centres\Toronto\Processed data\MSCC01216A.QZD
Name:              	CA.TOR.NC.9.2
Protocol:          	MSCAN-R2
Date:              	16/12/20
Start time:        	11:51:42
Age:               	51
Sex:               	F
Temperature:       	31.5
S/R sites:         	APB
NC/disease:        	NC
Operator:          	LP
Comments:          	MFF60ON
M-SCAN DATA (6.7-1.9m)
Scanpts: 6, 9, 416, 457
Stim. (mA)     	Amp. (mV)
MS.1           	15             	8.8
MS.2           	15             	8.834
MS.3           	15             	8.812
MS.4           	15             	8.693
MS.5           	15             	8.727
MS.6           	15             	8.78
MS.7           	15             	8.733
MS.8           	15             	8.713
MS.9           	15             	8.774
MS.10          	15             	8.695
MS.11          	15             	8.735
MS.12          	15             	8.741
MS.13          	15             	8.794
MS.14          	15             	8.88
MS.15          	15             	8.729
MS.16          	15             	8.808
MS.17          	15             	8.723
MS.18          	15             	8.826
MS.19          	15             	8.768
MS.20          	15             	8.872
MS.21          	15             	8.824
MS.22          	15             	8.747
MS.23          	15             	8.814
MS.24          	14.94          	8.834
MS.25          	14.91          	8.772
MS.26          	14.88          	8.743
MS.27          	14.85          	8.743
MS.28          	14.82          	8.735
MS.29          	14.792         	8.788
MS.30          	14.762         	8.741
MS.31          	14.733         	8.802
MS.32          	14.702         	8.762
MS.33          	14.672         	8.701
MS.34          	14.645         	8.75
MS.35          	14.615         	8.747
MS.36          	14.585         	8.717
MS.37          	14.557         	8.737
MS.38          	14.527         	8.741
MS.39          	14.497         	8.689
MS.40          	14.47          	8.713
MS.41          	14.44          	8.745
MS.42          	14.412         	8.713
MS.43          	14.382         	8.735
MS.44          	14.355         	8.679
MS.45          	14.325         	8.667
MS.46          	14.297         	8.701
MS.47          	14.267         	8.659
MS.48          	14.24          	8.641
MS.49          	14.212         	8.705
MS.50          	14.182         	8.635
MS.51          	14.155         	8.649
MS.52          	14.127         	8.663
MS.53          	14.097         	8.651
MS.54          	14.07          	8.609
MS.55          	14.042         	8.643
MS.56          	14.015         	8.677
MS.57          	13.985         	8.701
MS.58          	13.957         	8.623
MS.59          	13.93          	8.619
MS.60          	13.903         	8.59
MS.61          	13.875         	8.586
MS.62          	13.847         	8.639
MS.63          	13.82          	8.58
MS.64          	13.792         	8.502
MS.65          	13.765         	8.552
MS.66          	13.737         	8.508
MS.67          	13.71          	8.621
MS.68          	13.682         	8.476
MS.69          	13.655         	8.3
MS.70          	13.627         	8.294
MS.71          	13.6           	8.611
MS.72          	13.572         	8.621
MS.73          	13.545         	8.312
MS.74          	13.517         	8.294
MS.75          	13.492         	8.415
MS.76          	13.465         	8.405
MS.77          	13.438         	8.316
MS.78          	13.41          	8.405
MS.79          	13.385         	8.3
MS.80          	13.358         	8.363
MS.81          	13.33          	8.208
MS.82          	13.305         	8.133
MS.83          	13.278         	8.421
MS.84          	13.25          	8.196
MS.85          	13.225         	8.25
MS.86          	13.197         	8.194
MS.87          	13.172         	8.004
MS.88          	13.145         	8.304
MS.89          	13.12          	8.21
MS.90          	13.092         	8.143
MS.91          	13.068         	7.867
MS.92          	13.04          	8.063
MS.93          	13.015         	7.996
MS.94          	12.987         	8.004
MS.95          	12.962         	8.059
MS.96          	12.938         	8.163
MS.97          	12.91          	7.75
MS.98          	12.885         	7.875
MS.99          	12.86          	7.984
MS.100         	12.832         	7.877
MS.101         	12.807         	7.571
MS.102         	12.782         	7.845
MS.103         	12.757         	7.297
MS.104         	12.73          	7.807
MS.105         	12.705         	7.533
MS.106         	12.68          	7.906
MS.107         	12.655         	7.539
MS.108         	12.63          	7.712
MS.109         	12.605         	7.73
MS.110         	12.58          	7.452
MS.111         	12.555         	7.18
MS.112         	12.53          	7.523
MS.113         	12.505         	6.919
MS.114         	12.48          	7.243
MS.115         	12.455         	7.452
MS.116         	12.43          	6.975
MS.117         	12.405         	7.346
MS.118         	12.38          	7.114
MS.119         	12.355         	6.844
MS.120         	12.33          	7.116
MS.121         	12.305         	7.138
MS.122         	12.28          	6.852
MS.123         	12.257         	7.138
MS.124         	12.233         	6.83
MS.125         	12.207         	6.876
MS.126         	12.182         	6.87
MS.127         	12.157         	6.79
MS.128         	12.135         	6.8
MS.129         	12.11          	6.808
MS.130         	12.085         	6.768
MS.131         	12.062         	6.85
MS.132         	12.037         	6.848
MS.133         	12.012         	6.707
MS.134         	11.99          	6.532
MS.135         	11.965         	6.608
MS.136         	11.943         	6.629
MS.137         	11.917         	6.339
MS.138         	11.895         	6.431
MS.139         	11.87          	6.341
MS.140         	11.847         	6.238
MS.141         	11.822         	6.135
MS.142         	11.8           	6.038
MS.143         	11.775         	6.343
MS.144         	11.752         	5.811
MS.145         	11.73          	5.807
MS.146         	11.705         	6.337
MS.147         	11.682         	5.39
MS.148         	11.657         	5.464
MS.149         	11.635         	6.105
MS.150         	11.613         	5.481
MS.151         	11.59          	5.289
MS.152         	11.565         	5.382
MS.153         	11.542         	5.736
MS.154         	11.52          	5.507
MS.155         	11.497         	5.132
MS.156         	11.472         	5.14
MS.157         	11.45          	5.092
MS.158         	11.427         	5.07
MS.159         	11.405         	5.041
MS.160         	11.382         	4.85
MS.161         	11.36          	4.842
MS.162         	11.337         	4.913
MS.163         	11.315         	4.967
MS.164         	11.292         	4.548
MS.165         	11.27          	4.351
MS.166         	11.247         	4.387
MS.167         	11.225         	4.224
MS.168         	11.202         	4.461
MS.169         	11.18          	4.26
MS.170         	11.157         	4.266
MS.171         	11.135         	4.046
MS.172         	11.113         	4.254
MS.173         	11.09          	3.948
MS.174         	11.068         	4.018
MS.175         	11.045         	4.028
MS.176         	11.023         	4.014
MS.177         	11.002         	3.764
MS.178         	10.98          	3.928
MS.179         	10.957         	3.891
MS.180         	10.935         	3.702
MS.181         	10.915         	3.591
MS.182         	10.892         	3.547
MS.183         	10.87          	3.738
MS.184         	10.847         	3.525
MS.185         	10.827         	3.426
MS.186         	10.805         	3.434
MS.187         	10.785         	3.476
MS.188         	10.762         	3.372
MS.189         	10.74          	3.335
MS.190         	10.72          	3.043
MS.191         	10.698         	3.162
MS.192         	10.677         	3.235
MS.193         	10.655         	3.029
MS.194         	10.635         	2.953
MS.195         	10.613         	3.011
MS.196         	10.592         	2.834
MS.197         	10.57          	2.703
MS.198         	10.55          	2.812
MS.199         	10.528         	2.838
MS.200         	10.507         	2.566
MS.201         	10.485         	2.397
MS.202         	10.465         	2.463
MS.203         	10.445         	2.616
MS.204         	10.422         	2.485
MS.205         	10.403         	2.439
MS.206         	10.382         	2.403
MS.207         	10.36          	2.334
MS.208         	10.34          	2.262
MS.209         	10.32          	2.258
MS.210         	10.3           	2.185
MS.211         	10.278         	2.306
MS.212         	10.257         	1.962
MS.213         	10.238         	2.117
MS.214         	10.217         	1.756
MS.215         	10.198         	1.859
MS.216         	10.175         	1.77
MS.217         	10.155         	1.801
MS.218         	10.135         	1.789
MS.219         	10.115         	1.799
MS.220         	10.095         	1.857
MS.221         	10.075         	1.672
MS.222         	10.055         	1.644
MS.223         	10.035         	1.557
MS.224         	10.015         	1.549
MS.225         	9.995          	1.521
MS.226         	9.975          	1.444
MS.227         	9.955          	1.307
MS.228         	9.935          	1.571
MS.229         	9.915          	1.293
MS.230         	9.895          	1.343
MS.231         	9.875          	1.285
MS.232         	9.855          	1.255
MS.233         	9.835          	1.15
MS.234         	9.818          	1.136
MS.235         	9.797          	1.354
MS.236         	9.778          	1.168
MS.237         	9.757          	1.211
MS.238         	9.738          	1.063
MS.239         	9.717          	1.13
MS.240         	9.7            	1.07
MS.241         	9.68           	1.078
MS.242         	9.66           	0.767
MS.243         	9.64           	1.124
MS.244         	9.622          	0.751
MS.245         	9.602          	0.834
MS.246         	9.582          	0.86
MS.247         	9.565          	0.882
MS.248         	9.545          	0.826
MS.249         	9.525          	0.816
MS.250         	9.507          	0.894
MS.251         	9.488          	0.721
MS.252         	9.47           	0.788
MS.253         	9.45           	0.781
MS.254         	9.432          	0.786
MS.255         	9.412          	0.661
MS.256         	9.395          	0.693
MS.257         	9.375          	0.655
MS.258         	9.358          	0.586
MS.259         	9.337          	0.622
MS.260         	9.32           	0.596
MS.261         	9.3            	0.602
MS.262         	9.283          	0.578
MS.263         	9.262          	0.554
MS.264         	9.245          	0.508
MS.265         	9.225          	0.554
MS.266         	9.207          	0.58
MS.267         	9.19           	0.602
MS.268         	9.17           	0.489
MS.269         	9.153          	0.449
MS.270         	9.135          	0.465
MS.271         	9.115          	0.437
MS.272         	9.097          	0.542
MS.273         	9.08           	0.411
MS.274         	9.062          	0.357
MS.275         	9.042          	0.453
MS.276         	9.025          	0.391
MS.277         	9.007          	0.383
MS.278         	8.99           	0.397
MS.279         	8.972          	0.427
MS.280         	8.952          	0.455
MS.281         	8.935          	0.375
MS.282         	8.917          	0.369
MS.283         	8.9            	0.381
MS.284         	8.882          	0.407
MS.285         	8.865          	0.342
MS.286         	8.847          	0.322
MS.287         	8.83           	0.379
MS.288         	8.812          	0.354
MS.289         	8.795          	0.308
MS.290         	8.775          	0.324
MS.291         	8.757          	0.35
MS.292         	8.74           	0.304
MS.293         	8.722          	0.308
MS.294         	8.707          	0.308
MS.295         	8.69           	0.262
MS.296         	8.672          	0.294
MS.297         	8.655          	0.286
MS.298         	8.637          	0.306
MS.299         	8.62           	0.264
MS.300         	8.602          	0.304
MS.301         	8.585          	0.242
MS.302         	8.568          	0.328
MS.303         	8.55           	0.256
MS.304         	8.535          	0.242
MS.305         	8.517          	0.226
MS.306         	8.5            	0.205
MS.307         	8.483          	0.242
MS.308         	8.465          	0.216
MS.309         	8.45           	0.238
MS.310         	8.432          	0.216
MS.311         	8.415          	0.22
MS.312         	8.398          	0.203
MS.313         	8.382          	0.22
MS.314         	8.365          	0.232
MS.315         	8.347          	0.226
MS.316         	8.332          	0.205
MS.317         	8.315          	0.203
MS.318         	8.297          	0.191
MS.319         	8.283          	0.203
MS.320         	8.265          	0.117
MS.321         	8.247          	0.199
MS.322         	8.233          	0.115
MS.323         	8.215          	0.107
MS.324         	8.2            	0.113
MS.325         	8.182          	0.103
MS.326         	8.167          	0.193
MS.327         	8.15           	0.199
MS.328         	8.135          	0.197
MS.329         	8.117          	0.191
MS.330         	8.102          	0.089
MS.331         	8.085          	0.103
MS.332         	8.07           	0.197
MS.333         	8.052          	0.205
MS.334         	8.037          	0.191
MS.335         	8.02           	0.095
MS.336         	8.005          	0.091
MS.337         	7.99           	0.195
MS.338         	7.972          	0.091
MS.339         	7.957          	0.091
MS.340         	7.94           	0.095
MS.341         	7.925          	0.089
MS.342         	7.91           	0.089
MS.343         	7.892          	0.097
MS.344         	7.878          	0.095
MS.345         	7.862          	0.101
MS.346         	7.847          	0.095
MS.347         	7.83           	0.091
MS.348         	7.815          	0.097
MS.349         	7.8            	0.099
MS.350         	7.785          	0.095
MS.351         	7.767          	0.099
MS.352         	7.753          	0.093
MS.353         	7.737          	0.097
MS.354         	7.722          	0.097
MS.355         	7.707          	0.099
MS.356         	7.69           	0.068
MS.357         	7.675          	0.101
MS.358         	7.66           	0.099
MS.359         	7.645          	0.101
MS.360         	7.63           	0.099
MS.361         	7.615          	0.101
MS.362         	7.6            	0.093
MS.363         	7.585          	0.07
MS.364         	7.57           	0.097
MS.365         	7.555          	0.103
MS.366         	7.537          	0.07
MS.367         	7.523          	0.042
MS.368         	7.507          	0.097
MS.369         	7.492          	0.004
MS.370         	7.477          	0.099
MS.371         	7.462          	0.075
MS.372         	7.447          	0.097
MS.373         	7.435          	0.044
MS.374         	7.42           	0.038
MS.375         	7.405          	0.091
MS.376         	7.39           	0.091
MS.377         	7.375          	0.075
MS.378         	7.36           	0.095
MS.379         	7.345          	0.07
MS.380         	7.33           	0.024
MS.381         	7.315          	0.024
MS.382         	7.302          	0.024
MS.383         	7.287          	-0.006
MS.384         	7.273          	0.052
MS.385         	7.257          	0.006
MS.386         	7.242          	0.03
MS.387         	7.227          	0.004
MS.388         	7.215          	0.026
MS.389         	7.2            	-0.002
MS.390         	7.185          	0.000
MS.391         	7.17           	0.046
MS.392         	7.157          	0.002
MS.393         	7.142          	0.024
MS.394         	7.128          	0.032
MS.395         	7.115          	0.028
MS.396         	7.1            	-0.004
MS.397         	7.085          	0.000
MS.398         	7.072          	0.002
MS.399         	7.057          	0.004
MS.400         	7.043          	0.002
MS.401         	7.03           	0.01
MS.402         	7.015          	0.000
MS.403         	7              	0.006
MS.404         	6.987          	-0.002
MS.405         	6.972          	0.002
MS.406         	6.96           	0.004
MS.407         	6.945          	-0.004
MS.408         	6.932          	0.000
MS.409         	6.918          	0.002
MS.410         	6.902          	0.002
MS.411         	6.89           	0.004
MS.412         	6.875          	0.000
MS.413         	6.862          	0.006
MS.414         	6.847          	0.002
MS.415         	6.835          	0.002
MS.416         	6.822          	0.002
MS.417         	6.807          	0.000
MS.418         	6.795          	-0.002
MS.419         	6.78           	0.002
MS.420         	6.767          	-0.002
MS.421         	6.753          	-0.002
MS.422         	6.74           	-0.004
MS.423         	6.727          	-0.002
MS.424         	6.712          	0.000
MS.425         	6.7            	0.002
MS.426         	6.685          	-0.002
MS.427         	6.672          	0.004
MS.428         	6.66           	0.004
MS.429         	6.645          	0.000
MS.430         	6.632          	0.000
MS.431         	6.62           	0.004
MS.432         	6.608          	0.004
MS.433         	6.592          	0.000
MS.434         	6.58           	-0.002
MS.435         	6.567          	-0.004
MS.436         	6.555          	0.004
MS.437         	6.54           	0.004
MS.438         	6.527          	0.006
MS.439         	6.515          	0.004
MS.440         	6.503          	-0.004
MS.441         	6.487          	0.004
MS.442         	6.475          	0.002
MS.443         	6.462          	-0.004
MS.444         	6.45           	0.000
MS.445         	6.438          	0.004
MS.446         	6.425          	-0.004
MS.447         	6.41           	0.002
MS.448         	6.398          	0.002
MS.449         	6.385          	0.004
MS.450         	6.372          	0.004
MS.451         	6.36           	0.000
MS.452         	6.347          	0.004
MS.453         	6.335          	0.004
MS.454         	6.322          	-0.002
MS.455         	6.31           	0.004
MS.456         	6.297          	-0.002
MS.457         	6.285          	0.000
MS.458         	6.273          	0.002
MS.459         	6.26           	0.004
MS.460         	6.247          	0.004
MS.461         	6.235          	-0.002
MS.462         	6.222          	0.002
MS.463         	6.21           	0.004
MS.464         	6.197          	0.002
MS.465         	6.185          	0.002
MS.466         	6.172          	-0.002
MS.467         	6.16           	0.002
MS.468         	6.148          	-0.004
MS.469         	6.135          	0.006
MS.470         	6.122          	0.002
MS.471         	6.11           	0.000
MS.472         	6.097          	-0.002
MS.473         	6.088          	-0.004
MS.474         	6.075          	0.002
MS.475         	6.062          	0.000
MS.476         	6.05           	0.006
MS.477         	6.037          	0.004
MS.478         	6.025          	-0.002
MS.479         	6.012          	0.002
MS.480         	6.003          	0.004
MS.481         	5.99           	0.002
MS.482         	5.977          	0.004
MS.483         	5.965          	0.004
MS.484         	5.955          	0.002
MS.485         	5.942          	0.002
MS.486         	5.93           	-0.002
MS.487         	5.918          	0.004
MS.488         	5.907          	0.002
MS.489         	5.895          	0.004
MS.490         	5.882          	0.000
MS.491         	5.87           	0.000
MS.492         	5.86           	0.000
MS.493         	5.847          	0.004
MS.494         	5.835          	0.002
MS.495         	5.825          	0.004
MS.496         	5.812          	0.002
MS.497         	5.8            	0.000
MS.498         	5.79           	0.000
MS.499         	5.777          	0.004
MS.500         	5.767          	0.004
MS.501         	5.755          	0.002
MS.502         	5.742          	0.002
MS.503         	5.733          	0.002
MS.504         	5.72           	-0.002
MS.505         	5.71           	-0.002
MS.506         	5.697          	-0.002
MS.507         	5.685          	0.006
MS.508         	5.675          	0.000
MS.509         	5.662          	0.004
MS.510         	5.652          	0.000
MS.511         	5.64           	-0.002
MS.512         	5.63           	0.004
MS.513         	5.617          	0.002
MS.514         	5.608          	-0.002
MS.515         	5.595          	0.004
MS.516         	5.585          	0.000
MS.517         	5.572          	0.004
MS.518         	5.562          	-0.002
MS.519         	5.552          	0.006
MS.520         	5.54           	0.002
MS.521         	5.53           	0.000
MS.522         	5.517          	0.004
MS.523         	5.507          	0.000
MS.524         	5.495          	0.006
MS.525         	5.485          	0.004
MS.526         	5.475          	0.002
MS.527         	5.463          	-0.002
MS.528         	5.452          	0.004
DERIVED EXCITABILITY VARIABLES
Program = QTracP 3/4/2020
Threshold method = 6 (optimised for CAP, using data for present condition only)
SR method = 1 (using actual data values)
6.                 	0.000               	Peak response\(mV)
9.                 	31.5                	Temperature ( C)
17.                	51                  	Age (years)
18.                	2                   	Sex (M=1, F=2)

EXTRA VARIABLES

MScPeak(mV) = 8.77
MScS5(mA) = 9.04
MScS50(mA) = 11.23
MScS95(mA) = 13.44
MScNSteps = 4
MScSteps(%) = 10.6
MScStepMax(%) = 3.4
MScD50 = 40
MScSlope = 6.69
MSFPeakAmp(mV) = 8.75
MSFNUnits = 147
MSFMeanUnitAmp(uV) = 59.5
MSFHuntTime(m) = 2.46
MSFError(%) = 3.68
MSFNLarge = 35.84
MSFMedianAmp(%) = 0.497
MSFMedianAmp(mV) = 0.0435
MSFHalfAmpAmp(%) = 0.718
MSFHalfAmpAmp(mV) = 0.0628
MSFLargestAmp(%) = 2.86
MSFLargestAmp(mV) = 0.25
MSFMeanRS(%) = 2.01
MSFOpts = 10106121
MScDuration(min) = 4.8
MSFTraces = 452
MSFSizeLimit(uV) = 21.9
MSFLimitType = 1
MSFSmallestAmp(uV) = 23

EXTRA WAVEFORMS


!MScan Model
!147
	1	7.25	0.3	2
	2	7.55	0.79	2
	3	8.25	1.05	2
	4	8.37	0.32	2
	5	8.55	0.7	2
	6	8.72	0.5	2
	7	8.79	0.29	2
	8	8.92	0.55	2
	9	9.02	0.41	2
	10	9.07	0.38	2
	11	9.16	0.44	2
	12	9.2	0.39	2
	13	9.25	0.38	2
	14	9.31	0.61	2
	15	9.36	0.62	2
	16	9.41	0.46	2
	17	9.5	0.99	2
	18	9.57	0.81	2
	19	9.62	0.84	2
	20	9.66	0.94	2
	21	9.71	0.3	2
	22	9.76	0.86	2
	23	9.8	0.71	2
	24	9.83	0.57	2
	25	9.85	0.42	2
	26	9.87	0.45	2
	27	9.9	0.56	2
	28	9.93	0.41	2
	29	9.95	0.46	2
	30	9.97	0.29	2
	31	9.98	0.31	2
	32	10	0.31	2
	33	10.01	0.32	2
	34	10.03	0.52	2
	35	10.06	0.66	2
	36	10.09	0.65	2
	37	10.11	0.44	2
	38	10.12	0.38	2
	39	10.14	0.39	2
	40	10.16	0.43	2
	41	10.17	0.53	2
	42	10.19	0.39	2
	43	10.21	0.42	2
	44	10.23	0.47	2
	45	10.25	0.45	2
	46	10.26	0.37	2
	47	10.28	0.43	2
	48	10.3	0.54	2
	49	10.32	0.53	2
	50	10.35	0.5	2
	51	10.37	0.95	2
	52	10.39	0.71	2
	53	10.41	0.38	2
	54	10.43	0.42	2
	55	10.44	0.26	2
	56	10.45	0.27	2
	57	10.46	0.3	2
	58	10.47	0.32	2
	59	10.48	0.35	2
	60	10.49	0.33	2
	61	10.5	0.32	2
	62	10.51	0.33	2
	63	10.53	0.34	2
	64	10.54	0.4	2
	65	10.55	0.42	2
	66	10.57	0.42	2
	67	10.58	0.28	2
	68	10.6	0.33	2
	69	10.61	0.42	2
	70	10.62	0.39	2
	71	10.63	0.38	2
	72	10.64	0.35	2
	73	10.65	0.34	2
	74	10.66	0.32	2
	75	10.68	0.32	2
	76	10.69	0.29	2
	77	10.7	0.28	2
	78	10.71	0.31	2
	79	10.72	0.31	2
	80	10.73	0.38	2
	81	10.75	0.38	2
	82	10.76	0.34	2
	83	10.77	0.46	2
	84	10.79	0.49	2
	85	10.8	0.46	2
	86	10.81	0.38	2
	87	10.83	0.34	2
	88	10.84	0.38	2
	89	10.86	0.44	2
	90	10.88	0.5	2
	91	10.89	0.5	2
	92	10.91	0.45	2
	93	10.93	0.44	2
	94	10.95	0.52	2
	95	10.97	0.51	2
	96	11	0.63	2
	97	11.02	0.67	2
	98	11.04	0.52	2
	99	11.07	0.54	2
	100	11.09	0.49	2
	101	11.11	0.56	2
	102	11.13	0.67	2
	103	11.15	0.66	2
	104	11.16	0.53	2
	105	11.18	0.42	2
	106	11.19	0.52	2
	107	11.2	0.48	2
	108	11.23	0.54	2
	109	11.25	0.37	2
	110	11.26	0.54	2
	111	11.27	0.53	2
	112	11.29	0.5	2
	113	11.31	0.69	2
	114	11.33	0.73	2
	115	11.35	0.72	2
	116	11.37	0.75	2
	117	11.41	1.4	2
	118	11.48	2.86	2
	119	11.59	1.58	2
	120	11.6	1.8	2
	121	11.66	1.96	2
	122	11.72	2.12	2
	123	11.77	1.82	2
	124	11.77	1.47	2
	125	11.81	0.87	2
	126	11.84	1.06	2
	127	11.87	0.92	2
	128	11.89	0.75	2
	129	11.92	0.92	2
	130	11.94	0.38	2
	131	11.96	0.69	2
	132	11.99	0.54	2
	133	12.03	0.97	2
	134	12.2	1.48	2.4
	135	12.35	2.19	2
	136	12.45	2.23	2
	137	12.61	2.42	2
	138	12.76	2.73	2
	139	12.91	1.87	2
	140	13.04	1.85	2
	141	13.16	1.23	2
	142	13.28	1.06	2
	143	13.5	1.64	2
	144	13.73	1.49	2
	145	13.87	0.68	2
	146	14.09	0.66	2
	147	14.36	0.65	2

