File:              	C:\Qtrac\Data\Daniel M Sørensen\MScan multicentre study\Data from centres\Odense\Processed data\PHC00902A.QZD
Name:              	DK.ODE.NC.3.1
Protocol:          	MSCAN-R2
Date:              	2/9/20
Start time:        	14:55:42
Age:               	29
Sex:               	M
Temperature:       	33.9
S/R sites:         	APB
NC/disease:        	NC
Operator:          	TK
Comments:
M-SCAN DATA (8.6-1.6m)
Scanpts: 53, 59, 555, 588
Stim. (mA)     	Amp. (mV)
MS.1           	15.5           	6.983
MS.2           	15.5           	6.965
MS.3           	15.5           	6.967
MS.4           	15.5           	6.945
MS.5           	15.5           	6.935
MS.6           	15.5           	6.939
MS.7           	15.5           	6.951
MS.8           	15.5           	6.939
MS.9           	15.5           	6.925
MS.10          	15.5           	6.913
MS.11          	15.5           	6.901
MS.12          	15.5           	6.929
MS.13          	15.5           	6.923
MS.14          	15.5           	6.935
MS.15          	15.5           	6.939
MS.16          	15.5           	6.965
MS.17          	15.5           	6.975
MS.18          	15.5           	6.959
MS.19          	15.5           	6.979
MS.20          	15.5           	6.969
MS.21          	15.5           	6.961
MS.22          	15.5           	6.975
MS.23          	15.5           	6.961
MS.24          	15.438         	6.955
MS.25          	15.407         	6.947
MS.26          	15.377         	6.955
MS.27          	15.345         	6.985
MS.28          	15.315         	6.975
MS.29          	15.285         	6.985
MS.30          	15.255         	6.981
MS.31          	15.222         	6.971
MS.32          	15.193         	6.969
MS.33          	15.162         	6.977
MS.34          	15.132         	6.957
MS.35          	15.102         	6.965
MS.36          	15.072         	6.973
MS.37          	15.042         	6.995
MS.38          	15.012         	6.957
MS.39          	14.983         	6.963
MS.40          	14.952         	6.937
MS.41          	14.922         	6.943
MS.42          	14.892         	6.981
MS.43          	14.862         	6.991
MS.44          	14.832         	6.993
MS.45          	14.802         	6.999
MS.46          	14.773         	7.009
MS.47          	14.745         	7.005
MS.48          	14.715         	7.015
MS.49          	14.685         	7.013
MS.50          	14.655         	7.007
MS.51          	14.627         	7.011
MS.52          	14.597         	7.019
MS.53          	14.568         	7.007
MS.54          	14.54          	7.009
MS.55          	14.51          	7.015
MS.56          	14.48          	7.013
MS.57          	14.452         	7.003
MS.58          	14.422         	7.009
MS.59          	14.395         	7.005
MS.60          	14.365         	7.005
MS.61          	14.337         	6.997
MS.62          	14.307         	7.011
MS.63          	14.28          	7.001
MS.64          	14.25          	7.009
MS.65          	14.222         	7.009
MS.66          	14.195         	6.967
MS.67          	14.165         	6.951
MS.68          	14.137         	7.007
MS.69          	14.11          	6.999
MS.70          	14.08          	7.005
MS.71          	14.052         	6.989
MS.72          	14.025         	6.971
MS.73          	13.997         	6.947
MS.74          	13.97          	6.931
MS.75          	13.94          	6.963
MS.76          	13.912         	6.931
MS.77          	13.885         	6.925
MS.78          	13.858         	6.957
MS.79          	13.83          	6.965
MS.80          	13.802         	6.961
MS.81          	13.775         	6.939
MS.82          	13.747         	6.951
MS.83          	13.72          	6.917
MS.84          	13.693         	6.915
MS.85          	13.665         	6.923
MS.86          	13.637         	6.905
MS.87          	13.61          	6.911
MS.88          	13.582         	6.917
MS.89          	13.555         	6.919
MS.90          	13.53          	6.909
MS.91          	13.502         	6.917
MS.92          	13.475         	6.901
MS.93          	13.447         	6.888
MS.94          	13.42          	6.856
MS.95          	13.395         	6.894
MS.96          	13.367         	6.89
MS.97          	13.34          	6.862
MS.98          	13.315         	6.806
MS.99          	13.287         	6.798
MS.100         	13.26          	6.806
MS.101         	13.235         	6.846
MS.102         	13.207         	6.842
MS.103         	13.182         	6.838
MS.104         	13.155         	6.782
MS.105         	13.13          	6.828
MS.106         	13.102         	6.832
MS.107         	13.077         	6.78
MS.108         	13.05          	6.832
MS.109         	13.025         	6.774
MS.110         	12.997         	6.828
MS.111         	12.972         	6.824
MS.112         	12.947         	6.824
MS.113         	12.92          	6.822
MS.114         	12.895         	6.822
MS.115         	12.87          	6.812
MS.116         	12.842         	6.796
MS.117         	12.818         	6.786
MS.118         	12.792         	6.731
MS.119         	12.767         	6.747
MS.120         	12.74          	6.749
MS.121         	12.715         	6.743
MS.122         	12.69          	6.576
MS.123         	12.665         	6.691
MS.124         	12.64          	6.711
MS.125         	12.615         	6.574
MS.126         	12.59          	6.713
MS.127         	12.565         	6.699
MS.128         	12.54          	6.709
MS.129         	12.515         	6.713
MS.130         	12.49          	6.723
MS.131         	12.465         	6.665
MS.132         	12.44          	6.548
MS.133         	12.415         	6.689
MS.134         	12.39          	6.526
MS.135         	12.365         	6.544
MS.136         	12.34          	6.566
MS.137         	12.315         	6.681
MS.138         	12.29          	6.542
MS.139         	12.265         	6.643
MS.140         	12.242         	6.615
MS.141         	12.217         	6.625
MS.142         	12.193         	6.524
MS.143         	12.167         	6.411
MS.144         	12.145         	6.373
MS.145         	12.12          	6.351
MS.146         	12.095         	6.228
MS.147         	12.072         	6.528
MS.148         	12.047         	6.202
MS.149         	12.023         	6.399
MS.150         	12             	6.403
MS.151         	11.975         	6.216
MS.152         	11.95          	6.333
MS.153         	11.927         	5.958
MS.154         	11.903         	5.873
MS.155         	11.88          	6.145
MS.156         	11.855         	5.95
MS.157         	11.832         	6.103
MS.158         	11.807         	5.734
MS.159         	11.785         	6.139
MS.160         	11.762         	5.928
MS.161         	11.738         	6.105
MS.162         	11.715         	5.688
MS.163         	11.69          	6.069
MS.164         	11.667         	5.789
MS.165         	11.645         	5.485
MS.166         	11.622         	6.181
MS.167         	11.597         	5.624
MS.168         	11.575         	5.553
MS.169         	11.552         	5.654
MS.170         	11.528         	5.996
MS.171         	11.505         	5.477
MS.172         	11.483         	5.235
MS.173         	11.46          	5.211
MS.174         	11.438         	5.481
MS.175         	11.415         	5.188
MS.176         	11.39          	5.263
MS.177         	11.367         	5.128
MS.178         	11.345         	5.356
MS.179         	11.322         	5.303
MS.180         	11.3           	5.297
MS.181         	11.278         	4.983
MS.182         	11.255         	5.225
MS.183         	11.233         	5.416
MS.184         	11.21          	4.862
MS.185         	11.188         	5.213
MS.186         	11.165         	5.033
MS.187         	11.142         	5.11
MS.188         	11.12          	5.138
MS.189         	11.1           	5.045
MS.190         	11.077         	4.852
MS.191         	11.055         	4.834
MS.192         	11.032         	4.802
MS.193         	11.01          	4.743
MS.194         	10.988         	4.772
MS.195         	10.967         	4.564
MS.196         	10.945         	4.739
MS.197         	10.922         	4.486
MS.198         	10.9           	4.804
MS.199         	10.88          	4.77
MS.200         	10.858         	4.755
MS.201         	10.835         	4.62
MS.202         	10.815         	4.445
MS.203         	10.792         	4.637
MS.204         	10.77          	4.552
MS.205         	10.75          	4.592
MS.206         	10.727         	4.351
MS.207         	10.707         	4.294
MS.208         	10.685         	4.403
MS.209         	10.662         	4.52
MS.210         	10.642         	4.091
MS.211         	10.62          	4.298
MS.212         	10.6           	4.365
MS.213         	10.577         	4.312
MS.214         	10.557         	4.24
MS.215         	10.537         	4.087
MS.216         	10.515         	4.274
MS.217         	10.495         	4.282
MS.218         	10.472         	4.03
MS.219         	10.452         	3.899
MS.220         	10.432         	3.877
MS.221         	10.41          	3.97
MS.222         	10.39          	3.827
MS.223         	10.37          	3.907
MS.224         	10.347         	3.718
MS.225         	10.327         	3.72
MS.226         	10.307         	3.775
MS.227         	10.287         	3.487
MS.228         	10.265         	3.589
MS.229         	10.245         	3.374
MS.230         	10.225         	3.493
MS.231         	10.205         	3.339
MS.232         	10.185         	3.062
MS.233         	10.165         	2.955
MS.234         	10.142         	3.06
MS.235         	10.122         	2.846
MS.236         	10.102         	3.213
MS.237         	10.082         	2.884
MS.238         	10.062         	2.997
MS.239         	10.042         	2.806
MS.240         	10.023         	2.957
MS.241         	10.002         	2.931
MS.242         	9.983          	2.618
MS.243         	9.962          	2.937
MS.244         	9.943          	2.487
MS.245         	9.922          	2.598
MS.246         	9.903          	2.526
MS.247         	9.882          	2.693
MS.248         	9.863          	2.457
MS.249         	9.842          	2.403
MS.250         	9.825          	2.53
MS.251         	9.805          	2.487
MS.252         	9.785          	2.026
MS.253         	9.765          	2.326
MS.254         	9.745          	2.113
MS.255         	9.727          	1.873
MS.256         	9.707          	2.371
MS.257         	9.688          	2.101
MS.258         	9.667          	1.857
MS.259         	9.65           	2.034
MS.260         	9.63           	1.75
MS.261         	9.61           	1.861
MS.262         	9.59           	1.648
MS.263         	9.573          	1.662
MS.264         	9.552          	1.71
MS.265         	9.532          	1.599
MS.266         	9.515          	1.182
MS.267         	9.495          	1.722
MS.268         	9.477          	1.67
MS.269         	9.457          	1.561
MS.270         	9.44           	1.331
MS.271         	9.42           	1.279
MS.272         	9.4            	1.184
MS.273         	9.382          	1.277
MS.274         	9.363          	1.045
MS.275         	9.345          	1.291
MS.276         	9.327          	0.981
MS.277         	9.307          	1.051
MS.278         	9.29           	1.277
MS.279         	9.27           	1.215
MS.280         	9.252          	0.902
MS.281         	9.233          	1.253
MS.282         	9.215          	0.953
MS.283         	9.198          	1.033
MS.284         	9.177          	0.985
MS.285         	9.16           	1.108
MS.286         	9.142          	0.872
MS.287         	9.122          	0.949
MS.288         	9.105          	0.8
MS.289         	9.087          	0.709
MS.290         	9.07           	0.854
MS.291         	9.05           	0.733
MS.292         	9.033          	0.824
MS.293         	9.015          	0.687
MS.294         	8.997          	0.709
MS.295         	8.977          	0.792
MS.296         	8.96           	0.8
MS.297         	8.943          	0.725
MS.298         	8.925          	0.701
MS.299         	8.908          	0.767
MS.300         	8.89           	0.641
MS.301         	8.872          	0.715
MS.302         	8.852          	0.62
MS.303         	8.835          	0.6
MS.304         	8.818          	0.53
MS.305         	8.8            	0.596
MS.306         	8.783          	0.57
MS.307         	8.765          	0.626
MS.308         	8.747          	0.562
MS.309         	8.73           	0.534
MS.310         	8.712          	0.59
MS.311         	8.695          	0.618
MS.312         	8.677          	0.506
MS.313         	8.66           	0.497
MS.314         	8.642          	0.564
MS.315         	8.627          	0.518
MS.316         	8.61           	0.5
MS.317         	8.592          	0.544
MS.318         	8.575          	0.383
MS.319         	8.557          	0.423
MS.320         	8.54           	0.385
MS.321         	8.523          	0.417
MS.322         	8.507          	0.459
MS.323         	8.49           	0.296
MS.324         	8.472          	0.506
MS.325         	8.455          	0.397
MS.326         	8.44           	0.413
MS.327         	8.422          	0.447
MS.328         	8.405          	0.34
MS.329         	8.387          	0.379
MS.330         	8.372          	0.288
MS.331         	8.355          	0.282
MS.332         	8.337          	0.266
MS.333         	8.323          	0.167
MS.334         	8.305          	0.179
MS.335         	8.287          	0.274
MS.336         	8.273          	0.236
MS.337         	8.255          	0.342
MS.338         	8.238          	0.197
MS.339         	8.222          	0.262
MS.340         	8.205          	0.195
MS.341         	8.19           	0.286
MS.342         	8.172          	0.161
MS.343         	8.158          	0.169
MS.344         	8.14           	0.139
MS.345         	8.125          	0.117
MS.346         	8.108          	0.203
MS.347         	8.092          	0.125
MS.348         	8.075          	0.129
MS.349         	8.06           	0.167
MS.350         	8.042          	0.115
MS.351         	8.028          	0.097
MS.352         	8.01           	0.111
MS.353         	7.995          	0.228
MS.354         	7.98           	0.153
MS.355         	7.962          	0.119
MS.356         	7.947          	0.095
MS.357         	7.932          	0.113
MS.358         	7.915          	0.115
MS.359         	7.9            	0.093
MS.360         	7.885          	0.093
MS.361         	7.867          	0.097
MS.362         	7.852          	0.093
MS.363         	7.837          	0.095
MS.364         	7.82           	0.107
MS.365         	7.805          	0.093
MS.366         	7.79           	0.093
MS.367         	7.775          	0.089
MS.368         	7.76           	0.091
MS.369         	7.742          	0.089
MS.370         	7.727          	0.119
MS.371         	7.712          	0.093
MS.372         	7.697          	0.091
MS.373         	7.682          	0.095
MS.374         	7.668          	0.115
MS.375         	7.65           	0.095
MS.376         	7.635          	0.091
MS.377         	7.62           	0.093
MS.378         	7.605          	0.093
MS.379         	7.59           	0.089
MS.380         	7.575          	0.081
MS.381         	7.56           	0.089
MS.382         	7.545          	0.095
MS.383         	7.53           	0.083
MS.384         	7.515          	0.095
MS.385         	7.5            	0.081
MS.386         	7.485          	0.095
MS.387         	7.47           	0.091
MS.388         	7.455          	0.083
MS.389         	7.44           	0.089
MS.390         	7.425          	0.091
MS.391         	7.41           	0.087
MS.392         	7.395          	0.079
MS.393         	7.38           	0.081
MS.394         	7.365          	0.093
MS.395         	7.35           	0.081
MS.396         	7.337          	0.089
MS.397         	7.322          	0.093
MS.398         	7.307          	0.083
MS.399         	7.293          	0.081
MS.400         	7.277          	0.083
MS.401         	7.262          	0.091
MS.402         	7.25           	0.081
MS.403         	7.235          	0.081
MS.404         	7.22           	0.087
MS.405         	7.205          	0.087
MS.406         	7.19           	0.085
MS.407         	7.177          	0.083
MS.408         	7.162          	0.085
MS.409         	7.148          	0.085
MS.410         	7.132          	0.085
MS.411         	7.12           	0.079
MS.412         	7.105          	0.081
MS.413         	7.09           	0.091
MS.414         	7.077          	0.081
MS.415         	7.062          	0.083
MS.416         	7.047          	0.085
MS.417         	7.035          	0.081
MS.418         	7.02           	0.085
MS.419         	7.007          	0.089
MS.420         	6.992          	0.079
MS.421         	6.977          	0.085
MS.422         	6.965          	0.085
MS.423         	6.95           	0.083
MS.424         	6.938          	0.083
MS.425         	6.922          	0.085
MS.426         	6.91           	0.087
MS.427         	6.895          	0.081
MS.428         	6.882          	0.081
MS.429         	6.867          	0.085
MS.430         	6.855          	0.075
MS.431         	6.84           	0.077
MS.432         	6.827          	0.085
MS.433         	6.812          	0.081
MS.434         	6.8            	0.079
MS.435         	6.785          	0.083
MS.436         	6.773          	0.077
MS.437         	6.757          	0.081
MS.438         	6.745          	0.083
MS.439         	6.733          	0.079
MS.440         	6.717          	0.077
MS.441         	6.705          	0.077
MS.442         	6.692          	0.079
MS.443         	6.677          	0.079
MS.444         	6.665          	0.077
MS.445         	6.652          	0.079
MS.446         	6.637          	0.081
MS.447         	6.625          	0.083
MS.448         	6.612          	0.079
MS.449         	6.597          	0.077
MS.450         	6.585          	0.075
MS.451         	6.572          	0.079
MS.452         	6.56           	0.081
MS.453         	6.545          	0.081
MS.454         	6.532          	0.079
MS.455         	6.52           	0.079
MS.456         	6.507          	0.081
MS.457         	6.492          	0.079
MS.458         	6.48           	0.083
MS.459         	6.467          	0.083
MS.460         	6.455          	0.075
MS.461         	6.442          	0.083
MS.462         	6.43           	0.073
MS.463         	6.418          	0.075
MS.464         	6.402          	0.075
MS.465         	6.39           	0.075
MS.466         	6.378          	0.081
MS.467         	6.365          	0.079
MS.468         	6.352          	0.079
MS.469         	6.34           	0.079
MS.470         	6.327          	0.079
MS.471         	6.315          	0.079
MS.472         	6.302          	0.077
MS.473         	6.29           	0.073
MS.474         	6.277          	0.077
MS.475         	6.265          	0.079
MS.476         	6.253          	0.079
MS.477         	6.24           	0.083
MS.478         	6.227          	0.081
MS.479         	6.215          	0.079
MS.480         	6.202          	0.077
MS.481         	6.19           	0.077
MS.482         	6.177          	0.075
MS.483         	6.165          	0.075
MS.484         	6.152          	0.07
MS.485         	6.14           	0.079
MS.486         	6.128          	0.077
MS.487         	6.115          	0.073
MS.488         	6.102          	0.079
MS.489         	6.09           	0.075
MS.490         	6.08           	0.079
MS.491         	6.067          	0.077
MS.492         	6.055          	0.077
MS.493         	6.043          	0.077
MS.494         	6.03           	0.073
MS.495         	6.017          	0.075
MS.496         	6.007          	0.077
MS.497         	5.995          	0.07
MS.498         	5.983          	0.073
MS.499         	5.97           	0.068
MS.500         	5.957          	0.081
MS.501         	5.947          	0.073
MS.502         	5.935          	0.075
MS.503         	5.922          	0.07
MS.504         	5.91           	0.073
MS.505         	5.9            	0.077
MS.506         	5.887          	0.079
MS.507         	5.875          	0.073
MS.508         	5.865          	0.079
MS.509         	5.852          	0.07
MS.510         	5.84           	0.073
MS.511         	5.83           	0.073
MS.512         	5.817          	0.075
MS.513         	5.805          	0.075
MS.514         	5.795          	0.077
MS.515         	5.782          	0.079
MS.516         	5.77           	0.081
MS.517         	5.76           	0.075
MS.518         	5.747          	0.077
MS.519         	5.737          	0.075
MS.520         	5.725          	0.077
MS.521         	5.713          	0.073
MS.522         	5.702          	0.077
MS.523         	5.69           	0.068
MS.524         	5.68           	0.068
MS.525         	5.668          	0.075
MS.526         	5.657          	0.07
MS.527         	5.645          	0.079
MS.528         	5.635          	0.077
MS.529         	5.622          	0.073
MS.530         	5.612          	0.075
MS.531         	5.6            	0.075
MS.532         	5.59           	0.066
MS.533         	5.577          	0.073
MS.534         	5.567          	0.075
MS.535         	5.555          	0.073
MS.536         	5.545          	0.079
MS.537         	5.532          	0.073
MS.538         	5.523          	0.073
MS.539         	5.512          	0.075
MS.540         	5.5            	0.073
MS.541         	5.49           	0.077
MS.542         	5.477          	0.073
MS.543         	5.467          	0.07
MS.544         	5.457          	0.075
MS.545         	5.445          	0.079
MS.546         	5.435          	0.073
MS.547         	5.425          	0.073
MS.548         	5.412          	0.075
MS.549         	5.402          	0.066
MS.550         	5.392          	0.068
MS.551         	5.38           	0.07
MS.552         	5.37           	0.075
MS.553         	5.36           	0.073
MS.554         	5.347          	0.068
MS.555         	5.338          	0.077
MS.556         	5.327          	0.07
MS.557         	5.318          	0.075
MS.558         	5.305          	0.073
MS.559         	5.295          	0.075
MS.560         	5.285          	0.068
MS.561         	5.275          	0.075
MS.562         	5.262          	0.07
MS.563         	5.253          	0.073
MS.564         	5.242          	0.073
MS.565         	5.233          	0.073
MS.566         	5.222          	0.073
MS.567         	5.213          	0.07
MS.568         	5.2            	0.073
MS.569         	5.19           	0.073
MS.570         	5.18           	0.073
MS.571         	5.17           	0.068
MS.572         	5.16           	0.073
MS.573         	5.15           	0.073
MS.574         	5.14           	0.07
MS.575         	5.128          	0.068
MS.576         	5.117          	0.075
MS.577         	5.108          	0.075
MS.578         	5.097          	0.068
MS.579         	5.088          	0.066
MS.580         	5.077          	0.073
MS.581         	5.068          	0.07
MS.582         	5.057          	0.07
MS.583         	5.047          	0.073
MS.584         	5.037          	0.064
MS.585         	5.027          	0.068
MS.586         	5.017          	0.066
MS.587         	5.007          	0.068
MS.588         	4.997          	0.066
MS.589         	4.987          	0.077
MS.590         	4.977          	0.075
MS.591         	4.967          	0.073
MS.592         	4.957          	0.068
MS.593         	4.947          	0.066
MS.594         	4.938          	0.066
MS.595         	4.927          	0.068
MS.596         	4.918          	0.07
MS.597         	4.907          	0.068
MS.598         	4.898          	0.073
MS.599         	4.887          	0.07
MS.600         	4.878          	0.068
MS.601         	4.867          	0.07
MS.602         	4.86           	0.07
MS.603         	4.85           	0.068
MS.604         	4.84           	0.068
MS.605         	4.83           	0.073
MS.606         	4.82           	0.064
MS.607         	4.81           	0.066
MS.608         	4.8            	0.068
MS.609         	4.793          	0.073
MS.610         	4.782          	0.064
MS.611         	4.773          	0.064
MS.612         	4.762          	0.073
MS.613         	4.753          	0.068
MS.614         	4.745          	0.073
MS.615         	4.735          	0.07
MS.616         	4.725          	0.073
MS.617         	4.715          	0.07
MS.618         	4.705          	0.068
MS.619         	4.697          	0.062
MS.620         	4.688          	0.068
MS.621         	4.677          	0.066
MS.622         	4.668          	0.07
MS.623         	4.66           	0.068
MS.624         	4.65           	0.066
MS.625         	4.64           	0.068
MS.626         	4.632          	0.068
MS.627         	4.622          	0.07
MS.628         	4.612          	0.064
MS.629         	4.602          	0.066
MS.630         	4.595          	0.066
MS.631         	4.585          	0.068
MS.632         	4.575          	0.068
MS.633         	4.568          	0.064
MS.634         	4.557          	0.064
MS.635         	4.548          	0.064
MS.636         	4.54           	0.066
MS.637         	4.53           	0.068
MS.638         	4.523          	0.066
MS.639         	4.512          	0.068
MS.640         	4.503          	0.064
MS.641         	4.495          	0.07
MS.642         	4.485          	0.068
MS.643         	4.477          	0.066
MS.644         	4.467          	0.066
MS.645         	4.457          	0.077
MS.646         	4.45           	0.07
MS.647         	4.44           	0.066
MS.648         	4.432          	0.062
MS.649         	4.423          	0.062
MS.650         	4.415          	0.073
MS.651         	4.405          	0.073
MS.652         	4.398          	0.062
MS.653         	4.387          	0.07
MS.654         	4.38           	0.07
MS.655         	4.37           	0.068
MS.656         	4.362          	0.066
MS.657         	4.352          	0.066
MS.658         	4.345          	0.068
MS.659         	4.335          	0.066
MS.660         	4.327          	0.068
MS.661         	4.318          	0.073
MS.662         	4.31           	0.064
MS.663         	4.3            	0.064
MS.664         	4.293          	0.06
MS.665         	4.285          	0.064
MS.666         	4.275          	0.068
MS.667         	4.267          	0.06
MS.668         	4.257          	0.068
MS.669         	4.25           	0.066
MS.670         	4.24           	0.068
MS.671         	4.233          	0.068
MS.672         	4.225          	0.068
MS.673         	4.215          	0.064
MS.674         	4.207          	0.064
MS.675         	4.2            	0.068
MS.676         	4.19           	0.064
MS.677         	4.182          	0.064
MS.678         	4.175          	0.062
MS.679         	4.165          	0.06
MS.680         	4.157          	0.064
MS.681         	4.15           	0.06
MS.682         	4.14           	0.062
MS.683         	4.132          	0.066
MS.684         	4.125          	0.06
MS.685         	4.115          	0.062
MS.686         	4.108          	0.062
MS.687         	4.1            	0.062
MS.688         	4.09           	0.06
MS.689         	4.082          	0.06
MS.690         	4.075          	0.06
MS.691         	4.068          	0.064
MS.692         	4.057          	0.064
MS.693         	4.05           	0.06
MS.694         	4.043          	0.06
MS.695         	4.035          	0.062
MS.696         	4.025          	0.062
MS.697         	4.017          	0.064
MS.698         	4.01           	0.068
MS.699         	4.003          	0.062
MS.700         	3.995          	0.062
MS.701         	3.985          	0.062
MS.702         	3.977          	0.062
MS.703         	3.97           	0.064
MS.704         	3.962          	0.066
MS.705         	3.955          	0.06
MS.706         	3.947          	0.062
MS.707         	3.938          	0.06
MS.708         	3.93           	0.06
MS.709         	3.922          	0.064
MS.710         	3.915          	0.06
MS.711         	3.908          	0.068
MS.712         	3.9            	0.07
MS.713         	3.892          	0.06
MS.714         	3.885          	0.064
MS.715         	3.875          	0.066
MS.716         	3.867          	0.064
MS.717         	3.86           	0.062
MS.718         	3.852          	0.062
MS.719         	3.845          	0.062
MS.720         	3.837          	0.066
MS.721         	3.83           	0.064
MS.722         	3.822          	0.066
MS.723         	3.815          	0.062
MS.724         	3.807          	0.062
MS.725         	3.8            	0.06
MS.726         	3.793          	0.066
MS.727         	3.785          	0.062
MS.728         	3.777          	0.06
MS.729         	3.77           	0.062
MS.730         	3.762          	0.062
MS.731         	3.755          	0.06
MS.732         	3.747          	0.062
MS.733         	3.74           	0.062
MS.734         	3.732          	0.064
MS.735         	3.725          	0.064
MS.736         	3.717          	0.06
MS.737         	3.71           	0.058
MS.738         	3.702          	0.062
MS.739         	3.695          	0.062
MS.740         	3.688          	0.064
MS.741         	3.68           	0.06
MS.742         	3.672          	0.062
MS.743         	3.665          	0.06
DERIVED EXCITABILITY VARIABLES
Program = QTracP 9/10/2021
Threshold method = 6 (optimised for CAP, using data for present condition only)
SR method = 1 (using actual data values)
6.                 	0.000               	Peak response\(mV)
9.                 	33.9                	Temperature ( C)
17.                	29                  	Age (years)
18.                	1                   	Sex (M=1, F=2)

EXTRA VARIABLES

MScPeak(mV) = 6.89
MScS5(mA) = 8.43
MScS50(mA) = 10.23
MScS95(mA) = 12.32
MScNSteps = 4
MScSteps(%) = 10.8
MScStepMax(%) = 3.3
MScD50 = 39
MScSlope = 5.88
MScDuration(min) = 7
MSFTraces = 536
MSFPeakAmp(mV) = 6.94
MSFNUnits = 85
MSFMeanUnitAmp(uV) = 81.6
MSFHuntTime(m) = 2.75
MSFError(%) = 2.85
MSFNLarge = 25.64
MSFMedianAmp(%) = 1.03
MSFMedianAmp(mV) = 0.0716
MSFHalfAmpAmp(%) = 1.34
MSFHalfAmpAmp(mV) = 0.0929
MSFLargestAmp(%) = 5.73
MSFLargestAmp(mV) = 0.397
MSFMeanRS(%) = 2
MSFSizeLimit(uV) = 17.3
MSFLimitType = 1
MSFSmallestAmp(uV) = 19.1
MSFOpts = 10106121

EXTRA WAVEFORMS


!MScan Model
!85
	1	7.57	0.3	2
	2	7.97	0.42	2
	3	8.11	0.68	2
	4	8.23	0.75	2
	5	8.31	0.95	2
	6	8.41	0.87	2
	7	8.48	0.92	2
	8	8.59	1.1	2
	9	8.67	0.57	2
	10	8.75	0.93	2
	11	8.8	0.42	2
	12	8.86	0.68	2
	13	8.95	0.75	2
	14	9.02	1.16	2
	15	9.08	0.94	2
	16	9.17	1.44	2
	17	9.27	2.29	2
	18	9.36	1.85	2
	19	9.44	0.72	2
	20	9.48	1.32	2
	21	9.52	1.54	2
	22	9.56	1.56	2
	23	9.6	1.34	2
	24	9.63	1.21	2
	25	9.67	1.42	2
	26	9.7	1.31	2
	27	9.73	1.18	2
	28	9.74	0.92	2
	29	9.76	1.17	2
	30	9.78	1.33	2
	31	9.8	1.55	2
	32	9.84	1.78	2
	33	9.88	1.44	2
	34	9.93	1.33	2
	35	9.97	1.34	2
	36	10.01	1.52	2
	37	10.07	2.21	2
	38	10.1	0.9	2
	39	10.13	0.75	2
	40	10.17	0.86	2
	41	10.18	0.69	2
	42	10.2	0.64	2
	43	10.22	0.49	2
	44	10.24	0.61	2
	45	10.25	0.73	2
	46	10.27	0.73	2
	47	10.28	0.65	2
	48	10.3	0.67	2
	49	10.31	0.69	2
	50	10.33	0.73	2
	51	10.34	0.6	2
	52	10.36	0.59	2
	53	10.37	0.59	2
	54	10.4	1.12	2
	55	10.43	1.03	2
	56	10.45	0.86	2
	57	10.49	1.29	2
	58	10.53	0.97	2
	59	10.58	1.08	2
	60	10.66	2.14	2
	61	10.75	1.53	2
	62	10.83	1.46	2
	63	10.91	1.38	2
	64	10.98	1.5	2
	65	11.04	1.24	2
	66	11.09	1.03	2
	67	11.16	1.61	2
	68	11.34	3.19	2
	69	11.44	1.97	2
	70	11.54	1.72	2
	71	11.54	0.43	2
	72	11.77	0.96	2
	73	11.77	5.73	2
	74	11.93	3.13	2
	75	12	1.22	2
	76	12.06	1.22	2
	77	12.17	1.97	2
	78	12.48	1.86	2
	79	12.7	1.16	2
	80	12.8	0.3	2
	81	13.33	0.62	2
	82	13.46	0.28	2
	83	13.53	0.28	2
	84	13.66	0.99	2
	85	13.92	0.59	2

