File:              	C:\Qtrac\Data\CKMC01118F.QZD
Name:              	RHS08
Protocol:          	MSCAN-R2
Date:              	18/11/20
Start time:        	11:11:33
Age:               	65
Sex:               	F
Temperature:       	38.2
S/R sites:         	RMedian Wr-APB
NC/disease:        	NC
Operator:          	CK
Comments:          	CG
M-SCAN DATA (7.8-1.5m)
Scanpts: 109, 128, 650, 669
Stim. (mA)     	Amp. (mV)
MS.1           	14             	5.897
MS.2           	14             	5.891
MS.3           	14             	5.909
MS.4           	14             	5.897
MS.5           	14             	5.9
MS.6           	14             	5.889
MS.7           	14             	5.893
MS.8           	14             	5.895
MS.9           	14             	5.9
MS.10          	14             	5.899
MS.11          	14             	5.883
MS.12          	14             	5.862
MS.13          	14             	5.877
MS.14          	14             	5.871
MS.15          	14             	5.873
MS.16          	14             	5.869
MS.17          	14             	5.866
MS.18          	14             	5.872
MS.19          	14             	5.895
MS.20          	14             	5.892
MS.21          	14             	5.897
MS.22          	14             	5.884
MS.23          	14             	5.907
MS.24          	13.945         	5.921
MS.25          	13.915         	5.888
MS.26          	13.89          	5.889
MS.27          	13.86          	5.87
MS.28          	13.835         	5.883
MS.29          	13.805         	5.864
MS.30          	13.78          	5.895
MS.31          	13.75          	5.891
MS.32          	13.725         	5.897
MS.33          	13.695         	5.905
MS.34          	13.67          	5.903
MS.35          	13.64          	5.915
MS.36          	13.615         	5.924
MS.37          	13.585         	5.918
MS.38          	13.56          	5.925
MS.39          	13.53          	5.933
MS.40          	13.505         	5.95
MS.41          	13.48          	5.944
MS.42          	13.45          	5.946
MS.43          	13.425         	5.949
MS.44          	13.395         	5.95
MS.45          	13.37          	5.947
MS.46          	13.345         	5.942
MS.47          	13.315         	5.945
MS.48          	13.29          	5.954
MS.49          	13.265         	5.957
MS.50          	13.235         	5.953
MS.51          	13.21          	5.956
MS.52          	13.185         	5.956
MS.53          	13.16          	5.952
MS.54          	13.13          	5.952
MS.55          	13.105         	5.934
MS.56          	13.08          	5.925
MS.57          	13.055         	5.906
MS.58          	13.025         	5.876
MS.59          	13             	5.909
MS.60          	12.975         	5.903
MS.61          	12.95          	5.9
MS.62          	12.925         	5.919
MS.63          	12.9           	5.91
MS.64          	12.87          	5.909
MS.65          	12.845         	5.919
MS.66          	12.82          	5.912
MS.67          	12.795         	5.917
MS.68          	12.77          	5.914
MS.69          	12.745         	5.93
MS.70          	12.72          	5.946
MS.71          	12.695         	5.95
MS.72          	12.67          	5.957
MS.73          	12.64          	5.96
MS.74          	12.615         	5.959
MS.75          	12.59          	5.948
MS.76          	12.565         	5.925
MS.77          	12.54          	5.947
MS.78          	12.515         	5.956
MS.79          	12.49          	5.951
MS.80          	12.465         	5.929
MS.81          	12.44          	5.938
MS.82          	12.415         	5.945
MS.83          	12.39          	5.948
MS.84          	12.365         	5.953
MS.85          	12.345         	5.94
MS.86          	12.32          	5.944
MS.87          	12.295         	5.974
MS.88          	12.27          	5.97
MS.89          	12.245         	5.973
MS.90          	12.22          	5.958
MS.91          	12.195         	5.969
MS.92          	12.17          	5.97
MS.93          	12.145         	5.972
MS.94          	12.12          	5.973
MS.95          	12.1           	5.964
MS.96          	12.075         	5.967
MS.97          	12.05          	5.977
MS.98          	12.025         	5.979
MS.99          	12             	5.983
MS.100         	11.98          	5.988
MS.101         	11.955         	6
MS.102         	11.93          	6.003
MS.103         	11.905         	6
MS.104         	11.88          	6.01
MS.105         	11.86          	6.005
MS.106         	11.835         	6.036
MS.107         	11.81          	6.039
MS.108         	11.79          	6.02
MS.109         	11.765         	6.039
MS.110         	11.74          	6.03
MS.111         	11.715         	6.036
MS.112         	11.695         	6.04
MS.113         	11.67          	6.041
MS.114         	11.645         	6.062
MS.115         	11.625         	6.048
MS.116         	11.6           	6.06
MS.117         	11.575         	6.046
MS.118         	11.555         	6.046
MS.119         	11.53          	6.033
MS.120         	11.51          	6.043
MS.121         	11.485         	6.04
MS.122         	11.46          	6.041
MS.123         	11.44          	6.042
MS.124         	11.415         	6.055
MS.125         	11.395         	6.04
MS.126         	11.37          	6.048
MS.127         	11.35          	6.038
MS.128         	11.325         	6.056
MS.129         	11.305         	6.035
MS.130         	11.28          	6.049
MS.131         	11.26          	6.036
MS.132         	11.235         	6.047
MS.133         	11.215         	6.046
MS.134         	11.19          	6.037
MS.135         	11.17          	6.045
MS.136         	11.145         	6.044
MS.137         	11.125         	6.049
MS.138         	11.1           	6.06
MS.139         	11.08          	6.051
MS.140         	11.055         	6.052
MS.141         	11.035         	6.044
MS.142         	11.015         	6.063
MS.143         	10.99          	6.052
MS.144         	10.97          	5.965
MS.145         	10.945         	6.05
MS.146         	10.925         	6.041
MS.147         	10.905         	5.949
MS.148         	10.88          	6.061
MS.149         	10.86          	5.981
MS.150         	10.84          	6.023
MS.151         	10.815         	6.031
MS.152         	10.795         	5.953
MS.153         	10.775         	5.948
MS.154         	10.75          	5.941
MS.155         	10.73          	5.985
MS.156         	10.71          	6.038
MS.157         	10.685         	5.964
MS.158         	10.665         	5.97
MS.159         	10.645         	5.963
MS.160         	10.625         	5.948
MS.161         	10.6           	5.98
MS.162         	10.58          	5.989
MS.163         	10.56          	5.908
MS.164         	10.54          	5.919
MS.165         	10.52          	5.875
MS.166         	10.495         	5.598
MS.167         	10.475         	5.912
MS.168         	10.455         	5.881
MS.169         	10.435         	5.89
MS.170         	10.415         	5.872
MS.171         	10.39          	5.76
MS.172         	10.37          	5.911
MS.173         	10.35          	5.89
MS.174         	10.33          	5.638
MS.175         	10.31          	5.911
MS.176         	10.29          	5.638
MS.177         	10.27          	5.857
MS.178         	10.25          	5.656
MS.179         	10.225         	5.575
MS.180         	10.205         	5.818
MS.181         	10.185         	5.542
MS.182         	10.165         	5.834
MS.183         	10.145         	5.593
MS.184         	10.125         	5.494
MS.185         	10.105         	5.807
MS.186         	10.085         	5.493
MS.187         	10.065         	5.77
MS.188         	10.045         	5.505
MS.189         	10.025         	5.545
MS.190         	10.005         	5.497
MS.191         	9.985          	5.549
MS.192         	9.965          	5.529
MS.193         	9.945          	5.78
MS.194         	9.925          	5.509
MS.195         	9.905          	5.5
MS.196         	9.885          	5.504
MS.197         	9.865          	5.466
MS.198         	9.845          	5.459
MS.199         	9.825          	5.477
MS.200         	9.805          	5.469
MS.201         	9.785          	5.469
MS.202         	9.765          	5.46
MS.203         	9.75           	5.447
MS.204         	9.73           	5.439
MS.205         	9.71           	5.455
MS.206         	9.69           	5.393
MS.207         	9.67           	5.46
MS.208         	9.65           	5.399
MS.209         	9.63           	5.392
MS.210         	9.61           	5.396
MS.211         	9.595          	5.383
MS.212         	9.575          	5.367
MS.213         	9.555          	5.351
MS.214         	9.535          	5.388
MS.215         	9.515          	5.334
MS.216         	9.5            	5.377
MS.217         	9.48           	5.365
MS.218         	9.46           	5.377
MS.219         	9.44           	5.35
MS.220         	9.42           	5.352
MS.221         	9.405          	5.34
MS.222         	9.385          	5.346
MS.223         	9.365          	5.336
MS.224         	9.345          	5.357
MS.225         	9.33           	5.319
MS.226         	9.31           	5.347
MS.227         	9.29           	5.307
MS.228         	9.275          	5.088
MS.229         	9.255          	5.341
MS.230         	9.235          	5.31
MS.231         	9.215          	5.308
MS.232         	9.2            	5.297
MS.233         	9.18           	5.285
MS.234         	9.16           	5.287
MS.235         	9.145          	5.306
MS.236         	9.125          	5.043
MS.237         	9.105          	5.062
MS.238         	9.09           	5.013
MS.239         	9.07           	4.717
MS.240         	9.055          	5.057
MS.241         	9.035          	5.007
MS.242         	9.015          	5.306
MS.243         	9              	4.758
MS.244         	8.98           	5.067
MS.245         	8.965          	4.492
MS.246         	8.945          	4.736
MS.247         	8.925          	4.889
MS.248         	8.91           	4.11
MS.249         	8.89           	4.124
MS.250         	8.875          	4.199
MS.251         	8.855          	4.66
MS.252         	8.84           	4.031
MS.253         	8.82           	4.12
MS.254         	8.805          	4.069
MS.255         	8.785          	4.049
MS.256         	8.77           	4.023
MS.257         	8.75           	3.914
MS.258         	8.735          	3.977
MS.259         	8.715          	3.767
MS.260         	8.7            	3.818
MS.261         	8.68           	3.936
MS.262         	8.665          	3.679
MS.263         	8.645          	3.884
MS.264         	8.63           	3.558
MS.265         	8.61           	3.93
MS.266         	8.595          	3.562
MS.267         	8.575          	3.734
MS.268         	8.56           	3.68
MS.269         	8.54           	3.509
MS.270         	8.525          	3.758
MS.271         	8.51           	3.454
MS.272         	8.49           	3.78
MS.273         	8.475          	3.498
MS.274         	8.46           	3.474
MS.275         	8.44           	3.523
MS.276         	8.425          	3.499
MS.277         	8.405          	3.456
MS.278         	8.39           	3.456
MS.279         	8.375          	3.452
MS.280         	8.355          	3.448
MS.281         	8.34           	3.597
MS.282         	8.325          	3.436
MS.283         	8.305          	3.424
MS.284         	8.29           	3.398
MS.285         	8.275          	3.472
MS.286         	8.255          	3.364
MS.287         	8.24           	3.318
MS.288         	8.225          	3.371
MS.289         	8.21           	3.387
MS.290         	8.19           	3.363
MS.291         	8.175          	3.394
MS.292         	8.16           	3.3
MS.293         	8.14           	3.293
MS.294         	8.125          	3.256
MS.295         	8.11           	3.307
MS.296         	8.095          	3.311
MS.297         	8.075          	3.239
MS.298         	8.06           	3.209
MS.299         	8.045          	3.263
MS.300         	8.03           	3.197
MS.301         	8.015          	3.3
MS.302         	7.995          	3.157
MS.303         	7.98           	3.119
MS.304         	7.965          	3.213
MS.305         	7.95           	3.142
MS.306         	7.935          	3.18
MS.307         	7.915          	3.196
MS.308         	7.9            	3.122
MS.309         	7.885          	3.098
MS.310         	7.87           	3.193
MS.311         	7.855          	2.985
MS.312         	7.84           	3.083
MS.313         	7.825          	3.102
MS.314         	7.805          	3.058
MS.315         	7.79           	2.763
MS.316         	7.775          	2.88
MS.317         	7.76           	2.869
MS.318         	7.745          	3.054
MS.319         	7.73           	2.72
MS.320         	7.715          	2.906
MS.321         	7.7            	2.988
MS.322         	7.685          	2.858
MS.323         	7.67           	2.907
MS.324         	7.655          	2.87
MS.325         	7.635          	3.004
MS.326         	7.62           	2.477
MS.327         	7.605          	2.887
MS.328         	7.59           	2.491
MS.329         	7.575          	2.526
MS.330         	7.56           	2.474
MS.331         	7.545          	2.83
MS.332         	7.53           	2.341
MS.333         	7.515          	2.643
MS.334         	7.5            	2.388
MS.335         	7.485          	2.455
MS.336         	7.47           	2.343
MS.337         	7.455          	2.435
MS.338         	7.44           	2.449
MS.339         	7.425          	2.275
MS.340         	7.41           	2.328
MS.341         	7.395          	2.175
MS.342         	7.38           	2.274
MS.343         	7.365          	2.125
MS.344         	7.355          	2.226
MS.345         	7.34           	2.152
MS.346         	7.325          	2.154
MS.347         	7.31           	2.019
MS.348         	7.295          	2.025
MS.349         	7.28           	2.065
MS.350         	7.265          	2.07
MS.351         	7.25           	1.945
MS.352         	7.235          	1.973
MS.353         	7.22           	2.029
MS.354         	7.205          	1.928
MS.355         	7.195          	1.801
MS.356         	7.18           	1.99
MS.357         	7.165          	1.826
MS.358         	7.15           	1.946
MS.359         	7.135          	1.984
MS.360         	7.12           	1.782
MS.361         	7.105          	1.87
MS.362         	7.095          	1.75
MS.363         	7.08           	1.938
MS.364         	7.065          	1.755
MS.365         	7.05           	1.766
MS.366         	7.035          	1.761
MS.367         	7.02           	1.664
MS.368         	7.01           	1.782
MS.369         	6.995          	1.652
MS.370         	6.98           	1.747
MS.371         	6.965          	1.55
MS.372         	6.95           	1.694
MS.373         	6.94           	1.708
MS.374         	6.925          	1.733
MS.375         	6.91           	1.637
MS.376         	6.895          	1.714
MS.377         	6.885          	1.65
MS.378         	6.87           	1.692
MS.379         	6.855          	1.686
MS.380         	6.84           	1.676
MS.381         	6.83           	1.248
MS.382         	6.815          	1.403
MS.383         	6.8            	1.505
MS.384         	6.785          	1.467
MS.385         	6.775          	1.437
MS.386         	6.76           	1.47
MS.387         	6.745          	1.234
MS.388         	6.735          	1.294
MS.389         	6.72           	1.313
MS.390         	6.705          	1.42
MS.391         	6.695          	1.412
MS.392         	6.68           	1.426
MS.393         	6.665          	1.216
MS.394         	6.655          	1.326
MS.395         	6.64           	1.271
MS.396         	6.625          	1.21
MS.397         	6.615          	1.185
MS.398         	6.6            	1.267
MS.399         	6.585          	1.179
MS.400         	6.575          	1.185
MS.401         	6.56           	1.164
MS.402         	6.545          	1.096
MS.403         	6.535          	1.136
MS.404         	6.52           	1.161
MS.405         	6.51           	1.078
MS.406         	6.495          	1.06
MS.407         	6.48           	1.151
MS.408         	6.47           	1.057
MS.409         	6.455          	0.781
MS.410         	6.445          	1.053
MS.411         	6.43           	0.786
MS.412         	6.42           	0.856
MS.413         	6.405          	1.017
MS.414         	6.39           	1.019
MS.415         	6.38           	1.017
MS.416         	6.365          	1.055
MS.417         	6.355          	1.025
MS.418         	6.34           	0.922
MS.419         	6.33           	0.907
MS.420         	6.315          	0.791
MS.421         	6.305          	0.798
MS.422         	6.29           	0.761
MS.423         	6.28           	0.963
MS.424         	6.265          	0.722
MS.425         	6.255          	0.837
MS.426         	6.24           	0.691
MS.427         	6.23           	0.701
MS.428         	6.215          	0.721
MS.429         	6.205          	0.762
MS.430         	6.19           	0.745
MS.431         	6.18           	0.766
MS.432         	6.165          	0.748
MS.433         	6.155          	0.724
MS.434         	6.14           	0.737
MS.435         	6.13           	0.712
MS.436         	6.115          	0.695
MS.437         	6.105          	0.658
MS.438         	6.09           	0.727
MS.439         	6.08           	0.666
MS.440         	6.07           	0.449
MS.441         	6.055          	0.67
MS.442         	6.045          	0.68
MS.443         	6.03           	0.682
MS.444         	6.02           	0.679
MS.445         	6.01           	0.679
MS.446         	5.995          	0.677
MS.447         	5.985          	0.682
MS.448         	5.97           	0.406
MS.449         	5.96           	0.63
MS.450         	5.95           	0.638
MS.451         	5.935          	0.384
MS.452         	5.925          	0.378
MS.453         	5.91           	0.387
MS.454         	5.9            	0.363
MS.455         	5.89           	0.374
MS.456         	5.875          	0.627
MS.457         	5.865          	0.383
MS.458         	5.855          	0.406
MS.459         	5.84           	0.374
MS.460         	5.83           	0.381
MS.461         	5.82           	0.371
MS.462         	5.805          	0.369
MS.463         	5.795          	0.381
MS.464         	5.785          	0.371
MS.465         	5.77           	0.377
MS.466         	5.76           	0.37
MS.467         	5.75           	0.365
MS.468         	5.74           	0.297
MS.469         	5.725          	0.376
MS.470         	5.715          	0.375
MS.471         	5.705          	0.383
MS.472         	5.69           	0.369
MS.473         	5.68           	0.367
MS.474         	5.67           	0.379
MS.475         	5.66           	0.375
MS.476         	5.645          	0.392
MS.477         	5.635          	0.301
MS.478         	5.625          	0.291
MS.479         	5.615          	0.283
MS.480         	5.6            	0.377
MS.481         	5.59           	0.322
MS.482         	5.58           	0.242
MS.483         	5.57           	0.248
MS.484         	5.555          	0.248
MS.485         	5.545          	0.234
MS.486         	5.535          	0.33
MS.487         	5.525          	0.247
MS.488         	5.515          	0.292
MS.489         	5.5            	0.291
MS.490         	5.49           	0.289
MS.491         	5.48           	0.286
MS.492         	5.47           	0.284
MS.493         	5.46           	0.215
MS.494         	5.445          	0.298
MS.495         	5.435          	0.22
MS.496         	5.425          	0.242
MS.497         	5.415          	0.235
MS.498         	5.405          	0.219
MS.499         	5.395          	0.246
MS.500         	5.38           	0.217
MS.501         	5.37           	0.219
MS.502         	5.36           	0.214
MS.503         	5.35           	0.266
MS.504         	5.34           	0.223
MS.505         	5.33           	0.212
MS.506         	5.32           	0.209
MS.507         	5.305          	0.223
MS.508         	5.295          	0.222
MS.509         	5.285          	0.222
MS.510         	5.275          	0.215
MS.511         	5.265          	0.22
MS.512         	5.255          	0.214
MS.513         	5.245          	0.217
MS.514         	5.235          	0.217
MS.515         	5.225          	0.219
MS.516         	5.21           	0.219
MS.517         	5.2            	0.215
MS.518         	5.19           	0.216
MS.519         	5.18           	0.22
MS.520         	5.17           	0.213
MS.521         	5.16           	0.217
MS.522         	5.15           	0.216
MS.523         	5.14           	0.193
MS.524         	5.13           	0.21
MS.525         	5.12           	0.198
MS.526         	5.11           	0.219
MS.527         	5.1            	0.188
MS.528         	5.09           	0.17
MS.529         	5.08           	0.219
MS.530         	5.07           	0.177
MS.531         	5.06           	0.188
MS.532         	5.05           	0.186
MS.533         	5.04           	0.196
MS.534         	5.03           	0.215
MS.535         	5.02           	0.172
MS.536         	5.01           	0.158
MS.537         	5              	0.179
MS.538         	4.99           	0.195
MS.539         	4.98           	0.165
MS.540         	4.97           	0.161
MS.541         	4.96           	0.168
MS.542         	4.95           	0.162
MS.543         	4.94           	0.16
MS.544         	4.93           	0.172
MS.545         	4.92           	0.187
MS.546         	4.91           	0.164
MS.547         	4.9            	0.186
MS.548         	4.89           	0.168
MS.549         	4.88           	0.164
MS.550         	4.87           	0.17
MS.551         	4.86           	0.162
MS.552         	4.85           	0.175
MS.553         	4.84           	0.166
MS.554         	4.83           	0.156
MS.555         	4.82           	0.167
MS.556         	4.81           	0.112
MS.557         	4.8            	0.175
MS.558         	4.795          	0.179
MS.559         	4.785          	0.173
MS.560         	4.775          	0.148
MS.561         	4.765          	0.171
MS.562         	4.755          	0.167
MS.563         	4.745          	0.168
MS.564         	4.735          	0.109
MS.565         	4.725          	0.121
MS.566         	4.715          	0.11
MS.567         	4.705          	0.085
MS.568         	4.7            	0.167
MS.569         	4.69           	0.158
MS.570         	4.68           	0.082
MS.571         	4.67           	0.082
MS.572         	4.66           	0.113
MS.573         	4.65           	0.075
MS.574         	4.64           	0.089
MS.575         	4.63           	0.092
MS.576         	4.625          	0.089
MS.577         	4.615          	0.09
MS.578         	4.605          	0.087
MS.579         	4.595          	0.09
MS.580         	4.585          	0.089
MS.581         	4.575          	0.085
MS.582         	4.57           	0.113
MS.583         	4.56           	0.075
MS.584         	4.55           	0.081
MS.585         	4.54           	0.079
MS.586         	4.53           	0.089
MS.587         	4.52           	0.082
MS.588         	4.515          	0.081
MS.589         	4.505          	0.09
MS.590         	4.495          	0.084
MS.591         	4.485          	0.088
MS.592         	4.475          	0.082
MS.593         	4.47           	0.088
MS.594         	4.46           	0.034
MS.595         	4.45           	0.088
MS.596         	4.44           	0.091
MS.597         	4.435          	0.081
MS.598         	4.425          	0.084
MS.599         	4.415          	0.049
MS.600         	4.405          	0.083
MS.601         	4.4            	0.081
MS.602         	4.39           	0.039
MS.603         	4.38           	0.039
MS.604         	4.37           	0.081
MS.605         	4.365          	0.044
MS.606         	4.355          	0.089
MS.607         	4.345          	0.041
MS.608         	4.335          	0.034
MS.609         	4.33           	0.029
MS.610         	4.32           	0.079
MS.611         	4.31           	0.037
MS.612         	4.3            	0.089
MS.613         	4.295          	0.084
MS.614         	4.285          	0.083
MS.615         	4.275          	0.04
MS.616         	4.27           	0.037
MS.617         	4.26           	0.042
MS.618         	4.25           	0.043
MS.619         	4.24           	0.039
MS.620         	4.235          	0.08
MS.621         	4.225          	0.03
MS.622         	4.215          	0.04
MS.623         	4.21           	0.038
MS.624         	4.2            	0.044
MS.625         	4.19           	0.037
MS.626         	4.185          	0.045
MS.627         	4.175          	0.041
MS.628         	4.165          	0.056
MS.629         	4.16           	0.039
MS.630         	4.15           	0.049
MS.631         	4.14           	0.033
MS.632         	4.135          	0.035
MS.633         	4.125          	0.048
MS.634         	4.115          	0.037
MS.635         	4.11           	0.045
MS.636         	4.1            	0.033
MS.637         	4.09           	0.027
MS.638         	4.085          	0.032
MS.639         	4.075          	0.043
MS.640         	4.07           	0.026
MS.641         	4.06           	0.034
MS.642         	4.05           	0.039
MS.643         	4.045          	0.045
MS.644         	4.035          	0.039
MS.645         	4.025          	0.027
MS.646         	4.02           	0.043
MS.647         	4.01           	0.031
MS.648         	4.005          	0.043
MS.649         	3.995          	0.037
MS.650         	3.985          	0.016
MS.651         	3.98           	0.047
MS.652         	3.97           	0.034
MS.653         	3.965          	0.033
MS.654         	3.955          	0.035
MS.655         	3.945          	0.033
MS.656         	3.94           	0.037
MS.657         	3.93           	0.042
MS.658         	3.925          	0.03
MS.659         	3.915          	0.037
MS.660         	3.91           	0.04
MS.661         	3.9            	0.038
MS.662         	3.895          	0.037
MS.663         	3.885          	0.035
MS.664         	3.875          	0.029
MS.665         	3.87           	0.037
MS.666         	3.86           	0.035
MS.667         	3.855          	0.031
MS.668         	3.845          	0.037
MS.669         	3.84           	0.035
DERIVED EXCITABILITY VARIABLES
Program = QTracP 20/9/2019
Threshold method = 6 (optimised for CAP, using data for present condition only)
SR method = 1 (using actual data values)
6.                 	0.000               	Peak response\(mV)
9.                 	38.2                	Temperature ( C)
17.                	65                  	Age (years)
18.                	2                   	Sex (M=1, F=2)

EXTRA VARIABLES

MScPeak(mV) = 5.85
MScS5(mA) = 5.54
MScS50(mA) = 7.71
MScS95(mA) = 10.08
MScNSteps = 3
MScSteps(%) = 11.4
MScStepMax(%) = 5
MScD50 = 40
Height = 159
MSFPeakAmp(mV) = 6.01
MSFNUnits = 73
MSFMeanUnitAmp(uV) = 82.3
MSFHuntTime(m) = 2.65
MSFError(%) = 3.76
MSFNLarge = 17.48
MSFMedianAmp(%) = 1.01
MSFMedianAmp(mV) = 0.0606
MSFHalfAmpAmp(%) = 1.94
MSFHalfAmpAmp(mV) = 0.117
MSFLargestAmp(%) = 4.68
MSFLargestAmp(mV) = 0.281
MSFMeanRS(%) = 2.01
MSFOpts = 10106121
MScDuration(min) = 6.3
MSFTraces = 561
MSFSizeLimit(uV) = 16.5
MSFLimitType = 3
MSFSmallestAmp(uV) = 19.2

EXTRA WAVEFORMS


!MScan Model
!73
	1	4.37	0.5	2
	2	4.61	0.47	2
	3	4.68	0.38	2
	4	4.79	0.64	2
	5	5.03	0.89	2
	6	5.36	0.42	2
	7	5.54	0.94	2
	8	5.63	0.73	2
	9	5.85	1.13	2
	10	6	4.57	2
	11	6.21	1.52	2
	12	6.26	1.07	2
	13	6.41	2.61	2
	14	6.49	1.42	2
	15	6.54	1.02	2
	16	6.57	0.88	2
	17	6.61	1.03	2
	18	6.65	0.8	2
	19	6.74	1.72	2
	20	6.8	1.86	2
	21	6.87	1.38	2
	22	7.01	3.01	2
	23	7.08	0.96	2
	24	7.13	0.94	2
	25	7.17	0.92	2
	26	7.21	0.85	2
	27	7.24	0.65	2
	28	7.27	0.74	2
	29	7.29	0.42	2
	30	7.3	0.33	2
	31	7.32	0.37	2
	32	7.33	0.42	2
	33	7.34	0.43	2
	34	7.36	0.56	2
	35	7.4	1.01	2
	36	7.43	1.24	2
	37	7.49	2.01	2
	38	7.56	2.31	2
	39	7.66	3.05	2
	40	7.76	2.82	2
	41	7.83	1.63	2
	42	7.89	0.85	2
	43	7.96	1.53	2
	44	8	0.43	2
	45	8.03	0.47	2
	46	8.07	0.46	2
	47	8.1	0.39	2
	48	8.14	0.48	2
	49	8.18	0.56	2
	50	8.23	0.64	2
	51	8.3	0.68	2
	52	8.46	1.36	2
	53	8.46	0.91	2
	54	8.56	1.73	2
	55	8.63	1.81	2
	56	8.7	1.94	2
	57	8.75	1.72	2
	58	8.8	2.4	2
	59	8.82	4.68	2
	60	8.84	2.2	2.4
	61	8.88	2.43	2
	62	8.93	2.83	2
	63	8.98	2.71	2
	64	9.05	3.33	2
	65	9.39	1.7	2
	66	9.5	0.56	2
	67	9.59	0.43	2
	68	9.65	0.4	2
	69	9.72	0.32	2
	70	9.88	1.27	2
	71	10.24	3.89	2
	72	10.49	2.19	2
	73	10.8	2.04	2

