File:              	C:\Qtrac\Data\Daniel M Sørensen\MScan multicentre study\Data from centres\Oslo\IronKey\Oslo_NC_first examination\SZC00519D.QZD
Name:              	NO.OSL.NC.12.1
Protocol:          	MSCAN-R2
Date:              	19/5/20
Start time:        	17:07:36
Age:               	53
Sex:               	F
Temperature:       	31.2
S/R sites:         	Median Wr-APB
NC/disease:        	NC12
Operator:          	SZ
Comments:          	Test1
M-SCAN DATA (6.5-2.7m)
Scanpts: 39, 43, 408, 419
Stim. (mA)     	Amp. (mV)
MS.1           	12             	10.157
MS.2           	12             	10.153
MS.3           	12             	10.167
MS.4           	12             	10.163
MS.5           	12             	10.169
MS.6           	12             	10.169
MS.7           	12             	10.169
MS.8           	12             	10.167
MS.9           	12             	10.176
MS.10          	12             	10.169
MS.11          	12             	10.182
MS.12          	12             	10.192
MS.13          	12             	10.18
MS.14          	12             	10.188
MS.15          	12             	10.184
MS.16          	12             	10.186
MS.17          	12             	10.188
MS.18          	12             	10.186
MS.19          	12             	10.192
MS.20          	12             	10.188
MS.21          	12             	10.19
MS.22          	12             	10.18
MS.23          	12             	10.186
MS.24          	11.952         	10.198
MS.25          	11.927         	10.19
MS.26          	11.905         	10.184
MS.27          	11.88          	10.196
MS.28          	11.858         	10.186
MS.29          	11.832         	10.196
MS.30          	11.81          	10.186
MS.31          	11.785         	10.196
MS.32          	11.762         	10.202
MS.33          	11.74          	10.192
MS.34          	11.715         	10.19
MS.35          	11.693         	10.184
MS.36          	11.667         	10.196
MS.37          	11.645         	10.192
MS.38          	11.622         	10.192
MS.39          	11.6           	10.192
MS.40          	11.575         	10.192
MS.41          	11.552         	10.192
MS.42          	11.53          	10.2
MS.43          	11.507         	10.194
MS.44          	11.483         	10.192
MS.45          	11.46          	10.192
MS.46          	11.438         	10.194
MS.47          	11.415         	10.198
MS.48          	11.392         	10.202
MS.49          	11.37          	10.194
MS.50          	11.347         	10.198
MS.51          	11.325         	10.196
MS.52          	11.3           	10.198
MS.53          	11.278         	10.198
MS.54          	11.255         	10.198
MS.55          	11.233         	10.208
MS.56          	11.21          	10.192
MS.57          	11.188         	10.192
MS.58          	11.167         	10.194
MS.59          	11.145         	10.194
MS.60          	11.122         	10.2
MS.61          	11.1           	10.198
MS.62          	11.077         	10.196
MS.63          	11.055         	10.129
MS.64          	11.032         	10.165
MS.65          	11.01          	10.196
MS.66          	10.99          	9.499
MS.67          	10.967         	10.117
MS.68          	10.945         	9.495
MS.69          	10.922         	9.585
MS.70          	10.903         	9.569
MS.71          	10.88          	9.507
MS.72          	10.858         	9.507
MS.73          	10.837         	9.583
MS.74          	10.815         	9.505
MS.75          	10.792         	9.509
MS.76          	10.773         	9.299
MS.77          	10.75          	9.509
MS.78          	10.727         	9.376
MS.79          	10.707         	9.513
MS.80          	10.685         	9.305
MS.81          	10.665         	9.515
MS.82          	10.642         	10.149
MS.83          	10.622         	9.301
MS.84          	10.6           	9.519
MS.85          	10.58          	9.513
MS.86          	10.557         	9.307
MS.87          	10.537         	9.301
MS.88          	10.515         	9.309
MS.89          	10.495         	9.299
MS.90          	10.475         	9.307
MS.91          	10.452         	9.046
MS.92          	10.432         	9.054
MS.93          	10.412         	9.513
MS.94          	10.39          	9.309
MS.95          	10.37          	9.291
MS.96          	10.35          	9.042
MS.97          	10.327         	9.303
MS.98          	10.307         	9.046
MS.99          	10.287         	9.042
MS.100         	10.267         	9.052
MS.101         	10.245         	9.025
MS.102         	10.225         	9.046
MS.103         	10.205         	9.04
MS.104         	10.185         	9.046
MS.105         	10.165         	9.05
MS.106         	10.145         	9.031
MS.107         	10.125         	9.044
MS.108         	10.102         	8.959
MS.109         	10.082         	9.048
MS.110         	10.062         	9.048
MS.111         	10.042         	9.017
MS.112         	10.023         	9.046
MS.113         	10.002         	9.023
MS.114         	9.983          	9.007
MS.115         	9.962          	9.015
MS.116         	9.943          	9.009
MS.117         	9.922          	9.013
MS.118         	9.903          	8.945
MS.119         	9.885          	9.021
MS.120         	9.865          	8.891
MS.121         	9.845          	9.036
MS.122         	9.825          	9.05
MS.123         	9.805          	9.025
MS.124         	9.785          	8.939
MS.125         	9.765          	8.957
MS.126         	9.747          	8.967
MS.127         	9.727          	8.955
MS.128         	9.707          	8.872
MS.129         	9.688          	8.993
MS.130         	9.67           	8.973
MS.131         	9.65           	8.88
MS.132         	9.63           	8.88
MS.133         	9.61           	8.882
MS.134         	9.592          	8.794
MS.135         	9.573          	8.844
MS.136         	9.552          	8.868
MS.137         	9.535          	8.937
MS.138         	9.515          	8.689
MS.139         	9.497          	8.725
MS.140         	9.477          	8.893
MS.141         	9.457          	8.862
MS.142         	9.44           	8.824
MS.143         	9.42           	8.619
MS.144         	9.403          	8.816
MS.145         	9.382          	8.643
MS.146         	9.365          	8.695
MS.147         	9.345          	8.629
MS.148         	9.327          	8.814
MS.149         	9.307          	8.631
MS.150         	9.29           	8.683
MS.151         	9.27           	8.814
MS.152         	9.252          	8.619
MS.153         	9.235          	8.621
MS.154         	9.215          	8.343
MS.155         	9.198          	8.494
MS.156         	9.18           	8.476
MS.157         	9.16           	8.486
MS.158         	9.142          	8.615
MS.159         	9.125          	8.488
MS.160         	9.105          	8.47
MS.161         	9.087          	8.476
MS.162         	9.07           	8.318
MS.163         	9.052          	8.222
MS.164         	9.033          	8.488
MS.165         	9.015          	8.202
MS.166         	8.997          	8.425
MS.167         	8.98           	8.21
MS.168         	8.96           	8.206
MS.169         	8.943          	8.498
MS.170         	8.925          	8.32
MS.171         	8.908          	8.212
MS.172         	8.89           	8.188
MS.173         	8.872          	8.466
MS.174         	8.855          	8.212
MS.175         	8.837          	8.202
MS.176         	8.82           	8.182
MS.177         	8.802          	8.089
MS.178         	8.783          	8
MS.179         	8.765          	7.994
MS.180         	8.747          	7.952
MS.181         	8.73           	7.66
MS.182         	8.715          	7.922
MS.183         	8.698          	7.996
MS.184         	8.68           	7.946
MS.185         	8.662          	8.002
MS.186         	8.645          	8.063
MS.187         	8.627          	7.555
MS.188         	8.61           	7.914
MS.189         	8.592          	8.073
MS.190         	8.575          	7.614
MS.191         	8.557          	7.658
MS.192         	8.54           	7.706
MS.193         	8.525          	7.628
MS.194         	8.507          	7.382
MS.195         	8.49           	7.734
MS.196         	8.472          	7.35
MS.197         	8.455          	7.553
MS.198         	8.44           	7.263
MS.199         	8.422          	7.293
MS.200         	8.405          	7.275
MS.201         	8.39           	7.462
MS.202         	8.372          	7.41
MS.203         	8.355          	7.34
MS.204         	8.337          	7.237
MS.205         	8.323          	6.979
MS.206         	8.305          	7.456
MS.207         	8.29           	6.921
MS.208         	8.273          	7.136
MS.209         	8.255          	6.554
MS.210         	8.24           	7.011
MS.211         	8.222          	7.056
MS.212         	8.207          	6.758
MS.213         	8.19           	6.663
MS.214         	8.172          	6.518
MS.215         	8.158          	6.625
MS.216         	8.14           	6.766
MS.217         	8.125          	6.766
MS.218         	8.108          	6.345
MS.219         	8.092          	6.385
MS.220         	8.075          	6.296
MS.221         	8.06           	6.159
MS.222         	8.045          	6.347
MS.223         	8.028          	6.208
MS.224         	8.012          	6.079
MS.225         	7.995          	6.254
MS.226         	7.98           	6.038
MS.227         	7.965          	6.103
MS.228         	7.947          	6.119
MS.229         	7.932          	6.079
MS.230         	7.915          	5.972
MS.231         	7.9            	6.069
MS.232         	7.885          	5.91
MS.233         	7.87           	5.859
MS.234         	7.852          	6.057
MS.235         	7.837          	5.978
MS.236         	7.822          	6.004
MS.237         	7.805          	5.853
MS.238         	7.79           	5.974
MS.239         	7.775          	5.954
MS.240         	7.76           	5.865
MS.241         	7.745          	5.767
MS.242         	7.727          	5.66
MS.243         	7.712          	5.738
MS.244         	7.697          	5.416
MS.245         	7.682          	5.414
MS.246         	7.668          	5.654
MS.247         	7.652          	5.329
MS.248         	7.635          	5.021
MS.249         	7.62           	5.37
MS.250         	7.605          	5.158
MS.251         	7.59           	5.398
MS.252         	7.575          	5.166
MS.253         	7.56           	5.102
MS.254         	7.545          	4.844
MS.255         	7.53           	5.066
MS.256         	7.515          	4.947
MS.257         	7.5            	5.118
MS.258         	7.485          	4.876
MS.259         	7.47           	5.118
MS.260         	7.455          	4.719
MS.261         	7.44           	4.753
MS.262         	7.425          	4.685
MS.263         	7.41           	4.882
MS.264         	7.395          	4.753
MS.265         	7.38           	4.741
MS.266         	7.365          	4.761
MS.267         	7.352          	4.385
MS.268         	7.337          	4.592
MS.269         	7.322          	4.542
MS.270         	7.307          	4.246
MS.271         	7.293          	4.306
MS.272         	7.277          	4.475
MS.273         	7.265          	4.093
MS.274         	7.25           	4.427
MS.275         	7.235          	4.071
MS.276         	7.22           	4.449
MS.277         	7.205          	4.189
MS.278         	7.192          	4.016
MS.279         	7.177          	3.944
MS.280         	7.162          	4.163
MS.281         	7.148          	3.978
MS.282         	7.135          	3.766
MS.283         	7.12           	3.738
MS.284         	7.105          	3.785
MS.285         	7.092          	3.873
MS.286         	7.077          	3.768
MS.287         	7.062          	3.642
MS.288         	7.05           	3.68
MS.289         	7.035          	3.551
MS.290         	7.02           	3.773
MS.291         	7.007          	3.44
MS.292         	6.992          	3.623
MS.293         	6.98           	3.559
MS.294         	6.965          	3.249
MS.295         	6.95           	3.472
MS.296         	6.938          	3.309
MS.297         	6.922          	3.321
MS.298         	6.91           	3.37
MS.299         	6.895          	3.094
MS.300         	6.882          	3.1
MS.301         	6.867          	3.013
MS.302         	6.855          	2.997
MS.303         	6.84           	2.991
MS.304         	6.827          	2.919
MS.305         	6.812          	2.735
MS.306         	6.8            	2.641
MS.307         	6.787          	3.015
MS.308         	6.773          	2.786
MS.309         	6.76           	2.745
MS.310         	6.745          	2.63
MS.311         	6.733          	2.82
MS.312         	6.72           	2.27
MS.313         	6.705          	2.721
MS.314         	6.692          	2.596
MS.315         	6.677          	2.371
MS.316         	6.665          	2.351
MS.317         	6.652          	2.036
MS.318         	6.637          	2.316
MS.319         	6.625          	1.93
MS.320         	6.612          	2.336
MS.321         	6.6            	2.129
MS.322         	6.585          	2.326
MS.323         	6.572          	1.992
MS.324         	6.56           	1.825
MS.325         	6.547          	1.73
MS.326         	6.532          	1.974
MS.327         	6.52           	1.96
MS.328         	6.507          	1.942
MS.329         	6.495          	1.831
MS.330         	6.48           	1.531
MS.331         	6.467          	1.644
MS.332         	6.455          	1.525
MS.333         	6.442          	1.553
MS.334         	6.43           	1.744
MS.335         	6.418          	1.468
MS.336         	6.405          	1.259
MS.337         	6.39           	1.557
MS.338         	6.378          	1.19
MS.339         	6.365          	1.293
MS.340         	6.352          	1.156
MS.341         	6.34           	0.862
MS.342         	6.327          	1.082
MS.343         	6.315          	0.931
MS.344         	6.302          	0.741
MS.345         	6.29           	1.074
MS.346         	6.277          	0.796
MS.347         	6.265          	0.786
MS.348         	6.253          	0.715
MS.349         	6.24           	0.858
MS.350         	6.227          	0.781
MS.351         	6.215          	0.731
MS.352         	6.202          	0.747
MS.353         	6.19           	0.508
MS.354         	6.177          	0.443
MS.355         	6.165          	0.185
MS.356         	6.152          	0.397
MS.357         	6.14           	0.667
MS.358         	6.128          	0.191
MS.359         	6.115          	0.359
MS.360         	6.102          	0.407
MS.361         	6.092          	0.346
MS.362         	6.08           	0.363
MS.363         	6.067          	0.514
MS.364         	6.055          	0.453
MS.365         	6.043          	0.218
MS.366         	6.03           	0.173
MS.367         	6.02           	0.459
MS.368         	6.007          	0.149
MS.369         	5.995          	0.187
MS.370         	5.983          	0.352
MS.371         	5.97           	0.123
MS.372         	5.96           	0.123
MS.373         	5.947          	0.123
MS.374         	5.935          	0.125
MS.375         	5.922          	0.167
MS.376         	5.912          	0.119
MS.377         	5.9            	0.101
MS.378         	5.887          	0.137
MS.379         	5.875          	0.123
MS.380         	5.865          	0.014
MS.381         	5.852          	0.111
MS.382         	5.84           	0.103
MS.383         	5.83           	0.014
MS.384         	5.817          	0.032
MS.385         	5.805          	0.113
MS.386         	5.795          	0.018
MS.387         	5.782          	0.002
MS.388         	5.773          	0.002
MS.389         	5.76           	0.014
MS.390         	5.747          	0.002
MS.391         	5.737          	0.002
MS.392         	5.725          	0.01
MS.393         	5.715          	0.006
MS.394         	5.702          	0.01
MS.395         	5.69           	0.01
MS.396         	5.68           	0.000
MS.397         	5.668          	-0.002
MS.398         	5.657          	0.103
MS.399         	5.645          	0.01
MS.400         	5.635          	0.000
MS.401         	5.622          	0.002
MS.402         	5.612          	0.000
MS.403         	5.6            	-0.002
MS.404         	5.59           	0.004
MS.405         	5.577          	0.004
MS.406         	5.567          	-0.002
MS.407         	5.555          	0.004
MS.408         	5.545          	-0.002
MS.409         	5.535          	-0.002
MS.410         	5.523          	0.000
MS.411         	5.512          	-0.002
MS.412         	5.5            	0.002
MS.413         	5.49           	-0.002
MS.414         	5.48           	-0.002
MS.415         	5.467          	0.000
MS.416         	5.457          	-0.002
MS.417         	5.445          	0.002
MS.418         	5.435          	-0.002
MS.419         	5.425          	0.000
MS.420         	5.412          	0.000
MS.421         	5.402          	0.000
MS.422         	5.392          	0.000
MS.423         	5.38           	0.000
MS.424         	5.37           	0.000
MS.425         	5.36           	0.000
MS.426         	5.35           	-0.002
MS.427         	5.338          	0.000
DERIVED EXCITABILITY VARIABLES
Program = QTracP 3/4/2020
Threshold method = 6 (optimised for CAP, using data for present condition only)
SR method = 1 (using actual data values)
6.                 	0.000               	Peak response\(mV)
9.                 	31.2                	Temperature ( C)
17.                	53                  	Age (years)
18.                	2                   	Sex (M=1, F=2)

EXTRA VARIABLES

MScPeak(mV) = 10.18
MScS5(mA) = 6.12
MScS50(mA) = 7.54
MScS95(mA) = 10.84
MScNSteps = 4
MScSteps(%) = 12.1
MScStepMax(%) = 5.2
MScD50 = 41
MScSlope = 4.08
MSFPeakAmp(mV) = 10.2
MSFNUnits = 99
MSFMeanUnitAmp(uV) = 103
MSFHuntTime(m) = 2.13
MSFError(%) = 6.26
MSFNLarge = 34.96
MSFMedianAmp(%) = 0.903
MSFMedianAmp(mV) = 0.0921
MSFHalfAmpAmp(%) = 1.01
MSFHalfAmpAmp(mV) = 0.103
MSFLargestAmp(%) = 6.93
MSFLargestAmp(mV) = 0.706
MSFMeanRS(%) = 2
MSFOpts = 10106121
MScDuration(min) = 3.8
MSFTraces = 381
MSFSizeLimit(uV) = 25.5
MSFLimitType = 1
MSFSmallestAmp(uV) = 42.3

EXTRA WAVEFORMS


!MScan Model
!99
	1	5.81	0.41	2
	2	5.87	0.72	2
	3	5.97	1.03	2
	4	6.07	1.43	2
	5	6.13	1.18	2
	6	6.17	1.08	2
	7	6.21	1.03	2
	8	6.24	0.94	2
	9	6.27	0.81	2
	10	6.29	0.74	2
	11	6.31	0.83	2
	12	6.33	0.71	2
	13	6.35	0.69	2
	14	6.37	0.69	2
	15	6.39	0.73	2
	16	6.41	0.83	2
	17	6.43	0.82	2
	18	6.46	0.85	2
	19	6.48	0.99	2
	20	6.51	1.01	2
	21	6.54	1.1	2
	22	6.56	1.06	2
	23	6.59	1.07	2
	24	6.62	0.96	2
	25	6.64	0.9	2
	26	6.67	0.89	2
	27	6.7	0.87	2
	28	6.72	0.78	2
	29	6.74	0.8	2
	30	6.77	0.81	2
	31	6.79	0.81	2
	32	6.81	0.8	2
	33	6.83	0.79	2
	34	6.85	0.72	2
	35	6.87	0.69	2
	36	6.89	0.65	2
	37	6.91	0.49	2
	38	6.93	0.5	2
	39	6.94	0.49	2
	40	6.96	0.48	2
	41	6.97	0.54	2
	42	6.99	0.61	2
	43	7.01	0.6	2
	44	7.03	0.62	2
	45	7.05	0.74	2
	46	7.08	0.73	2
	47	7.1	0.71	2
	48	7.13	0.75	2
	49	7.15	0.77	2
	50	7.18	0.77	2
	51	7.2	0.75	2
	52	7.23	0.73	2
	53	7.25	0.73	2
	54	7.28	0.82	2
	55	7.31	0.81	2
	56	7.35	1.06	2
	57	7.39	1.1	2
	58	7.42	0.93	2
	59	7.46	0.95	2
	60	7.49	1	2
	61	7.52	0.99	2
	62	7.56	1.02	2
	63	7.57	1.2	2
	64	7.59	0.94	2
	65	7.62	0.9	2
	66	7.65	0.97	2
	67	7.66	0.89	2
	68	7.69	0.84	2
	69	7.77	0.95	2
	70	7.83	1.09	2
	71	7.94	1.71	2
	72	8.04	0.99	2
	73	8.08	0.97	2
	74	8.12	0.9	2
	75	8.15	0.89	2
	76	8.19	0.96	2
	77	8.23	1.04	2
	78	8.27	1.09	2
	79	8.31	1.27	2
	80	8.32	1.63	2
	81	8.36	1.29	2
	82	8.41	1.3	2
	83	8.48	1.62	2
	84	8.55	1.38	2
	85	8.62	1.31	2
	86	8.69	1.3	2
	87	8.81	1.87	2
	88	8.93	1.44	2
	89	9.03	1.37	2
	90	9.18	1.43	2
	91	9.3	1.02	2
	92	9.42	1.1	2
	93	9.58	1.19	2
	94	9.76	0.53	2
	95	10.4	1.93	2
	96	10.53	1.37	2
	97	10.53	0.45	2
	98	10.79	0.99	2.4
	99	11	6.93	2

