File:              	C:\Qtrac\Data\Daniel M Sørensen\MScan multicentre study\Data from centres\Oslo\Processed data\SZC00511A.QZD
Name:              	NO.OSL.NC.4.2
Protocol:          	MSCAN-R2
Date:              	11/5/20
Start time:        	16:04:46
Age:               	39
Sex:               	F
Temperature:       	30.7
S/R sites:         	APB
NC/disease:        	NC4
Operator:          	SZ
Comments:          	Test2
M-SCAN DATA (8-0.7m)
Scanpts: 94, 104, 583, 596
Stim. (mA)     	Amp. (mV)
MS.1           	12             	14.035
MS.2           	12             	14.073
MS.3           	12             	14.073
MS.4           	12             	14.029
MS.5           	12             	14.059
MS.6           	12             	14.101
MS.7           	12             	14.065
MS.8           	12             	14.069
MS.9           	12             	14.079
MS.10          	12             	14.065
MS.11          	12             	14.093
MS.12          	12             	14.099
MS.13          	12             	14.085
MS.14          	12             	14.071
MS.15          	12             	14.095
MS.16          	12             	14.105
MS.17          	12             	14.109
MS.18          	12             	14.097
MS.19          	12             	14.111
MS.20          	12             	14.095
MS.21          	12             	14.097
MS.22          	12             	14.119
MS.23          	11.952         	14.145
MS.24          	11.927         	14.081
MS.25          	11.905         	14.115
MS.26          	11.88          	14.125
MS.27          	11.858         	14.101
MS.28          	11.832         	14.123
MS.29          	11.81          	14.139
MS.30          	11.785         	14.133
MS.31          	11.762         	14.111
MS.32          	11.74          	14.099
MS.33          	11.715         	14.111
MS.34          	11.693         	14.107
MS.35          	11.667         	14.111
MS.36          	11.645         	14.079
MS.37          	11.622         	14.113
MS.38          	11.6           	14.119
MS.39          	11.575         	14.141
MS.40          	11.552         	14.101
MS.41          	11.53          	14.107
MS.42          	11.507         	14.113
MS.43          	11.483         	14.119
MS.44          	11.46          	14.103
MS.45          	11.438         	14.115
MS.46          	11.415         	14.107
MS.47          	11.392         	14.099
MS.48          	11.37          	14.115
MS.49          	11.347         	14.109
MS.50          	11.325         	14.123
MS.51          	11.3           	14.115
MS.52          	11.278         	14.107
MS.53          	11.255         	14.113
MS.54          	11.233         	14.109
MS.55          	11.21          	14.099
MS.56          	11.188         	14.109
MS.57          	11.167         	14.121
MS.58          	11.145         	14.117
MS.59          	11.122         	14.113
MS.60          	11.1           	14.109
MS.61          	11.077         	14.135
MS.62          	11.055         	14.113
MS.63          	11.032         	14.121
MS.64          	11.01          	14.115
MS.65          	10.99          	14.121
MS.66          	10.967         	14.127
MS.67          	10.945         	14.137
MS.68          	10.922         	14.129
MS.69          	10.903         	14.121
MS.70          	10.88          	14.115
MS.71          	10.858         	14.089
MS.72          	10.837         	14.091
MS.73          	10.815         	14.093
MS.74          	10.792         	14.089
MS.75          	10.773         	14.109
MS.76          	10.75          	14.119
MS.77          	10.727         	14.117
MS.78          	10.707         	14.129
MS.79          	10.685         	14.097
MS.80          	10.665         	14.097
MS.81          	10.642         	14.107
MS.82          	10.622         	14.123
MS.83          	10.6           	14.109
MS.84          	10.58          	14.127
MS.85          	10.557         	14.099
MS.86          	10.537         	14.107
MS.87          	10.515         	14.095
MS.88          	10.495         	14.099
MS.89          	10.475         	14.087
MS.90          	10.452         	14.097
MS.91          	10.432         	14.101
MS.92          	10.412         	14.125
MS.93          	10.39          	14.109
MS.94          	10.37          	14.119
MS.95          	10.35          	14.091
MS.96          	10.327         	14.123
MS.97          	10.307         	14.125
MS.98          	10.287         	14.125
MS.99          	10.267         	14.125
MS.100         	10.245         	14.123
MS.101         	10.225         	14.119
MS.102         	10.205         	14.121
MS.103         	10.185         	14.151
MS.104         	10.165         	14.149
MS.105         	10.145         	14.145
MS.106         	10.125         	14.139
MS.107         	10.102         	14.133
MS.108         	10.082         	14.133
MS.109         	10.062         	14.119
MS.110         	10.042         	14.147
MS.111         	10.023         	13.886
MS.112         	10.002         	14.053
MS.113         	9.983          	14.137
MS.114         	9.962          	14.123
MS.115         	9.943          	14.151
MS.116         	9.922          	13.843
MS.117         	9.903          	14.182
MS.118         	9.885          	14.097
MS.119         	9.865          	14.109
MS.120         	9.845          	14.089
MS.121         	9.825          	14.119
MS.122         	9.805          	14.099
MS.123         	9.785          	14.129
MS.124         	9.765          	13.861
MS.125         	9.747          	13.853
MS.126         	9.727          	13.845
MS.127         	9.707          	13.841
MS.128         	9.688          	13.835
MS.129         	9.67           	14.137
MS.130         	9.65           	13.88
MS.131         	9.63           	13.882
MS.132         	9.61           	13.865
MS.133         	9.592          	13.859
MS.134         	9.573          	13.876
MS.135         	9.552          	13.857
MS.136         	9.535          	13.894
MS.137         	9.515          	13.867
MS.138         	9.497          	13.872
MS.139         	9.477          	13.847
MS.140         	9.457          	13.843
MS.141         	9.44           	13.861
MS.142         	9.42           	13.87
MS.143         	9.403          	13.718
MS.144         	9.382          	13.835
MS.145         	9.365          	13.829
MS.146         	9.345          	13.509
MS.147         	9.327          	13.535
MS.148         	9.307          	13.529
MS.149         	9.29           	13.543
MS.150         	9.27           	13.517
MS.151         	9.252          	13.549
MS.152         	9.235          	13.815
MS.153         	9.215          	13.513
MS.154         	9.198          	13.501
MS.155         	9.18           	13.487
MS.156         	9.16           	13.42
MS.157         	9.142          	13.515
MS.158         	9.125          	13.388
MS.159         	9.105          	13.493
MS.160         	9.087          	13.481
MS.161         	9.07           	13.463
MS.162         	9.052          	13.493
MS.163         	9.033          	13.281
MS.164         	9.015          	13.378
MS.165         	8.997          	13.497
MS.166         	8.98           	12.866
MS.167         	8.96           	13.195
MS.168         	8.943          	13.205
MS.169         	8.925          	13.221
MS.170         	8.908          	13.221
MS.171         	8.89           	13.422
MS.172         	8.872          	13.237
MS.173         	8.855          	13.41
MS.174         	8.837          	13.227
MS.175         	8.82           	13.225
MS.176         	8.802          	12.963
MS.177         	8.783          	13.223
MS.178         	8.765          	13.215
MS.179         	8.747          	12.657
MS.180         	8.73           	12.862
MS.181         	8.715          	12.864
MS.182         	8.698          	12.52
MS.183         	8.68           	13.11
MS.184         	8.662          	12.584
MS.185         	8.645          	12.595
MS.186         	8.627          	12.677
MS.187         	8.61           	12.484
MS.188         	8.592          	12.353
MS.189         	8.575          	12.931
MS.190         	8.557          	12.21
MS.191         	8.54           	12.377
MS.192         	8.525          	12.147
MS.193         	8.507          	12.184
MS.194         	8.49           	12.125
MS.195         	8.472          	12.345
MS.196         	8.455          	12.176
MS.197         	8.44           	11.634
MS.198         	8.422          	11.291
MS.199         	8.405          	11.777
MS.200         	8.39           	11.942
MS.201         	8.372          	10.733
MS.202         	8.355          	11.138
MS.203         	8.337          	11.404
MS.204         	8.323          	10.846
MS.205         	8.305          	10.335
MS.206         	8.29           	10.31
MS.207         	8.273          	10.518
MS.208         	8.255          	9.368
MS.209         	8.24           	9.759
MS.210         	8.222          	9.837
MS.211         	8.207          	10.308
MS.212         	8.19           	8.991
MS.213         	8.172          	9.964
MS.214         	8.158          	9.031
MS.215         	8.14           	8.931
MS.216         	8.125          	8.832
MS.217         	8.108          	8.927
MS.218         	8.092          	8.993
MS.219         	8.075          	9.114
MS.220         	8.06           	9.237
MS.221         	8.045          	8.85
MS.222         	8.028          	8.719
MS.223         	8.012          	8.413
MS.224         	7.995          	8.643
MS.225         	7.98           	8.655
MS.226         	7.965          	8.83
MS.227         	7.947          	8.236
MS.228         	7.932          	8.6
MS.229         	7.915          	8.655
MS.230         	7.9            	8.244
MS.231         	7.885          	8.647
MS.232         	7.87           	7.962
MS.233         	7.852          	8.016
MS.234         	7.837          	8.032
MS.235         	7.822          	7.92
MS.236         	7.805          	7.769
MS.237         	7.79           	8.014
MS.238         	7.775          	7.962
MS.239         	7.76           	7.896
MS.240         	7.745          	7.388
MS.241         	7.727          	7.843
MS.242         	7.712          	7.267
MS.243         	7.697          	7.166
MS.244         	7.682          	7.849
MS.245         	7.668          	7.263
MS.246         	7.652          	7.094
MS.247         	7.635          	7.152
MS.248         	7.62           	7.535
MS.249         	7.605          	7.68
MS.250         	7.59           	6.828
MS.251         	7.575          	6.544
MS.252         	7.56           	6.359
MS.253         	7.545          	6.758
MS.254         	7.53           	6.196
MS.255         	7.515          	6.57
MS.256         	7.5            	6.89
MS.257         	7.485          	5.998
MS.258         	7.47           	5.97
MS.259         	7.455          	5.742
MS.260         	7.44           	6.016
MS.261         	7.425          	6.32
MS.262         	7.41           	5.855
MS.263         	7.395          	5.944
MS.264         	7.38           	5.501
MS.265         	7.365          	5.67
MS.266         	7.352          	5.746
MS.267         	7.337          	5.37
MS.268         	7.322          	5.42
MS.269         	7.307          	4.715
MS.270         	7.293          	5.166
MS.271         	7.277          	5.221
MS.272         	7.265          	4.832
MS.273         	7.25           	5.315
MS.274         	7.235          	5.045
MS.275         	7.22           	4.647
MS.276         	7.205          	4.723
MS.277         	7.192          	4.502
MS.278         	7.177          	4.218
MS.279         	7.162          	4.191
MS.280         	7.148          	4.151
MS.281         	7.135          	4.367
MS.282         	7.12           	4.3
MS.283         	7.105          	4.226
MS.284         	7.092          	3.972
MS.285         	7.077          	3.918
MS.286         	7.062          	3.897
MS.287         	7.05           	3.65
MS.288         	7.035          	3.563
MS.289         	7.02           	3.873
MS.290         	7.007          	3.577
MS.291         	6.992          	3.684
MS.292         	6.98           	3.066
MS.293         	6.965          	2.933
MS.294         	6.95           	2.749
MS.295         	6.938          	2.917
MS.296         	6.922          	2.769
MS.297         	6.91           	2.381
MS.298         	6.895          	2.612
MS.299         	6.882          	2.504
MS.300         	6.867          	2.659
MS.301         	6.855          	2.326
MS.302         	6.84           	2.52
MS.303         	6.827          	2.377
MS.304         	6.812          	2.22
MS.305         	6.8            	2.747
MS.306         	6.787          	2.071
MS.307         	6.773          	2.093
MS.308         	6.76           	2.077
MS.309         	6.745          	2.371
MS.310         	6.733          	2.336
MS.311         	6.72           	1.938
MS.312         	6.705          	1.823
MS.313         	6.692          	1.865
MS.314         	6.677          	2.115
MS.315         	6.665          	1.791
MS.316         	6.652          	1.863
MS.317         	6.637          	1.853
MS.318         	6.625          	1.859
MS.319         	6.612          	1.706
MS.320         	6.6            	1.662
MS.321         	6.585          	1.768
MS.322         	6.572          	1.74
MS.323         	6.56           	1.565
MS.324         	6.547          	1.517
MS.325         	6.532          	1.519
MS.326         	6.52           	1.378
MS.327         	6.507          	1.553
MS.328         	6.495          	1.394
MS.329         	6.48           	1.362
MS.330         	6.467          	1.579
MS.331         	6.455          	1.319
MS.332         	6.442          	1.323
MS.333         	6.43           	1.553
MS.334         	6.418          	1.309
MS.335         	6.405          	1.38
MS.336         	6.39           	1.301
MS.337         	6.378          	1.168
MS.338         	6.365          	1.144
MS.339         	6.352          	1.053
MS.340         	6.34           	0.941
MS.341         	6.327          	1.192
MS.342         	6.315          	1.053
MS.343         	6.302          	1.059
MS.344         	6.29           	1.156
MS.345         	6.277          	1.128
MS.346         	6.265          	0.88
MS.347         	6.253          	1.051
MS.348         	6.24           	0.981
MS.349         	6.227          	1.074
MS.350         	6.215          	0.993
MS.351         	6.202          	1.013
MS.352         	6.19           	0.852
MS.353         	6.177          	0.804
MS.354         	6.165          	1.082
MS.355         	6.152          	0.808
MS.356         	6.14           	1.098
MS.357         	6.128          	0.771
MS.358         	6.115          	0.753
MS.359         	6.102          	1.065
MS.360         	6.092          	0.729
MS.361         	6.08           	0.767
MS.362         	6.067          	0.922
MS.363         	6.055          	0.735
MS.364         	6.043          	0.757
MS.365         	6.03           	0.939
MS.366         	6.02           	0.703
MS.367         	6.007          	0.955
MS.368         	5.995          	0.745
MS.369         	5.983          	0.739
MS.370         	5.97           	0.731
MS.371         	5.96           	0.709
MS.372         	5.947          	0.763
MS.373         	5.935          	0.735
MS.374         	5.922          	0.713
MS.375         	5.912          	0.753
MS.376         	5.9            	0.733
MS.377         	5.887          	0.713
MS.378         	5.875          	0.731
MS.379         	5.865          	0.703
MS.380         	5.852          	0.729
MS.381         	5.84           	0.735
MS.382         	5.83           	0.705
MS.383         	5.817          	0.673
MS.384         	5.805          	0.685
MS.385         	5.795          	0.711
MS.386         	5.782          	0.701
MS.387         	5.773          	0.721
MS.388         	5.76           	0.675
MS.389         	5.747          	0.661
MS.390         	5.737          	0.705
MS.391         	5.725          	0.713
MS.392         	5.715          	0.685
MS.393         	5.702          	0.709
MS.394         	5.69           	0.665
MS.395         	5.68           	0.665
MS.396         	5.668          	0.632
MS.397         	5.657          	0.632
MS.398         	5.645          	0.707
MS.399         	5.635          	0.651
MS.400         	5.622          	0.669
MS.401         	5.612          	0.632
MS.402         	5.6            	0.562
MS.403         	5.59           	0.638
MS.404         	5.577          	0.562
MS.405         	5.567          	0.586
MS.406         	5.555          	0.558
MS.407         	5.545          	0.564
MS.408         	5.535          	0.566
MS.409         	5.523          	0.534
MS.410         	5.512          	0.534
MS.411         	5.5            	0.534
MS.412         	5.49           	0.536
MS.413         	5.48           	0.554
MS.414         	5.467          	0.538
MS.415         	5.457          	0.538
MS.416         	5.445          	0.534
MS.417         	5.435          	0.558
MS.418         	5.425          	0.536
MS.419         	5.412          	0.612
MS.420         	5.402          	0.497
MS.421         	5.392          	0.502
MS.422         	5.38           	0.506
MS.423         	5.37           	0.497
MS.424         	5.36           	0.495
MS.425         	5.35           	0.495
MS.426         	5.338          	0.528
MS.427         	5.327          	0.504
MS.428         	5.318          	0.5
MS.429         	5.307          	0.504
MS.430         	5.295          	0.534
MS.431         	5.285          	0.53
MS.432         	5.275          	0.483
MS.433         	5.265          	0.504
MS.434         	5.253          	0.53
MS.435         	5.242          	0.483
MS.436         	5.233          	0.504
MS.437         	5.222          	0.502
MS.438         	5.213          	0.528
MS.439         	5.202          	0.5
MS.440         	5.19           	0.502
MS.441         	5.18           	0.5
MS.442         	5.17           	0.493
MS.443         	5.16           	0.493
MS.444         	5.15           	0.495
MS.445         	5.14           	0.5
MS.446         	5.13           	0.481
MS.447         	5.117          	0.51
MS.448         	5.108          	0.493
MS.449         	5.097          	0.495
MS.450         	5.088          	0.493
MS.451         	5.077          	0.485
MS.452         	5.068          	0.493
MS.453         	5.057          	0.487
MS.454         	5.047          	0.485
MS.455         	5.037          	0.487
MS.456         	5.027          	0.485
MS.457         	5.017          	0.487
MS.458         	5.007          	0.491
MS.459         	4.997          	0.485
MS.460         	4.987          	0.5
MS.461         	4.977          	0.485
MS.462         	4.967          	0.491
MS.463         	4.957          	0.479
MS.464         	4.947          	0.493
MS.465         	4.938          	0.489
MS.466         	4.927          	0.485
MS.467         	4.918          	0.485
MS.468         	4.907          	0.487
MS.469         	4.898          	0.483
MS.470         	4.887          	0.493
MS.471         	4.88           	0.483
MS.472         	4.87           	0.489
MS.473         	4.86           	0.487
MS.474         	4.85           	0.481
MS.475         	4.84           	0.485
MS.476         	4.83           	0.487
MS.477         	4.82           	0.489
MS.478         	4.81           	0.489
MS.479         	4.802          	0.487
MS.480         	4.793          	0.485
MS.481         	4.782          	0.479
MS.482         	4.773          	0.487
MS.483         	4.762          	0.489
MS.484         	4.753          	0.487
MS.485         	4.745          	0.481
MS.486         	4.735          	0.485
MS.487         	4.725          	0.495
MS.488         	4.715          	0.489
MS.489         	4.707          	0.489
MS.490         	4.697          	0.489
MS.491         	4.688          	0.483
MS.492         	4.677          	0.485
MS.493         	4.67           	0.481
MS.494         	4.66           	0.487
MS.495         	4.65           	0.493
MS.496         	4.64           	0.481
MS.497         	4.632          	0.481
MS.498         	4.622          	0.481
MS.499         	4.612          	0.487
MS.500         	4.605          	0.487
MS.501         	4.595          	0.489
MS.502         	4.585          	0.487
MS.503         	4.577          	0.487
MS.504         	4.568          	0.487
MS.505         	4.557          	0.489
MS.506         	4.55           	0.487
MS.507         	4.54           	0.489
MS.508         	4.53           	0.487
MS.509         	4.523          	0.485
MS.510         	4.512          	0.487
MS.511         	4.503          	0.487
MS.512         	4.495          	0.489
MS.513         	4.485          	0.485
MS.514         	4.477          	0.485
MS.515         	4.467          	0.491
MS.516         	4.46           	0.479
MS.517         	4.45           	0.481
MS.518         	4.44           	0.483
MS.519         	4.432          	0.489
MS.520         	4.423          	0.485
MS.521         	4.415          	0.491
MS.522         	4.405          	0.493
MS.523         	4.398          	0.489
MS.524         	4.387          	0.481
MS.525         	4.38           	0.481
MS.526         	4.37           	0.481
MS.527         	4.362          	0.489
MS.528         	4.352          	0.483
MS.529         	4.345          	0.481
MS.530         	4.335          	0.483
MS.531         	4.327          	0.489
MS.532         	4.318          	0.481
MS.533         	4.31           	0.487
MS.534         	4.3            	0.491
MS.535         	4.293          	0.487
MS.536         	4.285          	0.487
MS.537         	4.275          	0.487
MS.538         	4.267          	0.481
MS.539         	4.257          	0.483
MS.540         	4.25           	0.483
MS.541         	4.242          	0.489
MS.542         	4.233          	0.483
MS.543         	4.225          	0.487
MS.544         	4.215          	0.483
MS.545         	4.207          	0.483
MS.546         	4.2            	0.483
MS.547         	4.19           	0.489
MS.548         	4.182          	0.487
MS.549         	4.175          	0.489
MS.550         	4.165          	0.489
MS.551         	4.157          	0.491
MS.552         	4.15           	0.489
MS.553         	4.14           	0.489
MS.554         	4.132          	0.481
MS.555         	4.125          	0.483
MS.556         	4.115          	0.491
MS.557         	4.108          	0.485
MS.558         	4.1            	0.489
MS.559         	4.092          	0.066
MS.560         	4.082          	0.075
MS.561         	4.075          	0.489
MS.562         	4.068          	0.485
MS.563         	4.06           	0.489
MS.564         	4.05           	0.489
MS.565         	4.043          	0.07
MS.566         	4.035          	0.483
MS.567         	4.027          	0.068
MS.568         	4.017          	0.068
MS.569         	4.01           	0.068
MS.570         	4.003          	0.07
MS.571         	3.995          	0.068
MS.572         	3.987          	0.068
MS.573         	3.977          	0.07
MS.574         	3.97           	0.068
MS.575         	3.962          	0.07
MS.576         	3.955          	0.073
MS.577         	3.947          	0.07
MS.578         	3.94           	0.068
MS.579         	3.93           	0.068
MS.580         	3.922          	0.073
MS.581         	3.915          	0.066
MS.582         	3.908          	0.07
MS.583         	3.9            	0.068
MS.584         	3.892          	0.073
MS.585         	3.885          	0.073
MS.586         	3.877          	0.068
MS.587         	3.867          	0.07
MS.588         	3.86           	0.073
MS.589         	3.852          	0.07
MS.590         	3.845          	0.073
MS.591         	3.837          	0.068
MS.592         	3.83           	0.066
MS.593         	3.822          	0.07
MS.594         	3.815          	0.073
MS.595         	3.807          	0.07
MS.596         	3.8            	0.066
MS.597         	3.793          	0.07
MS.598         	3.785          	0.073
MS.599         	3.777          	0.066
MS.600         	3.77           	0.068
MS.601         	3.762          	0.073
MS.602         	3.755          	0.066
MS.603         	3.747          	0.075
MS.604         	3.74           	0.075
MS.605         	3.732          	0.066
MS.606         	3.725          	0.064
MS.607         	3.717          	0.073
MS.608         	3.71           	0.07
MS.609         	3.702          	0.075
MS.610         	3.695          	0.062
MS.611         	3.688          	0.073
MS.612         	3.68           	0.068
MS.613         	3.672          	0.073
MS.614         	3.665          	0.073
MS.615         	3.658          	0.064
MS.616         	3.65           	0.068
MS.617         	3.642          	0.07
MS.618         	3.635          	0.073
MS.619         	3.63           	0.073
MS.620         	3.622          	0.07
MS.621         	3.615          	0.073
MS.622         	3.607          	0.07
MS.623         	3.6            	0.07
MS.624         	3.592          	0.07
MS.625         	3.585          	0.066
MS.626         	3.577          	0.068
MS.627         	3.57           	0.066
MS.628         	3.565          	0.07
MS.629         	3.557          	0.068
MS.630         	3.55           	0.073
MS.631         	3.543          	0.073
MS.632         	3.535          	0.075
MS.633         	3.527          	0.066
MS.634         	3.523          	0.068
MS.635         	3.515          	0.068
MS.636         	3.507          	0.064
MS.637         	3.5            	0.066
MS.638         	3.492          	0.07
MS.639         	3.487          	0.068
MS.640         	3.48           	0.066
MS.641         	3.472          	0.066
MS.642         	3.465          	0.07
MS.643         	3.457          	0.066
MS.644         	3.452          	0.068
MS.645         	3.445          	0.068
MS.646         	3.438          	0.075
MS.647         	3.43           	0.07
MS.648         	3.425          	0.073
MS.649         	3.418          	0.068
MS.650         	3.41           	0.068
MS.651         	3.405          	0.064
MS.652         	3.398          	0.07
MS.653         	3.39           	0.073
MS.654         	3.382          	0.07
MS.655         	3.377          	0.073
MS.656         	3.37           	0.07
MS.657         	3.362          	0.068
MS.658         	3.357          	0.07
MS.659         	3.35           	0.068
MS.660         	3.342          	0.073
MS.661         	3.337          	0.073
MS.662         	3.33           	0.073
MS.663         	3.322          	0.064
MS.664         	3.317          	0.068
MS.665         	3.31           	0.068
MS.666         	3.303          	0.07
MS.667         	3.297          	0.07
MS.668         	3.29           	0.068
MS.669         	3.283          	0.064
MS.670         	3.277          	0.068
MS.671         	3.27           	0.073
MS.672         	3.265          	0.066
MS.673         	3.257          	0.07
MS.674         	3.25           	0.062
MS.675         	3.245          	0.07
MS.676         	3.237          	0.066
MS.677         	3.232          	0.068
MS.678         	3.225          	0.07
MS.679         	3.217          	0.064
MS.680         	3.212          	0.073
MS.681         	3.205          	0.068
MS.682         	3.2            	0.064
MS.683         	3.192          	0.068
MS.684         	3.188          	0.066
MS.685         	3.18           	0.07
MS.686         	3.172          	0.07
MS.687         	3.168          	0.064
MS.688         	3.16           	0.068
MS.689         	3.155          	0.066
MS.690         	3.148          	0.068
MS.691         	3.142          	0.073
MS.692         	3.135          	0.07
MS.693         	3.13           	0.07
MS.694         	3.122          	0.07
MS.695         	3.117          	0.073
MS.696         	3.11           	0.079
MS.697         	3.105          	0.073
MS.698         	3.097          	0.079
MS.699         	3.092          	0.073
MS.700         	3.085          	0.07
MS.701         	3.08           	0.066
MS.702         	3.075          	0.064
MS.703         	3.067          	0.066
MS.704         	3.062          	0.075
MS.705         	3.055          	0.073
MS.706         	3.05           	0.068
MS.707         	3.043          	0.068
MS.708         	3.037          	0.07
MS.709         	3.03           	0.062
MS.710         	3.025          	0.07
MS.711         	3.02           	0.073
MS.712         	3.013          	0.062
MS.713         	3.007          	0.07
MS.714         	3              	0.064
MS.715         	2.995          	0.064
MS.716         	2.99           	0.073
MS.717         	2.982          	0.075
MS.718         	2.977          	0.07
MS.719         	2.97           	0.068
MS.720         	2.965          	0.066
MS.721         	2.96           	0.064
MS.722         	2.952          	0.068
MS.723         	2.947          	0.075
MS.724         	2.942          	0.066
MS.725         	2.935          	0.066
MS.726         	2.93           	0.068
MS.727         	2.925          	0.068
MS.728         	2.918          	0.073
MS.729         	2.912          	0.073
MS.730         	2.908          	0.07
MS.731         	2.9            	0.064
MS.732         	2.895          	0.062
MS.733         	2.89           	0.064
MS.734         	2.882          	0.07
MS.735         	2.877          	0.064
MS.736         	2.872          	0.064
MS.737         	2.865          	0.066
MS.738         	2.86           	0.07
MS.739         	2.855          	0.064
MS.740         	2.85           	0.066
MS.741         	2.842          	0.068
MS.742         	2.837          	0.068
MS.743         	2.832          	0.066
MS.744         	2.825          	0.062
MS.745         	2.82           	0.066
MS.746         	2.815          	0.07
MS.747         	2.81           	0.066
MS.748         	2.803          	0.068
MS.749         	2.797          	0.064
MS.750         	2.793          	0.068
MS.751         	2.787          	0.068
MS.752         	2.783          	0.066
MS.753         	2.775          	0.066
MS.754         	2.77           	0.068
MS.755         	2.765          	0.07
MS.756         	2.76           	0.062
MS.757         	2.753          	0.066
MS.758         	2.747          	0.068
MS.759         	2.742          	0.073
MS.760         	2.737          	0.07
MS.761         	2.732          	0.073
MS.762         	2.725          	0.064
MS.763         	2.72           	0.064
MS.764         	2.715          	0.073
MS.765         	2.71           	0.064
MS.766         	2.705          	0.062
MS.767         	2.7            	0.068
MS.768         	2.692          	0.073
MS.769         	2.688          	0.068
MS.770         	2.682          	0.066
MS.771         	2.678          	0.068
MS.772         	2.672          	0.073
DERIVED EXCITABILITY VARIABLES
Program = QTracP 3/4/2020
Threshold method = 6 (optimised for CAP, using data for present condition only)
SR method = 1 (using actual data values)
6.                 	0.000               	Peak response\(mV)
9.                 	30.7                	Temperature ( C)
17.                	39                  	Age (years)
18.                	2                   	Sex (M=1, F=2)

EXTRA VARIABLES

MScPeak(mV) = 14.01
MScS5(mA) = 5.73
MScS50(mA) = 7.59
MScS95(mA) = 8.93
MScNSteps = 4
MScSteps(%) = 11.7
MScStepMax(%) = 3.5
MScD50 = 36
MScSlope = 5.86
MSFPeakAmp(mV) = 14.1
MSFNUnits = 109
MSFMeanUnitAmp(uV) = 128.9
MSFHuntTime(m) = 3.81
MSFError(%) = 3.57
MSFNLarge = 33.69
MSFMedianAmp(%) = 0.878
MSFMedianAmp(mV) = 0.123
MSFHalfAmpAmp(%) = 1.09
MSFHalfAmpAmp(mV) = 0.153
MSFLargestAmp(%) = 2.99
MSFLargestAmp(mV) = 0.421
MSFMeanRS(%) = 2
MSFOpts = 10106121
MScDuration(min) = 7.3
MSFTraces = 503
MSFSizeLimit(uV) = 35.1
MSFLimitType = 1
MSFSmallestAmp(uV) = 36.8

EXTRA WAVEFORMS


!MScan Model
!109
	1	4.08	2.99	2
	2	5.46	0.52	2
	3	5.57	0.31	2
	4	5.67	0.59	2
	5	5.94	0.48	2
	6	6.18	1.45	2
	7	6.3	0.9	2
	8	6.33	0.47	2
	9	6.36	0.31	2
	10	6.38	0.33	2
	11	6.41	0.5	2
	12	6.46	0.81	2
	13	6.5	0.49	2
	14	6.52	0.34	2
	15	6.55	0.45	2
	16	6.57	0.46	2
	17	6.59	0.26	2
	18	6.61	0.64	2
	19	6.64	0.61	2
	20	6.68	0.74	2
	21	6.73	0.93	2
	22	6.78	1.03	2
	23	6.83	1.11	2
	24	6.86	0.71	2
	25	6.87	0.29	2
	26	6.89	0.39	2
	27	6.9	0.58	2
	28	6.91	0.53	1.9
	29	6.92	0.65	2
	30	6.93	0.65	2
	31	6.94	0.53	2
	32	6.95	0.41	2
	33	6.96	0.3	2
	34	6.97	0.3	2
	35	6.98	0.32	2
	36	6.99	0.55	2
	37	7.01	0.99	2
	38	7.02	1.07	2
	39	7.04	1.09	2
	40	7.06	0.88	2
	41	7.08	0.67	2
	42	7.09	0.36	2
	43	7.1	0.37	2
	44	7.11	0.38	2
	45	7.11	0.33	2
	46	7.12	0.35	2
	47	7.13	0.38	2
	48	7.16	0.97	2
	49	7.18	1.06	2
	50	7.21	1.03	2
	51	7.24	0.98	2
	52	7.26	1.35	2
	53	7.28	0.95	2
	54	7.3	0.73	2
	55	7.32	0.7	2
	56	7.34	0.71	2
	57	7.36	0.85	2
	58	7.39	1.45	2
	59	7.43	1.56	2
	60	7.47	1.36	2
	61	7.5	1.57	2
	62	7.54	1.52	2
	63	7.57	1.54	2
	64	7.61	2.03	2
	65	7.67	1.55	2
	66	7.7	1	2
	67	7.73	0.89	2
	68	7.75	0.78	2
	69	7.78	0.77	2
	70	7.8	0.8	2
	71	7.82	0.46	2
	72	7.82	0.3	2
	73	7.85	0.76	2
	74	7.87	0.59	2
	75	7.91	1.14	2
	76	7.96	1.43	2
	77	8.04	1.53	2
	78	8.1	1.88	2
	79	8.16	2.82	2
	80	8.2	1.03	2
	81	8.22	1.23	2
	82	8.24	0.97	2
	83	8.25	1.18	2
	84	8.27	1.09	2
	85	8.28	1.2	2
	86	8.3	1.27	2
	87	8.32	1.2	2
	88	8.33	1.15	2
	89	8.35	0.98	2
	90	8.36	0.9	2
	91	8.38	1.08	2
	92	8.4	1.54	2
	93	8.43	1.15	2
	94	8.45	1.09	2
	95	8.47	1.34	2
	96	8.48	1.28	2
	97	8.52	1.77	2
	98	8.6	1.8	2
	99	8.67	1.19	2
	100	8.71	1.03	2
	101	8.74	0.82	2
	102	8.78	0.49	2
	103	9.04	1.49	2
	104	9.24	1.04	2
	105	9.32	0.75	2
	106	9.39	0.61	2
	107	9.48	0.67	2
	108	9.66	0.94	2.4
	109	9.73	0.88	1.28

