File:              	C:\Qtrac\Data\Daniel M Sørensen\MScan multicentre study\Data from centres\Bucharest\Processed data\TDLC00831A.QZD
Name:              	RO.BU.NC.7.1
Protocol:          	MSCAN-R2
Date:              	31/8/20
Start time:        	12:25:40
Age:               	48
Sex:               	F
Temperature:       	36.7
S/R sites:         	APB
NC/disease:        	NC
Operator:          	TL
Comments:          	RONC7.1.
M-SCAN DATA (8.2-1.3m)
Scanpts: 427, 431, 715, 737
Stim. (mA)     	Amp. (mV)
MS.1           	19.5           	10.053
MS.2           	19.5           	10.077
MS.3           	19.5           	10.095
MS.4           	19.5           	10.125
MS.5           	19.5           	10.115
MS.6           	19.5           	10.125
MS.7           	19.5           	10.153
MS.8           	19.5           	10.176
MS.9           	19.5           	10.155
MS.10          	19.5           	10.176
MS.11          	19.5           	10.155
MS.12          	19.5           	10.107
MS.13          	19.5           	10.093
MS.14          	19.5           	10.087
MS.15          	19.5           	10.075
MS.16          	19.5           	10.093
MS.17          	19.5           	10.119
MS.18          	19.5           	10.115
MS.19          	19.5           	10.079
MS.20          	19.5           	10.035
MS.21          	19.5           	10.008
MS.22          	19.5           	9.988
MS.23          	19.5           	10.004
MS.24          	19.422         	10.004
MS.25          	19.382         	9.998
MS.26          	19.345         	10.01
MS.27          	19.305         	10.045
MS.28          	19.267         	10.073
MS.29          	19.23          	10.031
MS.30          	19.19          	9.988
MS.31          	19.153         	10.01
MS.32          	19.115         	10.004
MS.33          	19.075         	10.045
MS.34          	19.038         	10.049
MS.35          	19             	10.031
MS.36          	18.962         	10.031
MS.37          	18.922         	10.016
MS.38          	18.885         	10.018
MS.39          	18.847         	10.024
MS.40          	18.81          	10.01
MS.41          	18.772         	9.97
MS.42          	18.735         	9.974
MS.43          	18.698         	9.974
MS.44          	18.66          	9.96
MS.45          	18.622         	9.948
MS.46          	18.585         	9.92
MS.47          	18.55          	9.942
MS.48          	18.512         	9.944
MS.49          	18.475         	9.934
MS.50          	18.438         	9.93
MS.51          	18.4           	9.928
MS.52          	18.365         	9.944
MS.53          	18.327         	9.958
MS.54          	18.29          	9.936
MS.55          	18.255         	9.944
MS.56          	18.217         	9.922
MS.57          	18.182         	9.928
MS.58          	18.145         	9.964
MS.59          	18.11          	9.954
MS.60          	18.073         	9.936
MS.61          	18.038         	9.93
MS.62          	18             	9.93
MS.63          	17.965         	9.932
MS.64          	17.93          	9.932
MS.65          	17.892         	9.91
MS.66          	17.858         	9.932
MS.67          	17.823         	9.918
MS.68          	17.785         	9.94
MS.69          	17.75          	9.92
MS.70          	17.715         	9.938
MS.71          	17.68          	9.93
MS.72          	17.645         	9.93
MS.73          	17.61          	9.912
MS.74          	17.575         	9.912
MS.75          	17.538         	9.91
MS.76          	17.503         	9.912
MS.77          	17.467         	9.922
MS.78          	17.435         	9.926
MS.79          	17.4           	9.928
MS.80          	17.365         	9.928
MS.81          	17.33          	9.912
MS.82          	17.295         	9.918
MS.83          	17.26          	9.926
MS.84          	17.225         	9.902
MS.85          	17.192         	9.914
MS.86          	17.157         	9.912
MS.87          	17.122         	9.894
MS.88          	17.087         	9.92
MS.89          	17.055         	9.908
MS.90          	17.02          	9.914
MS.91          	16.987         	9.906
MS.92          	16.952         	9.902
MS.93          	16.917         	9.928
MS.94          	16.885         	9.906
MS.95          	16.85          	9.908
MS.96          	16.817         	9.926
MS.97          	16.782         	9.932
MS.98          	16.75          	9.954
MS.99          	16.717         	9.952
MS.100         	16.682         	9.938
MS.101         	16.65          	9.928
MS.102         	16.618         	9.918
MS.103         	16.583         	9.926
MS.104         	16.55          	9.904
MS.105         	16.517         	9.912
MS.106         	16.485         	9.934
MS.107         	16.452         	9.912
MS.108         	16.417         	9.908
MS.109         	16.385         	9.922
MS.110         	16.352         	9.926
MS.111         	16.32          	9.9
MS.112         	16.288         	9.912
MS.113         	16.255         	9.924
MS.114         	16.222         	9.936
MS.115         	16.19          	9.942
MS.116         	16.157         	9.944
MS.117         	16.125         	9.94
MS.118         	16.092         	9.938
MS.119         	16.062         	9.926
MS.120         	16.03          	9.912
MS.121         	15.997         	9.912
MS.122         	15.965         	9.924
MS.123         	15.932         	9.95
MS.124         	15.902         	9.952
MS.125         	15.87          	9.938
MS.126         	15.837         	9.92
MS.127         	15.807         	9.924
MS.128         	15.775         	9.92
MS.129         	15.742         	9.928
MS.130         	15.712         	9.936
MS.131         	15.68          	9.934
MS.132         	15.65          	9.95
MS.133         	15.617         	9.946
MS.134         	15.587         	9.946
MS.135         	15.555         	9.956
MS.136         	15.525         	9.958
MS.137         	15.492         	9.96
MS.138         	15.462         	9.962
MS.139         	15.432         	9.982
MS.140         	15.4           	9.962
MS.141         	15.37          	9.942
MS.142         	15.34          	9.938
MS.143         	15.307         	9.95
MS.144         	15.277         	9.976
MS.145         	15.247         	9.972
MS.146         	15.217         	9.966
MS.147         	15.188         	9.956
MS.148         	15.155         	9.89
MS.149         	15.125         	9.946
MS.150         	15.095         	9.932
MS.151         	15.065         	9.938
MS.152         	15.035         	9.938
MS.153         	15.005         	9.958
MS.154         	14.975         	9.964
MS.155         	14.945         	9.972
MS.156         	14.915         	9.958
MS.157         	14.885         	9.976
MS.158         	14.855         	9.984
MS.159         	14.827         	9.99
MS.160         	14.797         	9.984
MS.161         	14.767         	9.952
MS.162         	14.737         	9.956
MS.163         	14.707         	9.976
MS.164         	14.68          	9.97
MS.165         	14.65          	9.968
MS.166         	14.62          	9.97
MS.167         	14.59          	9.976
MS.168         	14.562         	9.956
MS.169         	14.532         	9.958
MS.170         	14.505         	9.982
MS.171         	14.475         	9.974
MS.172         	14.445         	9.968
MS.173         	14.417         	9.958
MS.174         	14.387         	9.944
MS.175         	14.36          	9.952
MS.176         	14.33          	9.936
MS.177         	14.302         	9.936
MS.178         	14.273         	9.938
MS.179         	14.245         	9.936
MS.180         	14.217         	9.932
MS.181         	14.188         	9.958
MS.182         	14.16          	9.944
MS.183         	14.132         	9.954
MS.184         	14.102         	9.946
MS.185         	14.075         	9.958
MS.186         	14.047         	9.946
MS.187         	14.02          	9.95
MS.188         	13.99          	9.938
MS.189         	13.962         	9.934
MS.190         	13.935         	9.936
MS.191         	13.907         	9.942
MS.192         	13.88          	9.946
MS.193         	13.852         	9.93
MS.194         	13.825         	9.924
MS.195         	13.797         	9.922
MS.196         	13.77          	9.936
MS.197         	13.742         	9.91
MS.198         	13.715         	9.912
MS.199         	13.688         	9.928
MS.200         	13.66          	9.912
MS.201         	13.632         	9.924
MS.202         	13.605         	9.9
MS.203         	13.577         	9.916
MS.204         	13.55          	9.912
MS.205         	13.523         	9.914
MS.206         	13.495         	9.926
MS.207         	13.47          	9.93
MS.208         	13.443         	9.93
MS.209         	13.415         	9.922
MS.210         	13.387         	9.902
MS.211         	13.362         	9.896
MS.212         	13.335         	9.877
MS.213         	13.307         	9.894
MS.214         	13.282         	9.894
MS.215         	13.255         	9.888
MS.216         	13.23          	9.894
MS.217         	13.202         	9.892
MS.218         	13.175         	9.902
MS.219         	13.15          	9.881
MS.220         	13.122         	9.871
MS.221         	13.097         	9.888
MS.222         	13.07          	9.853
MS.223         	13.045         	9.881
MS.224         	13.02          	9.851
MS.225         	12.992         	9.851
MS.226         	12.967         	9.845
MS.227         	12.94          	9.861
MS.228         	12.915         	9.873
MS.229         	12.89          	9.863
MS.230         	12.862         	9.904
MS.231         	12.837         	9.91
MS.232         	12.812         	9.92
MS.233         	12.787         	9.93
MS.234         	12.76          	9.912
MS.235         	12.735         	9.91
MS.236         	12.71          	9.89
MS.237         	12.685         	9.888
MS.238         	12.66          	9.881
MS.239         	12.635         	9.857
MS.240         	12.61          	9.831
MS.241         	12.585         	9.817
MS.242         	12.557         	9.827
MS.243         	12.532         	9.827
MS.244         	12.507         	9.803
MS.245         	12.483         	9.801
MS.246         	12.457         	9.771
MS.247         	12.432         	9.801
MS.248         	12.41          	9.773
MS.249         	12.385         	9.793
MS.250         	12.36          	9.801
MS.251         	12.335         	9.815
MS.252         	12.31          	9.799
MS.253         	12.285         	9.787
MS.254         	12.26          	9.777
MS.255         	12.238         	9.777
MS.256         	12.212         	9.773
MS.257         	12.188         	9.761
MS.258         	12.162         	9.765
MS.259         	12.14          	9.803
MS.260         	12.115         	9.783
MS.261         	12.09          	9.797
MS.262         	12.065         	9.787
MS.263         	12.042         	9.787
MS.264         	12.017         	9.775
MS.265         	11.995         	9.763
MS.266         	11.97          	9.749
MS.267         	11.945         	9.771
MS.268         	11.922         	9.777
MS.269         	11.898         	9.753
MS.270         	11.875         	9.765
MS.271         	11.85          	9.74
MS.272         	11.827         	9.757
MS.273         	11.802         	9.763
MS.274         	11.78          	9.749
MS.275         	11.757         	9.761
MS.276         	11.733         	9.73
MS.277         	11.71          	9.747
MS.278         	11.685         	9.749
MS.279         	11.662         	9.759
MS.280         	11.64          	9.751
MS.281         	11.617         	9.749
MS.282         	11.592         	9.742
MS.283         	11.57          	9.745
MS.284         	11.547         	9.742
MS.285         	11.525         	9.738
MS.286         	11.5           	9.747
MS.287         	11.477         	9.74
MS.288         	11.455         	9.738
MS.289         	11.432         	9.738
MS.290         	11.41          	9.757
MS.291         	11.387         	9.761
MS.292         	11.363         	9.761
MS.293         	11.34          	9.767
MS.294         	11.318         	9.765
MS.295         	11.295         	9.767
MS.296         	11.273         	9.801
MS.297         	11.25          	9.759
MS.298         	11.227         	9.749
MS.299         	11.205         	9.761
MS.300         	11.182         	9.767
MS.301         	11.16          	9.773
MS.302         	11.137         	9.785
MS.303         	11.117         	9.783
MS.304         	11.095         	9.803
MS.305         	11.073         	9.787
MS.306         	11.05          	9.795
MS.307         	11.028         	9.783
MS.308         	11.005         	9.765
MS.309         	10.983         	9.767
MS.310         	10.962         	9.791
MS.311         	10.94          	9.809
MS.312         	10.917         	9.797
MS.313         	10.895         	9.813
MS.314         	10.875         	9.811
MS.315         	10.852         	9.793
MS.316         	10.83          	9.767
MS.317         	10.81          	9.829
MS.318         	10.787         	9.825
MS.319         	10.765         	9.849
MS.320         	10.745         	9.857
MS.321         	10.722         	9.819
MS.322         	10.702         	9.809
MS.323         	10.68          	9.811
MS.324         	10.66          	9.833
MS.325         	10.637         	9.829
MS.326         	10.617         	9.859
MS.327         	10.595         	9.849
MS.328         	10.575         	9.859
MS.329         	10.552         	9.863
MS.330         	10.532         	9.811
MS.331         	10.51          	9.839
MS.332         	10.49          	9.811
MS.333         	10.47          	9.841
MS.334         	10.448         	9.829
MS.335         	10.427         	9.823
MS.336         	10.407         	9.847
MS.337         	10.385         	9.869
MS.338         	10.365         	9.877
MS.339         	10.345         	9.869
MS.340         	10.323         	9.869
MS.341         	10.302         	9.904
MS.342         	10.282         	9.904
MS.343         	10.262         	9.908
MS.344         	10.24          	9.892
MS.345         	10.22          	9.904
MS.346         	10.2           	9.894
MS.347         	10.18          	9.894
MS.348         	10.16          	9.885
MS.349         	10.14          	9.871
MS.350         	10.12          	9.881
MS.351         	10.097         	9.859
MS.352         	10.077         	9.869
MS.353         	10.057         	9.902
MS.354         	10.037         	9.869
MS.355         	10.017         	9.888
MS.356         	9.997          	9.881
MS.357         	9.977          	9.942
MS.358         	9.957          	9.934
MS.359         	9.938          	9.904
MS.360         	9.917          	9.9
MS.361         	9.9            	9.894
MS.362         	9.88           	9.912
MS.363         	9.86           	9.902
MS.364         	9.84           	9.92
MS.365         	9.82           	9.916
MS.366         	9.8            	9.926
MS.367         	9.78           	9.924
MS.368         	9.76           	9.924
MS.369         	9.742          	9.888
MS.370         	9.722          	9.912
MS.371         	9.702          	9.914
MS.372         	9.682          	9.946
MS.373         	9.665          	9.948
MS.374         	9.645          	9.95
MS.375         	9.625          	9.934
MS.376         	9.605          	9.93
MS.377         	9.587          	9.928
MS.378         	9.568          	9.95
MS.379         	9.55           	9.938
MS.380         	9.53           	9.946
MS.381         	9.51           	9.928
MS.382         	9.492          	9.926
MS.383         	9.472          	9.908
MS.384         	9.452          	9.92
MS.385         	9.435          	9.932
MS.386         	9.415          	9.948
MS.387         	9.398          	9.942
MS.388         	9.377          	9.922
MS.389         	9.36           	9.938
MS.390         	9.34           	9.91
MS.391         	9.323          	9.908
MS.392         	9.302          	9.918
MS.393         	9.285          	9.916
MS.394         	9.267          	9.938
MS.395         	9.247          	9.924
MS.396         	9.23           	9.883
MS.397         	9.21           	9.916
MS.398         	9.193          	9.936
MS.399         	9.175          	9.89
MS.400         	9.155          	9.892
MS.401         	9.137          	9.879
MS.402         	9.12           	9.894
MS.403         	9.1            	9.875
MS.404         	9.082          	9.865
MS.405         	9.065          	9.906
MS.406         	9.047          	9.894
MS.407         	9.028          	9.92
MS.408         	9.01           	9.906
MS.409         	8.992          	9.892
MS.410         	8.975          	9.91
MS.411         	8.957          	9.892
MS.412         	8.94           	9.869
MS.413         	8.92           	9.918
MS.414         	8.903          	9.89
MS.415         	8.885          	9.936
MS.416         	8.867          	9.952
MS.417         	8.85           	9.964
MS.418         	8.832          	9.93
MS.419         	8.815          	9.942
MS.420         	8.797          	9.934
MS.421         	8.78           	9.944
MS.422         	8.762          	9.922
MS.423         	8.745          	9.898
MS.424         	8.727          	9.91
MS.425         	8.71           	9.926
MS.426         	8.693          	9.992
MS.427         	8.675          	9.982
MS.428         	8.658          	9.95
MS.429         	8.64           	9.956
MS.430         	8.622          	9.952
MS.431         	8.605          	9.948
MS.432         	8.587          	9.958
MS.433         	8.57           	9.928
MS.434         	8.555          	9.942
MS.435         	8.537          	9.934
MS.436         	8.52           	9.976
MS.437         	8.502          	9.964
MS.438         	8.485          	9.978
MS.439         	8.47           	9.988
MS.440         	8.452          	9.994
MS.441         	8.435          	9.992
MS.442         	8.417          	9.992
MS.443         	8.403          	10
MS.444         	8.385          	10.014
MS.445         	8.367          	9.998
MS.446         	8.35           	9.97
MS.447         	8.335          	9.998
MS.448         	8.318          	9.978
MS.449         	8.302          	9.656
MS.450         	8.285          	9.962
MS.451         	8.267          	9.988
MS.452         	8.252          	9.954
MS.453         	8.235          	9.99
MS.454         	8.217          	10
MS.455         	8.202          	9.962
MS.456         	8.185          	9.65
MS.457         	8.17           	9.964
MS.458         	8.153          	9.692
MS.459         	8.137          	9.96
MS.460         	8.12           	9.688
MS.461         	8.105          	9.998
MS.462         	8.087          	9.944
MS.463         	8.073          	9.63
MS.464         	8.055          	9.62
MS.465         	8.04           	9.606
MS.466         	8.025          	9.662
MS.467         	8.007          	9.642
MS.468         	7.992          	9.672
MS.469         	7.975          	9.4
MS.470         	7.96           	9.285
MS.471         	7.945          	9.606
MS.472         	7.927          	9.648
MS.473         	7.912          	9.406
MS.474         	7.898          	9.17
MS.475         	7.88           	9.64
MS.476         	7.865          	9.66
MS.477         	7.85           	9.654
MS.478         	7.832          	9.396
MS.479         	7.817          	9.13
MS.480         	7.802          	8.913
MS.481         	7.787          	8.653
MS.482         	7.77           	8.967
MS.483         	7.755          	8.884
MS.484         	7.74           	9.152
MS.485         	7.725          	8.911
MS.486         	7.71           	8.973
MS.487         	7.695          	8.834
MS.488         	7.677          	8.425
MS.489         	7.662          	8.419
MS.490         	7.648          	8.214
MS.491         	7.632          	8.19
MS.492         	7.617          	8.643
MS.493         	7.602          	8.699
MS.494         	7.587          	8.18
MS.495         	7.572          	8.449
MS.496         	7.557          	8.415
MS.497         	7.543          	7.857
MS.498         	7.527          	8.099
MS.499         	7.512          	8.141
MS.500         	7.497          	8.105
MS.501         	7.482          	7.285
MS.502         	7.467          	7.372
MS.503         	7.452          	7.261
MS.504         	7.438          	7.358
MS.505         	7.422          	7.255
MS.506         	7.407          	7.533
MS.507         	7.392          	7.517
MS.508         	7.378          	7.106
MS.509         	7.362          	7.176
MS.510         	7.347          	7.114
MS.511         	7.332          	6.913
MS.512         	7.317          	7.156
MS.513         	7.305          	6.905
MS.514         	7.29           	6.5
MS.515         	7.275          	7.144
MS.516         	7.26           	6.82
MS.517         	7.245          	6.721
MS.518         	7.23           	6.707
MS.519         	7.217          	6.623
MS.520         	7.202          	6.758
MS.521         	7.188          	6.459
MS.522         	7.172          	6.701
MS.523         	7.16           	6.721
MS.524         	7.145          	6.486
MS.525         	7.13           	6.447
MS.526         	7.117          	6.286
MS.527         	7.102          	6.248
MS.528         	7.087          	6.006
MS.529         	7.075          	5.895
MS.530         	7.06           	6.389
MS.531         	7.045          	5.865
MS.532         	7.032          	6.471
MS.533         	7.017          	5.988
MS.534         	7.003          	5.877
MS.535         	6.99           	5.285
MS.536         	6.975          	5.591
MS.537         	6.962          	5.748
MS.538         	6.947          	5.98
MS.539         	6.935          	5.422
MS.540         	6.92           	5.263
MS.541         	6.905          	5.106
MS.542         	6.892          	5.354
MS.543         	6.878          	4.484
MS.544         	6.865          	4.469
MS.545         	6.85           	4.715
MS.546         	6.837          	4.701
MS.547         	6.825          	4.242
MS.548         	6.81           	4.562
MS.549         	6.797          	3.96
MS.550         	6.782          	3.853
MS.551         	6.77           	3.569
MS.552         	6.755          	3.873
MS.553         	6.742          	3.716
MS.554         	6.73           	3.962
MS.555         	6.715          	3.636
MS.556         	6.702          	3.456
MS.557         	6.688          	3.35
MS.558         	6.675          	3.225
MS.559         	6.662          	3.005
MS.560         	6.648          	2.973
MS.561         	6.635          	2.896
MS.562         	6.622          	3.088
MS.563         	6.61           	2.761
MS.564         	6.595          	2.677
MS.565         	6.582          	3.019
MS.566         	6.57           	2.604
MS.567         	6.555          	2.866
MS.568         	6.543          	2.365
MS.569         	6.53           	2.761
MS.570         	6.517          	2.691
MS.571         	6.505          	2.667
MS.572         	6.49           	2.504
MS.573         	6.477          	2.018
MS.574         	6.465          	2.089
MS.575         	6.452          	2.363
MS.576         	6.44           	1.992
MS.577         	6.427          	1.853
MS.578         	6.412          	2.252
MS.579         	6.4            	1.853
MS.580         	6.387          	1.853
MS.581         	6.375          	1.811
MS.582         	6.362          	1.972
MS.583         	6.35           	1.585
MS.584         	6.338          	2.012
MS.585         	6.325          	1.408
MS.586         	6.312          	1.674
MS.587         	6.3            	1.706
MS.588         	6.287          	1.694
MS.589         	6.275          	1.225
MS.590         	6.262          	1.349
MS.591         	6.25           	1.321
MS.592         	6.237          	1.279
MS.593         	6.225          	1.466
MS.594         	6.213          	1.19
MS.595         	6.2            	1.09
MS.596         	6.188          	1.08
MS.597         	6.175          	1.202
MS.598         	6.162          	1.098
MS.599         	6.15           	1.029
MS.600         	6.137          	0.955
MS.601         	6.125          	0.91
MS.602         	6.112          	0.987
MS.603         	6.1            	0.79
MS.604         	6.088          	1.001
MS.605         	6.077          	0.824
MS.606         	6.065          	0.749
MS.607         	6.052          	0.794
MS.608         	6.04           	0.713
MS.609         	6.027          	0.733
MS.610         	6.015          	0.622
MS.611         	6.005          	0.616
MS.612         	5.992          	0.616
MS.613         	5.98           	0.689
MS.614         	5.967          	0.586
MS.615         	5.955          	0.588
MS.616         	5.945          	0.663
MS.617         	5.932          	0.592
MS.618         	5.92           	0.572
MS.619         	5.907          	0.5
MS.620         	5.898          	0.626
MS.621         	5.885          	0.415
MS.622         	5.872          	0.5
MS.623         	5.862          	0.558
MS.624         	5.85           	0.52
MS.625         	5.838          	0.514
MS.626         	5.827          	0.429
MS.627         	5.815          	0.457
MS.628         	5.802          	0.479
MS.629         	5.793          	0.479
MS.630         	5.78           	0.481
MS.631         	5.767          	0.393
MS.632         	5.757          	0.417
MS.633         	5.745          	0.401
MS.634         	5.735          	0.461
MS.635         	5.722          	0.389
MS.636         	5.71           	0.399
MS.637         	5.7            	0.433
MS.638         	5.688          	0.371
MS.639         	5.677          	0.391
MS.640         	5.665          	0.381
MS.641         	5.655          	0.399
MS.642         	5.642          	0.346
MS.643         	5.632          	0.33
MS.644         	5.62           	0.373
MS.645         	5.61           	0.342
MS.646         	5.597          	0.352
MS.647         	5.588          	0.32
MS.648         	5.575          	0.328
MS.649         	5.565          	0.318
MS.650         	5.552          	0.326
MS.651         	5.543          	0.288
MS.652         	5.53           	0.264
MS.653         	5.52           	0.268
MS.654         	5.51           	0.274
MS.655         	5.497          	0.25
MS.656         	5.487          	0.127
MS.657         	5.475          	0.222
MS.658         	5.465          	0.256
MS.659         	5.455          	0.232
MS.660         	5.443          	0.222
MS.661         	5.432          	0.207
MS.662         	5.422          	0.262
MS.663         	5.41           	0.181
MS.664         	5.4            	0.056
MS.665         	5.39           	0.201
MS.666         	5.378          	0.252
MS.667         	5.367          	0.205
MS.668         	5.358          	0.153
MS.669         	5.347          	0.161
MS.670         	5.335          	0.191
MS.671         	5.325          	0.177
MS.672         	5.315          	0.151
MS.673         	5.302          	0.004
MS.674         	5.293          	0.193
MS.675         	5.282          	0.153
MS.676         	5.273          	-0.002
MS.677         	5.262          	0.151
MS.678         	5.25           	0.002
MS.679         	5.24           	0.046
MS.680         	5.23           	0.000
MS.681         	5.22           	-0.006
MS.682         	5.21           	-0.002
MS.683         	5.197          	0.000
MS.684         	5.188          	-0.002
MS.685         	5.177          	-0.002
MS.686         	5.168          	-0.004
MS.687         	5.157          	-0.002
MS.688         	5.148          	0.002
MS.689         	5.137          	0.000
MS.690         	5.128          	-0.004
MS.691         	5.115          	-0.002
MS.692         	5.105          	-0.004
MS.693         	5.095          	0.002
MS.694         	5.085          	0.000
MS.695         	5.075          	-0.006
MS.696         	5.065          	-0.006
MS.697         	5.055          	-0.006
MS.698         	5.045          	0.000
MS.699         	5.035          	-0.004
MS.700         	5.025          	-0.006
MS.701         	5.015          	-0.002
MS.702         	5.005          	-0.006
MS.703         	4.995          	0.000
MS.704         	4.985          	-0.004
MS.705         	4.975          	-0.004
MS.706         	4.965          	0.000
MS.707         	4.955          	-0.004
MS.708         	4.945          	0.002
MS.709         	4.935          	0.000
MS.710         	4.925          	-0.004
MS.711         	4.915          	-0.006
MS.712         	4.905          	0.000
MS.713         	4.895          	0.002
MS.714         	4.885          	0.004
MS.715         	4.878          	0.002
MS.716         	4.867          	-0.002
MS.717         	4.858          	-0.002
MS.718         	4.847          	-0.006
MS.719         	4.838          	0.002
MS.720         	4.827          	-0.002
MS.721         	4.818          	-0.004
MS.722         	4.807          	-0.004
MS.723         	4.8            	-0.008
MS.724         	4.79           	-0.002
MS.725         	4.78           	-0.008
MS.726         	4.77           	-0.002
MS.727         	4.76           	-0.004
MS.728         	4.753          	-0.004
MS.729         	4.742          	-0.004
MS.730         	4.733          	-0.004
MS.731         	4.722          	0.000
MS.732         	4.713          	-0.002
MS.733         	4.705          	0.000
MS.734         	4.695          	-0.004
MS.735         	4.685          	-0.002
MS.736         	4.675          	-0.002
MS.737         	4.668          	0.002
DERIVED EXCITABILITY VARIABLES
Program = QTracP 3/4/2020
Threshold method = 6 (optimised for CAP, using data for present condition only)
SR method = 1 (using actual data values)
6.                 	0.000               	Peak response\(mV)
9.                 	36.7                	Temperature ( C)
17.                	48                  	Age (years)
18.                	2                   	Sex (M=1, F=2)

EXTRA VARIABLES

MScPeak(mV) = 10.1
MScS5(mA) = 5.88
MScS50(mA) = 6.89
MScS95(mA) = 7.92
MScNSteps = 2
MScSteps(%) = 6.3
MScStepMax(%) = 3.9
MScD50 = 30
MScSlope = 7.16
MSFPeakAmp(mV) = 9.96
MSFNUnits = 96
MSFMeanUnitAmp(uV) = 103.8
MSFHuntTime(m) = 1.71
MSFError(%) = 10.4
MSFNLarge = 28.1
MSFMedianAmp(%) = 0.985
MSFMedianAmp(mV) = 0.0982
MSFHalfAmpAmp(%) = 1.25
MSFHalfAmpAmp(mV) = 0.125
MSFLargestAmp(%) = 3.11
MSFLargestAmp(mV) = 0.31
MSFMeanRS(%) = 1.99
MSFOpts = 10106121
MScDuration(min) = 6.9
MSFTraces = 311
MSFSizeLimit(uV) = 24.9
MSFLimitType = 1
MSFSmallestAmp(uV) = 26.6

EXTRA WAVEFORMS


!MScan Model
!96
	1	5.25	1.06	1.85
	2	5.4	0.94	2
	3	5.5	0.72	2
	4	5.58	0.43	2
	5	5.62	0.45	2
	6	5.68	0.34	2
	7	5.74	0.39	2
	8	5.77	0.27	2
	9	5.83	0.33	2
	10	5.87	0.39	2
	11	5.91	0.36	2
	12	5.94	0.38	2
	13	5.97	0.38	2
	14	5.99	0.41	2
	15	6.02	0.44	2
	16	6.03	0.28	2
	17	6.04	0.29	2
	18	6.06	0.4	2
	19	6.09	0.64	2
	20	6.1	0.35	2
	21	6.11	0.38	2
	22	6.13	0.55	2
	23	6.15	0.49	2
	24	6.17	0.56	2
	25	6.19	0.69	2
	26	6.21	0.8	2
	27	6.24	0.88	2
	28	6.26	0.78	2
	29	6.28	0.8	2
	30	6.3	0.99	2
	31	6.34	1.36	2
	32	6.38	1.22	2
	33	6.4	1.5	2
	34	6.43	1.33	2
	35	6.46	1.09	2
	36	6.48	1.1	2
	37	6.51	1.42	2
	38	6.54	1.41	2
	39	6.57	1.04	2
	40	6.59	1.21	2
	41	6.61	1.38	2
	42	6.63	0.93	2
	43	6.64	0.61	2
	44	6.65	0.54	2
	45	6.66	0.43	2
	46	6.67	0.78	2
	47	6.69	0.82	2
	48	6.7	0.73	2
	49	6.71	0.71	2
	50	6.72	0.68	2
	51	6.73	0.66	2
	52	6.74	0.79	2
	53	6.75	0.81	2
	54	6.76	0.82	2
	55	6.77	0.85	2
	56	6.79	1	2
	57	6.8	1.27	2
	58	6.81	1.09	2
	59	6.82	1.02	2
	60	6.83	1.03	2
	61	6.84	1.04	2
	62	6.85	0.83	2
	63	6.87	0.55	2
	64	6.88	0.98	2
	65	6.89	1.09	2
	66	6.91	1.99	2
	67	6.94	2.09	2
	68	6.96	1.62	2
	69	6.99	2.31	2
	70	7.03	2.09	2
	71	7.06	1.56	2
	72	7.09	1.14	2
	73	7.12	1.5	2
	74	7.16	1.2	2
	75	7.2	1.44	2
	76	7.24	1.69	2
	77	7.28	1.1	2
	78	7.31	1.25	2
	79	7.35	1.31	2
	80	7.39	1.71	2
	81	7.42	1.29	2
	82	7.44	1.05	2
	83	7.46	0.77	1.6
	84	7.46	0.36	1.76
	85	7.46	0.28	2
	86	7.49	1.4	2
	87	7.52	1.4	2
	88	7.55	1.09	2
	89	7.6	3.11	2
	90	7.65	2.21	2
	91	7.7	1.72	2
	92	7.74	1.53	2
	93	7.77	1.25	2
	94	7.84	2.38	2
	95	7.95	2.87	2
	96	8.08	3	2

