File:              	C:\Qtrac\Data\Daniel M Sørensen\MScan multicentre study\Data from centres\Odense\Processed data\TKC01116A.QZD
Name:              	DK.ODE.NC.9.1
Protocol:          	MSCAN-R2
Date:              	16/11/20
Start time:        	10:03:45
Age:               	69
Sex:               	M
Temperature:       	31.4
S/R sites:         	APB
NC/disease:        	NC
Operator:          	TK
Comments:
M-SCAN DATA (7.4-0.9m)
Scanpts: 84, 97, 618, 633
Stim. (mA)     	Amp. (mV)
MS.1           	19.5           	10.5
MS.2           	19.5           	10.478
MS.3           	19.5           	10.5
MS.4           	19.5           	10.437
MS.5           	19.5           	10.474
MS.6           	19.5           	10.447
MS.7           	19.5           	10.419
MS.8           	19.5           	10.391
MS.9           	19.5           	10.458
MS.10          	19.5           	10.427
MS.11          	19.5           	10.443
MS.12          	19.5           	10.443
MS.13          	19.5           	10.421
MS.14          	19.5           	10.439
MS.15          	19.5           	10.441
MS.16          	19.5           	10.441
MS.17          	19.5           	10.445
MS.18          	19.5           	10.407
MS.19          	19.5           	10.447
MS.20          	19.5           	10.46
MS.21          	19.5           	10.46
MS.22          	19.5           	10.46
MS.23          	19.422         	10.437
MS.24          	19.382         	10.456
MS.25          	19.345         	10.449
MS.26          	19.305         	10.447
MS.27          	19.267         	10.458
MS.28          	19.23          	10.462
MS.29          	19.19          	10.472
MS.30          	19.153         	10.46
MS.31          	19.115         	10.449
MS.32          	19.075         	10.464
MS.33          	19.038         	10.437
MS.34          	19             	10.453
MS.35          	18.962         	10.447
MS.36          	18.922         	10.482
MS.37          	18.885         	10.46
MS.38          	18.847         	10.472
MS.39          	18.81          	10.458
MS.40          	18.772         	10.443
MS.41          	18.735         	10.443
MS.42          	18.698         	10.458
MS.43          	18.66          	10.476
MS.44          	18.622         	10.456
MS.45          	18.585         	10.46
MS.46          	18.55          	10.48
MS.47          	18.512         	10.437
MS.48          	18.475         	10.458
MS.49          	18.438         	10.464
MS.50          	18.4           	10.437
MS.51          	18.365         	10.46
MS.52          	18.327         	10.472
MS.53          	18.29          	10.478
MS.54          	18.255         	10.462
MS.55          	18.217         	10.456
MS.56          	18.182         	10.451
MS.57          	18.145         	10.466
MS.58          	18.11          	10.498
MS.59          	18.073         	10.47
MS.60          	18.038         	10.464
MS.61          	18             	10.478
MS.62          	17.965         	10.492
MS.63          	17.93          	10.476
MS.64          	17.892         	10.441
MS.65          	17.858         	10.451
MS.66          	17.823         	10.453
MS.67          	17.785         	10.433
MS.68          	17.75          	10.447
MS.69          	17.715         	10.445
MS.70          	17.68          	10.453
MS.71          	17.645         	10.478
MS.72          	17.61          	10.441
MS.73          	17.575         	10.431
MS.74          	17.538         	10.449
MS.75          	17.503         	10.464
MS.76          	17.467         	10.443
MS.77          	17.435         	10.451
MS.78          	17.4           	10.423
MS.79          	17.365         	10.468
MS.80          	17.33          	10.435
MS.81          	17.295         	10.451
MS.82          	17.26          	10.431
MS.83          	17.225         	10.447
MS.84          	17.192         	10.431
MS.85          	17.157         	10.431
MS.86          	17.122         	10.441
MS.87          	17.087         	10.431
MS.88          	17.055         	10.458
MS.89          	17.02          	10.441
MS.90          	16.987         	10.439
MS.91          	16.952         	10.47
MS.92          	16.917         	10.456
MS.93          	16.885         	10.435
MS.94          	16.85          	10.421
MS.95          	16.817         	10.429
MS.96          	16.782         	10.439
MS.97          	16.75          	10.441
MS.98          	16.717         	10.435
MS.99          	16.682         	10.458
MS.100         	16.65          	10.439
MS.101         	16.618         	10.437
MS.102         	16.583         	10.445
MS.103         	16.55          	10.437
MS.104         	16.517         	10.47
MS.105         	16.485         	10.458
MS.106         	16.452         	10.445
MS.107         	16.417         	10.441
MS.108         	16.385         	10.462
MS.109         	16.352         	10.419
MS.110         	16.32          	10.451
MS.111         	16.288         	10.443
MS.112         	16.255         	10.453
MS.113         	16.222         	10.482
MS.114         	16.19          	10.474
MS.115         	16.157         	10.445
MS.116         	16.125         	10.484
MS.117         	16.092         	10.431
MS.118         	16.062         	10.435
MS.119         	16.03          	10.458
MS.120         	15.997         	10.462
MS.121         	15.965         	10.445
MS.122         	15.932         	10.468
MS.123         	15.902         	10.468
MS.124         	15.87          	10.478
MS.125         	15.837         	10.474
MS.126         	15.807         	10.472
MS.127         	15.775         	10.478
MS.128         	15.742         	10.451
MS.129         	15.712         	10.391
MS.130         	15.68          	10.415
MS.131         	15.65          	10.373
MS.132         	15.617         	10.409
MS.133         	15.587         	10.468
MS.134         	15.555         	10.395
MS.135         	15.525         	10.393
MS.136         	15.492         	10.486
MS.137         	15.462         	10.474
MS.138         	15.432         	10.421
MS.139         	15.4           	10.484
MS.140         	15.37          	10.377
MS.141         	15.34          	10.443
MS.142         	15.307         	10.391
MS.143         	15.277         	10.413
MS.144         	15.247         	10.351
MS.145         	15.217         	10.349
MS.146         	15.188         	10.397
MS.147         	15.155         	10.431
MS.148         	15.125         	10.361
MS.149         	15.095         	10.331
MS.150         	15.065         	10.363
MS.151         	15.035         	10.333
MS.152         	15.005         	10.417
MS.153         	14.975         	10.349
MS.154         	14.945         	10.353
MS.155         	14.915         	10.373
MS.156         	14.885         	10.363
MS.157         	14.855         	10.359
MS.158         	14.827         	10.232
MS.159         	14.797         	10.254
MS.160         	14.767         	10.349
MS.161         	14.737         	10.371
MS.162         	14.707         	10.359
MS.163         	14.68          	10.359
MS.164         	14.65          	10.339
MS.165         	14.62          	10.325
MS.166         	14.59          	10.278
MS.167         	14.562         	10.258
MS.168         	14.532         	10.224
MS.169         	14.505         	10.256
MS.170         	14.475         	10.236
MS.171         	14.445         	10.236
MS.172         	14.417         	10.284
MS.173         	14.387         	10.224
MS.174         	14.36          	10.228
MS.175         	14.33          	10.232
MS.176         	14.302         	10.208
MS.177         	14.273         	10.236
MS.178         	14.245         	10.121
MS.179         	14.217         	10.21
MS.180         	14.188         	10.125
MS.181         	14.16          	10.236
MS.182         	14.132         	10.218
MS.183         	14.102         	10.129
MS.184         	14.075         	10.228
MS.185         	14.047         	10.256
MS.186         	14.02          	10.111
MS.187         	13.99          	10.196
MS.188         	13.962         	10.192
MS.189         	13.935         	9.89
MS.190         	13.907         	9.883
MS.191         	13.88          	10.089
MS.192         	13.852         	10.014
MS.193         	13.825         	10.097
MS.194         	13.797         	10.073
MS.195         	13.77          	10.115
MS.196         	13.742         	9.996
MS.197         	13.715         	9.883
MS.198         	13.688         	9.924
MS.199         	13.66          	10.02
MS.200         	13.632         	10.043
MS.201         	13.605         	9.894
MS.202         	13.577         	9.885
MS.203         	13.55          	9.892
MS.204         	13.523         	9.454
MS.205         	13.495         	9.614
MS.206         	13.47          	9.608
MS.207         	13.443         	9.595
MS.208         	13.415         	9.672
MS.209         	13.387         	9.616
MS.210         	13.362         	9.626
MS.211         	13.335         	9.606
MS.212         	13.307         	9.477
MS.213         	13.282         	9.616
MS.214         	13.255         	9.569
MS.215         	13.23          	9.632
MS.216         	13.202         	9.604
MS.217         	13.175         	9.604
MS.218         	13.15          	9.422
MS.219         	13.122         	9.442
MS.220         	13.097         	9.418
MS.221         	13.07          	9.275
MS.222         	13.045         	9.368
MS.223         	13.02          	9.394
MS.224         	12.992         	9.295
MS.225         	12.967         	9.33
MS.226         	12.94          	9.233
MS.227         	12.915         	9.402
MS.228         	12.89          	9.112
MS.229         	12.862         	9.058
MS.230         	12.837         	9.207
MS.231         	12.812         	8.947
MS.232         	12.787         	9.12
MS.233         	12.76          	9.015
MS.234         	12.735         	9.134
MS.235         	12.71          	9.06
MS.236         	12.685         	9.042
MS.237         	12.66          	8.59
MS.238         	12.635         	8.874
MS.239         	12.61          	8.768
MS.240         	12.585         	8.937
MS.241         	12.557         	8.602
MS.242         	12.532         	8.697
MS.243         	12.507         	8.562
MS.244         	12.483         	8.6
MS.245         	12.457         	8.484
MS.246         	12.432         	8.58
MS.247         	12.41          	8.609
MS.248         	12.385         	8.576
MS.249         	12.36          	8.578
MS.250         	12.335         	8.466
MS.251         	12.31          	8.488
MS.252         	12.285         	8.48
MS.253         	12.26          	8.472
MS.254         	12.238         	8.578
MS.255         	12.212         	8.457
MS.256         	12.188         	8.359
MS.257         	12.162         	8.411
MS.258         	12.14          	8.403
MS.259         	12.115         	8.425
MS.260         	12.09          	8.196
MS.261         	12.065         	8.31
MS.262         	12.042         	8.457
MS.263         	12.017         	8.153
MS.264         	11.995         	7.835
MS.265         	11.97          	7.926
MS.266         	11.945         	7.837
MS.267         	11.922         	8.21
MS.268         	11.898         	7.916
MS.269         	11.875         	7.869
MS.270         	11.85          	8.119
MS.271         	11.827         	7.871
MS.272         	11.802         	7.644
MS.273         	11.78          	7.418
MS.274         	11.757         	7.499
MS.275         	11.733         	7.529
MS.276         	11.71          	7.434
MS.277         	11.685         	7.265
MS.278         	11.662         	7.479
MS.279         	11.64          	7.231
MS.280         	11.617         	7.301
MS.281         	11.592         	7.382
MS.282         	11.57          	7.122
MS.283         	11.547         	7.134
MS.284         	11.525         	7.078
MS.285         	11.5           	7.126
MS.286         	11.477         	7.037
MS.287         	11.455         	6.987
MS.288         	11.432         	6.965
MS.289         	11.41          	7.096
MS.290         	11.387         	7.042
MS.291         	11.363         	6.606
MS.292         	11.34          	7.104
MS.293         	11.318         	7.035
MS.294         	11.295         	6.532
MS.295         	11.273         	6.619
MS.296         	11.25          	6.101
MS.297         	11.227         	6.488
MS.298         	11.205         	6.941
MS.299         	11.182         	6.451
MS.300         	11.16          	6.075
MS.301         	11.137         	6.494
MS.302         	11.117         	6.075
MS.303         	11.095         	6.395
MS.304         	11.073         	6.018
MS.305         	11.05          	5.932
MS.306         	11.028         	5.962
MS.307         	11.005         	6
MS.308         	10.983         	5.95
MS.309         	10.962         	5.827
MS.310         	10.94          	5.924
MS.311         	10.917         	6.022
MS.312         	10.895         	5.928
MS.313         	10.875         	5.883
MS.314         	10.852         	5.879
MS.315         	10.83          	5.688
MS.316         	10.81          	5.859
MS.317         	10.787         	5.789
MS.318         	10.765         	5.728
MS.319         	10.745         	5.891
MS.320         	10.722         	5.7
MS.321         	10.702         	5.676
MS.322         	10.68          	5.589
MS.323         	10.66          	5.221
MS.324         	10.637         	5.47
MS.325         	10.617         	5.136
MS.326         	10.595         	5.104
MS.327         	10.575         	5.225
MS.328         	10.552         	5.279
MS.329         	10.532         	5.072
MS.330         	10.51          	4.88
MS.331         	10.49          	4.888
MS.332         	10.47          	4.876
MS.333         	10.448         	4.866
MS.334         	10.427         	4.679
MS.335         	10.407         	4.834
MS.336         	10.385         	4.479
MS.337         	10.365         	4.447
MS.338         	10.345         	4.437
MS.339         	10.323         	4.502
MS.340         	10.302         	4.447
MS.341         	10.282         	4.345
MS.342         	10.262         	4.397
MS.343         	10.24          	4.409
MS.344         	10.22          	4.079
MS.345         	10.2           	4.212
MS.346         	10.18          	3.821
MS.347         	10.16          	3.835
MS.348         	10.14          	3.742
MS.349         	10.12          	4.105
MS.350         	10.097         	3.754
MS.351         	10.077         	3.638
MS.352         	10.057         	3.728
MS.353         	10.037         	3.688
MS.354         	10.017         	3.658
MS.355         	9.997          	3.638
MS.356         	9.977          	3.491
MS.357         	9.957          	3.384
MS.358         	9.938          	3.414
MS.359         	9.917          	3.601
MS.360         	9.9            	3.664
MS.361         	9.88           	3.432
MS.362         	9.86           	3.573
MS.363         	9.84           	3.474
MS.364         	9.82           	3.551
MS.365         	9.8            	3.178
MS.366         	9.78           	3.497
MS.367         	9.76           	3.436
MS.368         	9.742          	3.092
MS.369         	9.722          	3.144
MS.370         	9.702          	3.223
MS.371         	9.682          	2.991
MS.372         	9.665          	3.047
MS.373         	9.645          	2.896
MS.374         	9.625          	3.005
MS.375         	9.605          	2.784
MS.376         	9.587          	2.931
MS.377         	9.568          	2.786
MS.378         	9.55           	2.773
MS.379         	9.53           	2.753
MS.380         	9.51           	2.677
MS.381         	9.492          	2.725
MS.382         	9.472          	2.838
MS.383         	9.452          	2.475
MS.384         	9.435          	2.697
MS.385         	9.415          	2.626
MS.386         	9.398          	2.572
MS.387         	9.377          	2.407
MS.388         	9.36           	2.574
MS.389         	9.34           	2.496
MS.390         	9.323          	2.381
MS.391         	9.302          	2.431
MS.392         	9.285          	2.449
MS.393         	9.267          	2.304
MS.394         	9.247          	2.216
MS.395         	9.23           	2.203
MS.396         	9.21           	2.149
MS.397         	9.193          	2.171
MS.398         	9.175          	2.071
MS.399         	9.155          	2.119
MS.400         	9.137          	1.982
MS.401         	9.12           	2.073
MS.402         	9.1            	1.982
MS.403         	9.082          	1.976
MS.404         	9.065          	1.825
MS.405         	9.047          	1.95
MS.406         	9.028          	1.885
MS.407         	9.01           	1.807
MS.408         	8.992          	1.859
MS.409         	8.975          	1.793
MS.410         	8.957          	1.726
MS.411         	8.94           	1.781
MS.412         	8.92           	1.905
MS.413         	8.903          	1.942
MS.414         	8.885          	1.758
MS.415         	8.867          	1.579
MS.416         	8.85           	1.742
MS.417         	8.832          	1.398
MS.418         	8.815          	1.73
MS.419         	8.797          	1.454
MS.420         	8.78           	1.303
MS.421         	8.762          	1.404
MS.422         	8.745          	1.388
MS.423         	8.727          	1.444
MS.424         	8.71           	1.323
MS.425         	8.693          	1.492
MS.426         	8.675          	1.301
MS.427         	8.658          	1.394
MS.428         	8.64           	1.295
MS.429         	8.622          	1.303
MS.430         	8.605          	1.217
MS.431         	8.587          	1.217
MS.432         	8.57           	1.249
MS.433         	8.555          	1.196
MS.434         	8.537          	1.142
MS.435         	8.52           	1.124
MS.436         	8.502          	1.138
MS.437         	8.485          	1.182
MS.438         	8.47           	1.047
MS.439         	8.452          	1.11
MS.440         	8.435          	1.033
MS.441         	8.417          	0.961
MS.442         	8.403          	0.929
MS.443         	8.385          	0.884
MS.444         	8.367          	0.949
MS.445         	8.35           	0.955
MS.446         	8.335          	1.025
MS.447         	8.318          	0.876
MS.448         	8.302          	0.771
MS.449         	8.285          	0.961
MS.450         	8.267          	0.838
MS.451         	8.252          	0.751
MS.452         	8.235          	0.854
MS.453         	8.217          	0.794
MS.454         	8.202          	0.689
MS.455         	8.185          	0.786
MS.456         	8.17           	0.703
MS.457         	8.153          	0.647
MS.458         	8.137          	0.79
MS.459         	8.12           	0.632
MS.460         	8.105          	0.655
MS.461         	8.087          	0.677
MS.462         	8.073          	0.663
MS.463         	8.055          	0.596
MS.464         	8.04           	0.636
MS.465         	8.025          	0.449
MS.466         	8.007          	0.387
MS.467         	7.992          	0.306
MS.468         	7.975          	0.522
MS.469         	7.96           	0.393
MS.470         	7.945          	0.389
MS.471         	7.927          	0.411
MS.472         	7.912          	0.234
MS.473         	7.898          	0.332
MS.474         	7.88           	0.338
MS.475         	7.865          	0.31
MS.476         	7.85           	0.28
MS.477         	7.832          	0.195
MS.478         	7.817          	0.199
MS.479         	7.802          	0.193
MS.480         	7.787          	0.282
MS.481         	7.77           	0.205
MS.482         	7.755          	0.201
MS.483         	7.74           	0.205
MS.484         	7.725          	0.197
MS.485         	7.71           	0.218
MS.486         	7.695          	0.187
MS.487         	7.677          	0.191
MS.488         	7.662          	0.197
MS.489         	7.648          	0.23
MS.490         	7.632          	0.286
MS.491         	7.617          	0.205
MS.492         	7.602          	0.201
MS.493         	7.587          	0.129
MS.494         	7.572          	0.171
MS.495         	7.557          	0.105
MS.496         	7.543          	0.189
MS.497         	7.527          	0.089
MS.498         	7.512          	0.103
MS.499         	7.497          	0.183
MS.500         	7.482          	0.099
MS.501         	7.467          	0.203
MS.502         	7.452          	0.052
MS.503         	7.438          	0.068
MS.504         	7.422          	0.093
MS.505         	7.407          	0.085
MS.506         	7.392          	0.073
MS.507         	7.378          	0.058
MS.508         	7.362          	0.066
MS.509         	7.347          	0.06
MS.510         	7.332          	0.054
MS.511         	7.317          	0.064
MS.512         	7.305          	0.06
MS.513         	7.29           	0.052
MS.514         	7.275          	0.066
MS.515         	7.26           	0.062
MS.516         	7.245          	0.056
MS.517         	7.23           	0.064
MS.518         	7.217          	0.07
MS.519         	7.202          	0.05
MS.520         	7.188          	0.06
MS.521         	7.172          	0.05
MS.522         	7.16           	0.058
MS.523         	7.145          	0.054
MS.524         	7.13           	0.036
MS.525         	7.117          	0.075
MS.526         	7.102          	0.05
MS.527         	7.087          	0.052
MS.528         	7.075          	0.064
MS.529         	7.06           	0.079
MS.530         	7.045          	0.058
MS.531         	7.032          	0.066
MS.532         	7.017          	0.058
MS.533         	7.003          	0.079
MS.534         	6.99           	0.087
MS.535         	6.975          	0.068
MS.536         	6.962          	0.038
MS.537         	6.947          	0.048
MS.538         	6.935          	0.052
MS.539         	6.92           	0.06
MS.540         	6.905          	0.062
MS.541         	6.892          	0.06
MS.542         	6.878          	0.064
MS.543         	6.865          	0.068
MS.544         	6.85           	0.079
MS.545         	6.837          	0.058
MS.546         	6.825          	0.064
MS.547         	6.81           	0.05
MS.548         	6.797          	0.056
MS.549         	6.782          	0.068
MS.550         	6.77           	0.085
MS.551         	6.755          	0.06
MS.552         	6.742          	0.064
MS.553         	6.73           	0.056
MS.554         	6.715          	0.052
MS.555         	6.702          	0.077
MS.556         	6.688          	0.073
MS.557         	6.675          	0.058
MS.558         	6.662          	0.064
MS.559         	6.648          	0.016
MS.560         	6.635          	0.058
MS.561         	6.622          	0.066
MS.562         	6.61           	0.05
MS.563         	6.595          	0.056
MS.564         	6.582          	0.038
MS.565         	6.57           	0.054
MS.566         	6.555          	0.073
MS.567         	6.543          	0.073
MS.568         	6.53           	0.034
MS.569         	6.517          	0.042
MS.570         	6.505          	0.042
MS.571         	6.49           	0.03
MS.572         	6.477          	0.054
MS.573         	6.465          	0.052
MS.574         	6.452          	0.018
MS.575         	6.44           	0.06
MS.576         	6.427          	0.034
MS.577         	6.412          	0.042
MS.578         	6.4            	0.05
MS.579         	6.387          	0.038
MS.580         	6.375          	0.073
MS.581         	6.362          	0.034
MS.582         	6.35           	0.028
MS.583         	6.338          	0.034
MS.584         	6.325          	0.04
MS.585         	6.312          	0.028
MS.586         	6.3            	0.044
MS.587         	6.287          	0.032
MS.588         	6.275          	0.044
MS.589         	6.262          	0.024
MS.590         	6.25           	0.044
MS.591         	6.237          	0.04
MS.592         	6.225          	0.048
MS.593         	6.213          	0.038
MS.594         	6.2            	0.058
MS.595         	6.188          	0.032
MS.596         	6.175          	0.046
MS.597         	6.162          	0.052
MS.598         	6.15           	0.052
MS.599         	6.137          	0.026
MS.600         	6.125          	0.044
MS.601         	6.112          	0.032
MS.602         	6.1            	0.034
MS.603         	6.088          	0.028
MS.604         	6.077          	0.044
MS.605         	6.065          	0.038
MS.606         	6.052          	0.056
MS.607         	6.04           	0.036
MS.608         	6.027          	0.034
MS.609         	6.015          	0.034
MS.610         	6.005          	0.044
MS.611         	5.992          	0.026
MS.612         	5.98           	0.05
MS.613         	5.967          	0.048
MS.614         	5.955          	0.038
MS.615         	5.945          	0.026
MS.616         	5.932          	0.042
MS.617         	5.92           	0.032
MS.618         	5.907          	0.048
MS.619         	5.898          	0.042
MS.620         	5.885          	0.03
MS.621         	5.872          	0.032
MS.622         	5.862          	0.04
MS.623         	5.85           	0.038
MS.624         	5.838          	0.044
MS.625         	5.827          	0.05
MS.626         	5.815          	0.04
MS.627         	5.802          	0.034
MS.628         	5.793          	0.054
MS.629         	5.78           	0.032
MS.630         	5.767          	0.034
MS.631         	5.757          	0.036
MS.632         	5.745          	0.01
MS.633         	5.735          	0.032
MS.634         	5.722          	0.036
MS.635         	5.71           	0.042
MS.636         	5.7            	0.044
MS.637         	5.688          	0.048
MS.638         	5.677          	0.03
MS.639         	5.665          	0.032
MS.640         	5.655          	0.048
MS.641         	5.642          	0.028
MS.642         	5.632          	0.038
MS.643         	5.62           	0.05
MS.644         	5.61           	0.038
MS.645         	5.597          	0.032
MS.646         	5.588          	0.062
MS.647         	5.575          	0.028
MS.648         	5.565          	0.05
MS.649         	5.552          	0.034
MS.650         	5.543          	0.06
MS.651         	5.53           	0.044
MS.652         	5.52           	0.026
MS.653         	5.51           	0.046
MS.654         	5.497          	0.038
MS.655         	5.487          	0.018
MS.656         	5.475          	0.02
MS.657         	5.465          	0.028
MS.658         	5.455          	0.06
MS.659         	5.443          	0.048
MS.660         	5.432          	0.022
MS.661         	5.422          	0.046
MS.662         	5.41           	0.05
MS.663         	5.4            	0.05
MS.664         	5.39           	0.044
MS.665         	5.378          	0.036
MS.666         	5.367          	0.046
MS.667         	5.358          	0.038
MS.668         	5.347          	0.046
MS.669         	5.335          	0.04
MS.670         	5.325          	0.03
MS.671         	5.315          	0.034
MS.672         	5.302          	0.04
MS.673         	5.293          	0.066
MS.674         	5.282          	0.066
MS.675         	5.273          	0.038
MS.676         	5.262          	0.032
MS.677         	5.25           	0.03
MS.678         	5.24           	0.048
MS.679         	5.23           	0.048
MS.680         	5.22           	0.042
MS.681         	5.21           	0.044
MS.682         	5.197          	0.044
MS.683         	5.188          	0.03
MS.684         	5.177          	0.044
MS.685         	5.168          	0.044
MS.686         	5.157          	0.04
MS.687         	5.148          	0.03
MS.688         	5.137          	0.036
MS.689         	5.128          	0.048
MS.690         	5.115          	0.04
MS.691         	5.105          	0.038
DERIVED EXCITABILITY VARIABLES
Program = QTracP 9/10/2021
Threshold method = 6 (optimised for CAP, using data for present condition only)
SR method = 1 (using actual data values)
6.                 	0.000               	Peak response\(mV)
9.                 	31.4                	Temperature ( C)
17.                	69                  	Age (years)
18.                	1                   	Sex (M=1, F=2)

EXTRA VARIABLES

MScPeak(mV) = 10.41
MScS5(mA) = 7.99
MScS50(mA) = 10.58
MScS95(mA) = 13.76
MScNSteps = 4
MScSteps(%) = 10.3
MScStepMax(%) = 3.1
MScD50 = 47
MScSlope = 4.44
MScDuration(min) = 6.5
MSFTraces = 550
MSFPeakAmp(mV) = 10.4
MSFNUnits = 162
MSFMeanUnitAmp(uV) = 64.2
MSFHuntTime(m) = 4.17
MSFError(%) = 8.75
MSFNLarge = 46.95
MSFMedianAmp(%) = 0.492
MSFMedianAmp(mV) = 0.0512
MSFHalfAmpAmp(%) = 0.646
MSFHalfAmpAmp(mV) = 0.0672
MSFLargestAmp(%) = 2.61
MSFLargestAmp(mV) = 0.271
MSFMeanRS(%) = 2
MSFSizeLimit(uV) = 26
MSFLimitType = 1
MSFSmallestAmp(uV) = 26.9
MSFOpts = 10106121

EXTRA WAVEFORMS


!MScan Model
!162
	1	6.83	0.31	2
	2	7.5	0.48	2
	3	7.59	0.52	2
	4	7.79	0.65	2
	5	7.84	0.32	2
	6	7.87	0.29	2
	7	7.93	0.55	2
	8	7.95	0.36	2
	9	7.97	0.27	2
	10	7.99	0.35	2
	11	8.02	0.43	2
	12	8.05	0.51	2
	13	8.08	0.33	2
	14	8.11	0.48	2
	15	8.16	0.78	2
	16	8.21	0.5	2
	17	8.26	0.55	2
	18	8.31	0.46	2
	19	8.34	0.37	2
	20	8.38	0.53	2
	21	8.42	0.39	2
	22	8.45	0.35	2
	23	8.49	0.43	2
	24	8.52	0.51	2
	25	8.55	0.4	2
	26	8.57	0.26	2
	27	8.6	0.45	2
	28	8.66	0.63	2
	29	8.71	0.59	2
	30	8.76	0.79	2
	31	8.8	0.72	2
	32	8.84	0.47	2
	33	8.92	1.57	2
	34	9	1.16	2
	35	9.08	0.74	2
	36	9.1	0.31	2
	37	9.12	0.34	2
	38	9.15	0.43	2
	39	9.16	0.26	2
	40	9.18	0.29	2
	41	9.19	0.36	2
	42	9.22	0.55	2
	43	9.23	0.34	2
	44	9.25	0.32	2
	45	9.28	0.46	2
	46	9.3	0.31	2
	47	9.32	0.31	2
	48	9.34	0.52	2
	49	9.38	0.71	2
	50	9.41	0.49	2
	51	9.44	0.52	2
	52	9.48	0.53	2
	53	9.51	0.49	2
	54	9.54	0.34	2
	55	9.56	0.39	2
	56	9.58	0.43	2
	57	9.6	0.36	2
	58	9.62	0.34	2
	59	9.64	0.39	2
	60	9.66	0.5	2
	61	9.68	0.49	2
	62	9.7	0.47	2
	63	9.73	0.71	2
	64	9.76	0.59	2
	65	9.84	1.58	2
	66	9.95	1.67	2
	67	10.01	0.54	2
	68	10.06	0.58	2
	69	10.08	0.38	2
	70	10.09	0.37	2
	71	10.11	0.46	2
	72	10.13	0.59	2
	73	10.15	0.6	2
	74	10.17	0.54	2
	75	10.19	0.61	2
	76	10.21	0.66	2
	77	10.24	0.56	2
	78	10.26	0.65	2
	79	10.28	0.4	2
	80	10.29	0.4	2
	81	10.31	0.44	2
	82	10.32	0.49	2
	83	10.34	0.45	2
	84	10.35	0.41	2
	85	10.37	0.37	2
	86	10.38	0.37	2
	87	10.4	0.32	2
	88	10.41	0.31	2
	89	10.42	0.29	2
	90	10.43	0.32	2
	91	10.45	0.34	2
	92	10.46	0.36	2
	93	10.47	0.36	2
	94	10.48	0.39	2
	95	10.5	0.39	2
	96	10.51	0.39	2
	97	10.52	0.4	2
	98	10.54	0.41	2
	99	10.55	0.44	2
	100	10.56	0.43	2
	101	10.58	0.43	2
	102	10.59	0.43	2
	103	10.61	0.63	2
	104	10.63	0.63	2
	105	10.65	0.49	2
	106	10.68	0.53	2
	107	10.72	1.13	2
	108	10.77	1.09	2
	109	10.85	1.27	2
	110	10.95	0.92	2
	111	11.03	1.26	2
	112	11.11	1.38	2
	113	11.19	1.89	2
	114	11.27	2.25	2
	115	11.37	2.14	2
	116	11.46	1.73	2
	117	11.5	0.52	2
	118	11.52	0.4	2
	119	11.55	0.42	2
	120	11.58	0.39	2
	121	11.6	0.39	2
	122	11.63	0.4	2
	123	11.66	0.54	2
	124	11.68	0.61	2
	125	11.71	0.6	2
	126	11.76	0.92	2
	127	11.8	0.85	2
	128	11.86	1.1	2
	129	11.91	1.31	2
	130	11.96	1.07	2
	131	12	0.85	2
	132	12.05	0.98	2
	133	12.13	1.01	2
	134	12.21	0.88	2
	135	12.31	0.86	2
	136	12.4	0.69	2
	137	12.47	0.48	2
	138	12.52	0.66	2
	139	12.57	0.71	2
	140	12.62	0.51	2
	141	12.68	0.7	2
	142	12.73	0.79	2
	143	12.79	0.75	2
	144	12.84	0.78	2
	145	12.9	0.67	2
	146	12.95	0.51	2
	147	12.99	0.38	2
	148	13.02	0.44	2
	149	13.06	0.47	2
	150	13.11	0.49	2
	151	13.16	0.28	2
	152	13.31	0.95	2
	153	13.39	0.31	2
	154	13.46	1	2
	155	13.52	0.46	2
	156	13.58	0.42	2
	157	13.86	2.61	2
	158	14.16	1.11	2
	159	14.45	0.52	2
	160	14.57	0.34	2
	161	15.05	0.7	2
	162	15.66	0.66	2

