File:              	C:\Qtrac\Data\Daniel M Sørensen\MScan multicentre study\Data from centres\Antalya\Processed data\TR.NC.ANT.3.1- NCC00315F.QZD
Name:              	TR.NC.ANT.3.1
Protocol:          	MSCAN-R2
Date:              	15/3/20
Start time:        	15:54:56
Age:               	37
Sex:               	f
Temperature:       	31.2
S/R sites:         	APB
NC/disease:        	NC
Operator:          	ab
Comments:          	left APB
M-SCAN DATA (4.8-0.8m)
Scanpts: 94, 100, 427, 432
Stim. (mA)     	Amp. (mV)
MS.1           	18             	9.642
MS.2           	18             	9.618
MS.3           	18             	9.587
MS.4           	18             	9.704
MS.5           	18             	9.618
MS.6           	18             	9.62
MS.7           	18             	9.636
MS.8           	18             	9.688
MS.9           	18             	9.628
MS.10          	18             	9.65
MS.11          	18             	9.63
MS.12          	18             	9.599
MS.13          	18             	9.664
MS.14          	18             	9.589
MS.15          	18             	9.728
MS.16          	18             	9.672
MS.17          	18             	9.69
MS.18          	18             	9.684
MS.19          	18             	9.769
MS.20          	18             	9.71
MS.21          	18             	9.726
MS.22          	18             	9.694
MS.23          	18             	9.807
MS.24          	17.892         	9.865
MS.25          	17.858         	9.71
MS.26          	17.82          	9.622
MS.27          	17.785         	9.662
MS.28          	17.75          	9.676
MS.29          	17.715         	9.648
MS.30          	17.68          	9.767
MS.31          	17.642         	9.662
MS.32          	17.608         	9.618
MS.33          	17.573         	9.817
MS.34          	17.538         	9.791
MS.35          	17.503         	9.811
MS.36          	17.467         	9.849
MS.37          	17.432         	9.718
MS.38          	17.397         	9.759
MS.39          	17.362         	9.817
MS.40          	17.33          	9.821
MS.41          	17.295         	9.753
MS.42          	17.26          	9.753
MS.43          	17.225         	9.819
MS.44          	17.19          	9.863
MS.45          	17.157         	9.747
MS.46          	17.122         	9.676
MS.47          	17.087         	9.728
MS.48          	17.052         	9.734
MS.49          	17.02          	9.751
MS.50          	16.985         	9.706
MS.51          	16.952         	9.702
MS.52          	16.917         	9.795
MS.53          	16.885         	9.769
MS.54          	16.85          	9.759
MS.55          	16.817         	9.807
MS.56          	16.782         	9.747
MS.57          	16.75          	9.785
MS.58          	16.715         	9.801
MS.59          	16.682         	9.797
MS.60          	16.65          	9.881
MS.61          	16.615         	9.851
MS.62          	16.583         	9.841
MS.63          	16.55          	9.865
MS.64          	16.517         	9.706
MS.65          	16.483         	9.797
MS.66          	16.45          	9.722
MS.67          	16.417         	9.72
MS.68          	16.385         	9.672
MS.69          	16.352         	9.72
MS.70          	16.32          	9.769
MS.71          	16.288         	9.724
MS.72          	16.255         	9.747
MS.73          	16.222         	9.815
MS.74          	16.19          	9.753
MS.75          	16.157         	9.831
MS.76          	16.125         	9.888
MS.77          	16.092         	9.767
MS.78          	16.06          	9.688
MS.79          	16.028         	9.801
MS.80          	15.997         	9.835
MS.81          	15.965         	9.936
MS.82          	15.932         	9.865
MS.83          	15.9           	9.867
MS.84          	15.87          	9.801
MS.85          	15.837         	9.811
MS.86          	15.805         	9.869
MS.87          	15.775         	9.809
MS.88          	15.742         	9.795
MS.89          	15.71          	9.767
MS.90          	15.68          	9.928
MS.91          	15.648         	10.012
MS.92          	15.617         	10
MS.93          	15.585         	9.94
MS.94          	15.555         	9.928
MS.95          	15.523         	9.912
MS.96          	15.492         	9.894
MS.97          	15.462         	9.892
MS.98          	15.43          	10.01
MS.99          	15.4           	9.962
MS.100         	15.37          	9.992
MS.101         	15.337         	9.892
MS.102         	15.307         	10.049
MS.103         	15.277         	9.976
MS.104         	15.247         	9.541
MS.105         	15.217         	9.877
MS.106         	15.185         	9.801
MS.107         	15.155         	9.908
MS.108         	15.125         	9.763
MS.109         	15.095         	9.926
MS.110         	15.065         	9.783
MS.111         	15.035         	9.825
MS.112         	15.005         	9.853
MS.113         	14.975         	9.769
MS.114         	14.945         	9.825
MS.115         	14.915         	9.833
MS.116         	14.885         	9.825
MS.117         	14.855         	9.845
MS.118         	14.825         	9.865
MS.119         	14.795         	9.958
MS.120         	14.767         	9.972
MS.121         	14.737         	9.958
MS.122         	14.707         	9.851
MS.123         	14.677         	9.894
MS.124         	14.65          	9.924
MS.125         	14.62          	9.96
MS.126         	14.59          	9.928
MS.127         	14.562         	9.904
MS.128         	14.532         	9.906
MS.129         	14.502         	9.825
MS.130         	14.475         	9.984
MS.131         	14.445         	10.059
MS.132         	14.417         	9.714
MS.133         	14.387         	10.069
MS.134         	14.36          	9.894
MS.135         	14.33          	10.079
MS.136         	14.302         	10.087
MS.137         	14.273         	10.067
MS.138         	14.245         	10.037
MS.139         	14.215         	9.982
MS.140         	14.188         	10.057
MS.141         	14.16          	9.63
MS.142         	14.13          	10.111
MS.143         	14.102         	10.071
MS.144         	14.075         	9.996
MS.145         	14.047         	10.022
MS.146         	14.017         	10.133
MS.147         	13.99          	9.92
MS.148         	13.962         	9.974
MS.149         	13.935         	10.02
MS.150         	13.907         	9.573
MS.151         	13.88          	9.513
MS.152         	13.85          	9.533
MS.153         	13.822         	9.694
MS.154         	13.795         	9.652
MS.155         	13.767         	9.666
MS.156         	13.74          	9.509
MS.157         	13.712         	9.348
MS.158         	13.685         	9.577
MS.159         	13.657         	9.404
MS.160         	13.632         	9.311
MS.161         	13.605         	9.384
MS.162         	13.577         	9.41
MS.163         	13.55          	9.99
MS.164         	13.523         	9.402
MS.165         	13.495         	9.259
MS.166         	13.467         	9.285
MS.167         	13.443         	9.205
MS.168         	13.415         	9.269
MS.169         	13.387         	9.207
MS.170         	13.362         	8.78
MS.171         	13.335         	9.098
MS.172         	13.307         	8.687
MS.173         	13.282         	8.816
MS.174         	13.255         	8.633
MS.175         	13.227         	8.659
MS.176         	13.202         	8.272
MS.177         	13.175         	8.163
MS.178         	13.15          	8.687
MS.179         	13.122         	8.437
MS.180         	13.097         	8.248
MS.181         	13.07          	7.863
MS.182         	13.045         	8.27
MS.183         	13.017         	8.25
MS.184         	12.992         	8.061
MS.185         	12.967         	7.473
MS.186         	12.94          	8.139
MS.187         	12.915         	7.908
MS.188         	12.89          	8.083
MS.189         	12.862         	8.3
MS.190         	12.837         	7.926
MS.191         	12.812         	7.694
MS.192         	12.785         	7.178
MS.193         	12.76          	7.976
MS.194         	12.735         	7.581
MS.195         	12.71          	7.319
MS.196         	12.685         	7.195
MS.197         	12.66          	7.75
MS.198         	12.632         	7.015
MS.199         	12.608         	7.281
MS.200         	12.582         	7.05
MS.201         	12.557         	7.289
MS.202         	12.532         	6.852
MS.203         	12.507         	7.096
MS.204         	12.483         	6.87
MS.205         	12.457         	7.152
MS.206         	12.432         	7.249
MS.207         	12.407         	6.683
MS.208         	12.382         	6.852
MS.209         	12.36          	6.691
MS.210         	12.335         	7.146
MS.211         	12.31          	6.993
MS.212         	12.285         	6.943
MS.213         	12.26          	6.552
MS.214         	12.235         	6.582
MS.215         	12.212         	6.699
MS.216         	12.188         	6.713
MS.217         	12.162         	6.572
MS.218         	12.137         	6.238
MS.219         	12.115         	6.24
MS.220         	12.09          	6.546
MS.221         	12.065         	6.188
MS.222         	12.042         	6.828
MS.223         	12.017         	6.274
MS.224         	11.992         	6.788
MS.225         	11.97          	6.407
MS.226         	11.945         	6.024
MS.227         	11.922         	6.101
MS.228         	11.898         	6.067
MS.229         	11.875         	6.089
MS.230         	11.85          	6.03
MS.231         	11.827         	5.785
MS.232         	11.802         	5.817
MS.233         	11.78          	5.95
MS.234         	11.755         	5.12
MS.235         	11.733         	5.507
MS.236         	11.71          	5.193
MS.237         	11.685         	5.329
MS.238         	11.662         	5.015
MS.239         	11.64          	4.987
MS.240         	11.615         	5.11
MS.241         	11.592         	4.824
MS.242         	11.57          	4.774
MS.243         	11.547         	4.653
MS.244         	11.523         	4.784
MS.245         	11.5           	4.445
MS.246         	11.477         	4.222
MS.247         	11.455         	4.177
MS.248         	11.432         	4.109
MS.249         	11.407         	4.53
MS.250         	11.385         	4.024
MS.251         	11.363         	4.208
MS.252         	11.34          	4.429
MS.253         	11.318         	4.081
MS.254         	11.295         	3.762
MS.255         	11.273         	3.295
MS.256         	11.25          	3.986
MS.257         	11.227         	3.493
MS.258         	11.205         	3.474
MS.259         	11.182         	3.865
MS.260         	11.16          	3.529
MS.261         	11.137         	3.48
MS.262         	11.115         	3.043
MS.263         	11.092         	3.69
MS.264         	11.073         	3.005
MS.265         	11.05          	3.017
MS.266         	11.028         	3.174
MS.267         	11.005         	3.217
MS.268         	10.983         	2.967
MS.269         	10.962         	2.683
MS.270         	10.94          	2.876
MS.271         	10.917         	2.679
MS.272         	10.895         	2.715
MS.273         	10.875         	3.017
MS.274         	10.852         	2.487
MS.275         	10.83          	2.683
MS.276         	10.81          	2.576
MS.277         	10.787         	2.492
MS.278         	10.765         	2.304
MS.279         	10.745         	2.266
MS.280         	10.722         	2.161
MS.281         	10.702         	2.429
MS.282         	10.68          	2.181
MS.283         	10.657         	1.897
MS.284         	10.637         	2.014
MS.285         	10.615         	1.97
MS.286         	10.595         	2.177
MS.287         	10.573         	2.149
MS.288         	10.552         	1.851
MS.289         	10.532         	2.334
MS.290         	10.51          	2.272
MS.291         	10.49          	1.946
MS.292         	10.467         	2.062
MS.293         	10.448         	1.708
MS.294         	10.427         	1.903
MS.295         	10.405         	1.93
MS.296         	10.385         	1.718
MS.297         	10.365         	1.75
MS.298         	10.342         	2.036
MS.299         	10.323         	1.994
MS.300         	10.302         	1.676
MS.301         	10.282         	1.629
MS.302         	10.26          	1.65
MS.303         	10.24          	1.954
MS.304         	10.22          	1.742
MS.305         	10.2           	1.674
MS.306         	10.18          	1.501
MS.307         	10.16          	1.795
MS.308         	10.14          	1.668
MS.309         	10.117         	1.571
MS.310         	10.097         	1.601
MS.311         	10.077         	1.497
MS.312         	10.057         	1.311
MS.313         	10.037         	1.277
MS.314         	10.017         	1.279
MS.315         	9.997          	1.307
MS.316         	9.977          	1.255
MS.317         	9.957          	1.352
MS.318         	9.938          	1.319
MS.319         	9.917          	1.275
MS.320         	9.898          	1.112
MS.321         	9.877          	1.068
MS.322         	9.86           	1.148
MS.323         	9.84           	1.039
MS.324         	9.82           	0.91
MS.325         	9.8            	1.1
MS.326         	9.78           	0.88
MS.327         	9.76           	0.951
MS.328         	9.74           	0.677
MS.329         	9.722          	0.856
MS.330         	9.702          	0.679
MS.331         	9.682          	0.685
MS.332         	9.662          	0.634
MS.333         	9.645          	0.576
MS.334         	9.625          	0.574
MS.335         	9.605          	0.53
MS.336         	9.587          	0.455
MS.337         	9.568          	0.371
MS.338         	9.547          	0.534
MS.339         	9.53           	0.31
MS.340         	9.51           	0.415
MS.341         	9.49           	0.387
MS.342         	9.472          	0.326
MS.343         	9.452          	0.246
MS.344         	9.435          	0.582
MS.345         	9.415          	0.385
MS.346         	9.398          	0.393
MS.347         	9.377          	0.234
MS.348         	9.36           	0.367
MS.349         	9.34           	0.248
MS.350         	9.323          	0.155
MS.351         	9.302          	0.232
MS.352         	9.285          	0.197
MS.353         	9.265          	0.29
MS.354         	9.247          	0.22
MS.355         	9.23           	0.207
MS.356         	9.21           	0.242
MS.357         	9.193          	0.294
MS.358         	9.175          	0.22
MS.359         	9.155          	0.197
MS.360         	9.137          	0.214
MS.361         	9.12           	0.199
MS.362         	9.1            	0.159
MS.363         	9.082          	0.127
MS.364         	9.065          	0.32
MS.365         	9.047          	0.153
MS.366         	9.028          	0.081
MS.367         	9.01           	0.216
MS.368         	8.992          	0.133
MS.369         	8.975          	0.222
MS.370         	8.957          	0.135
MS.371         	8.938          	0.238
MS.372         	8.92           	0.161
MS.373         	8.903          	0.137
MS.374         	8.885          	0.127
MS.375         	8.867          	0.274
MS.376         	8.85           	0.05
MS.377         	8.832          	0.046
MS.378         	8.815          	0.151
MS.379         	8.797          	0.234
MS.380         	8.78           	0.246
MS.381         	8.762          	0.203
MS.382         	8.745          	0.139
MS.383         	8.727          	0.133
MS.384         	8.71           	0.155
MS.385         	8.693          	0.115
MS.386         	8.675          	0.147
MS.387         	8.658          	0.137
MS.388         	8.64           	0.165
MS.389         	8.622          	0.169
MS.390         	8.605          	0.195
MS.391         	8.587          	0.157
MS.392         	8.57           	0.203
MS.393         	8.552          	0.014
MS.394         	8.537          	0.024
MS.395         	8.52           	0.044
MS.396         	8.502          	0.091
MS.397         	8.485          	-0.002
MS.398         	8.467          	0.056
MS.399         	8.452          	0.018
MS.400         	8.435          	0.093
MS.401         	8.417          	0.018
MS.402         	8.4            	0.008
MS.403         	8.385          	0.022
MS.404         	8.367          	0.04
MS.405         	8.35           	-0.008
MS.406         	8.335          	0.018
MS.407         	8.318          	0.012
MS.408         	8.3            	0.036
MS.409         	8.285          	0.002
MS.410         	8.267          	0.054
MS.411         	8.252          	0.079
MS.412         	8.235          	0.036
MS.413         	8.217          	0.038
MS.414         	8.202          	0.036
MS.415         	8.185          	0.042
MS.416         	8.17           	0.093
MS.417         	8.153          	0.004
MS.418         	8.137          	0.054
MS.419         	8.12           	0.016
MS.420         	8.105          	0.006
MS.421         	8.087          	0.062
MS.422         	8.073          	0.097
MS.423         	8.055          	0.068
MS.424         	8.04           	0.062
MS.425         	8.023          	0.073
MS.426         	8.007          	0.07
MS.427         	7.992          	0.07
MS.428         	7.975          	0.073
MS.429         	7.96           	0.075
MS.430         	7.942          	0.066
MS.431         	7.927          	0.062
MS.432         	7.912          	0.07
MS.433         	7.895          	0.073
MS.434         	7.88           	0.079
MS.435         	7.865          	0.058
MS.436         	7.85           	0.101
MS.437         	7.832          	0.083
MS.438         	7.817          	0.07
MS.439         	7.802          	0.077
DERIVED EXCITABILITY VARIABLES
Program = QTracP 3/4/2020
Threshold method = 6 (optimised for CAP, using data for present condition only)
SR method = 1 (using actual data values)
6.                 	0.000               	Peak response\(mV)
9.                 	31.2                	Temperature ( C)
17.                	37                  	Age (years)
18.                	2                   	Sex (M=1, F=2)

EXTRA VARIABLES

MScPeak(mV) = 9.59
MScS5(mA) = 9.51
MScS50(mA) = 11.58
MScS95(mA) = 13.38
MScNSteps = 3
MScSteps(%) = 7.1
MScStepMax(%) = 2.9
MScD50 = 38
MScSlope = 6.13
MSFPeakAmp(mV) = 9.87
MSFNUnits = 87
MSFMeanUnitAmp(uV) = 113.5
MSFHuntTime(m) = 2.03
MSFError(%) = 11.5
MSFNLarge = 23.74
MSFMedianAmp(%) = 0.989
MSFMedianAmp(mV) = 0.0977
MSFHalfAmpAmp(%) = 1.47
MSFHalfAmpAmp(mV) = 0.145
MSFLargestAmp(%) = 3.06
MSFLargestAmp(mV) = 0.302
MSFMeanRS(%) = 1.99
MSFOpts = 10106121
MScDuration(min) = 4
MSFTraces = 339
MSFSizeLimit(uV) = 24.7
MSFLimitType = 1
MSFSmallestAmp(uV) = 25.8

EXTRA WAVEFORMS


!MScan Model
!87
	1	8.57	0.62	2
	2	9.22	1.14	2
	3	9.39	0.95	2
	4	9.47	0.62	2
	5	9.52	0.65	2
	6	9.56	0.52	2
	7	9.6	0.65	2
	8	9.62	0.34	2
	9	9.65	0.45	2
	10	9.66	0.26	2
	11	9.68	0.31	2
	12	9.7	0.34	2
	13	9.71	0.35	2
	14	9.73	0.33	2
	15	9.75	0.29	2
	16	9.76	0.3	2
	17	9.78	0.29	2
	18	9.8	0.33	2
	19	9.81	0.39	2
	20	9.83	0.4	2
	21	9.85	0.4	2
	22	9.87	0.39	2
	23	9.89	0.37	2
	24	9.91	0.45	2
	25	9.94	0.67	2
	26	9.97	0.67	2
	27	10	0.63	2
	28	10.05	0.8	2
	29	10.09	0.73	2
	30	10.18	1.11	1.6
	31	10.33	2.25	2
	32	10.54	2.13	2
	33	10.63	1.63	2
	34	10.71	1.54	2
	35	10.76	0.83	2
	36	10.8	0.85	2
	37	10.84	1.07	2
	38	10.87	0.97	2
	39	10.91	1.01	2
	40	10.95	1.17	2
	41	11.01	1.51	2
	42	11.06	1.47	2
	43	11.11	1.61	2
	44	11.17	1.7	2
	45	11.22	1.47	2
	46	11.27	1.47	2
	47	11.32	1.5	2
	48	11.36	1.51	2
	49	11.39	0.98	2
	50	11.43	0.94	2
	51	11.46	1.04	2
	52	11.49	0.97	2
	53	11.51	0.89	2
	54	11.53	0.99	2
	55	11.56	1.03	2
	56	11.58	0.99	2
	57	11.6	0.8	2
	58	11.62	0.66	2
	59	11.64	0.58	2
	60	11.66	0.63	2
	61	11.68	0.69	2
	62	11.7	0.78	2
	63	11.72	1.04	2
	64	11.75	1.33	2
	65	11.79	1.1	2
	66	11.88	1.9	2
	67	11.94	2.23	2
	68	12.06	2.72	2
	69	12.06	1.06	2
	70	12.22	2.81	2
	71	12.37	2.07	2
	72	12.5	2.39	2
	73	12.63	2.39	2
	74	12.74	2.21	2
	75	12.86	2.52	2
	76	12.98	2.68	2
	77	13.08	2.38	2
	78	13.13	1.01	2
	79	13.18	1.18	2
	80	13.23	1.36	2
	81	13.29	1.35	2
	82	13.35	1.45	2
	83	13.42	1.32	2
	84	13.54	2.69	2
	85	13.74	3.06	2
	86	13.99	1.4	1.6
	87	13.99	0.93	1.6

