File:              	n:\Qtrac\Data\MScan\Normative Controls\CP Nerve\MSCC10616C.QZD
Name:              	QU15N
Protocol:          	MSCAN-R2
Date:              	16/6/21
Start time:        	15:16:56
Age:               	24
Sex:               	F
Temperature:       	30.8
S/R sites:         	Knee CP-TA
NC/disease:        	NC
Operator:          	KJ
Comments:
M-SCAN DATA (Repeat 2/2, 15.6-9.6m)
Scanpts: 87, 106, 625, 647
Stim. (mA)     	Amp. (mV)
MS.1           	15             	7.888
MS.2           	15             	7.896
MS.3           	15             	7.891
MS.4           	15             	7.917
MS.5           	15             	7.899
MS.6           	15             	7.882
MS.7           	15             	7.892
MS.8           	15             	7.889
MS.9           	15             	7.924
MS.10          	15             	7.86
MS.11          	15             	7.865
MS.12          	15             	7.885
MS.13          	15             	7.874
MS.14          	15             	7.866
MS.15          	15             	7.847
MS.16          	15             	7.86
MS.17          	15             	7.867
MS.18          	15             	7.858
MS.19          	15             	7.869
MS.20          	15             	7.852
MS.21          	15             	7.859
MS.22          	15             	7.902
MS.23          	15             	7.864
MS.24          	14.97          	7.9
MS.25          	14.94          	7.844
MS.26          	14.91          	7.852
MS.27          	14.88          	7.853
MS.28          	14.85          	7.848
MS.29          	14.82          	7.866
MS.30          	14.792         	7.809
MS.31          	14.762         	7.839
MS.32          	14.733         	7.833
MS.33          	14.702         	7.86
MS.34          	14.672         	7.786
MS.35          	14.645         	7.861
MS.36          	14.615         	7.845
MS.37          	14.585         	7.827
MS.38          	14.557         	7.842
MS.39          	14.527         	7.82
MS.40          	14.497         	7.82
MS.41          	14.47          	7.822
MS.42          	14.44          	7.863
MS.43          	14.412         	7.825
MS.44          	14.382         	7.794
MS.45          	14.355         	7.823
MS.46          	14.325         	7.821
MS.47          	14.297         	7.817
MS.48          	14.267         	7.839
MS.49          	14.24          	7.816
MS.50          	14.212         	7.808
MS.51          	14.182         	7.798
MS.52          	14.155         	7.784
MS.53          	14.127         	7.826
MS.54          	14.097         	7.828
MS.55          	14.07          	7.805
MS.56          	14.042         	7.788
MS.57          	14.015         	7.812
MS.58          	13.985         	7.821
MS.59          	13.957         	7.844
MS.60          	13.93          	7.831
MS.61          	13.903         	7.793
MS.62          	13.875         	7.812
MS.63          	13.847         	7.793
MS.64          	13.82          	7.795
MS.65          	13.792         	7.804
MS.66          	13.765         	7.811
MS.67          	13.737         	7.845
MS.68          	13.71          	7.809
MS.69          	13.682         	7.789
MS.70          	13.655         	7.82
MS.71          	13.627         	7.806
MS.72          	13.6           	7.794
MS.73          	13.572         	7.836
MS.74          	13.545         	7.812
MS.75          	13.517         	7.845
MS.76          	13.492         	7.834
MS.77          	13.465         	7.821
MS.78          	13.438         	7.812
MS.79          	13.41          	7.798
MS.80          	13.385         	7.82
MS.81          	13.358         	7.803
MS.82          	13.33          	7.742
MS.83          	13.305         	7.811
MS.84          	13.278         	7.787
MS.85          	13.25          	7.797
MS.86          	13.225         	7.795
MS.87          	13.197         	7.781
MS.88          	13.172         	7.794
MS.89          	13.145         	7.811
MS.90          	13.12          	7.803
MS.91          	13.092         	7.803
MS.92          	13.068         	7.789
MS.93          	13.04          	7.809
MS.94          	13.015         	7.778
MS.95          	12.987         	7.798
MS.96          	12.962         	7.784
MS.97          	12.938         	7.783
MS.98          	12.91          	7.804
MS.99          	12.885         	7.81
MS.100         	12.86          	7.782
MS.101         	12.832         	7.803
MS.102         	12.807         	7.761
MS.103         	12.782         	7.795
MS.104         	12.757         	7.771
MS.105         	12.73          	7.798
MS.106         	12.705         	7.792
MS.107         	12.68          	7.739
MS.108         	12.655         	7.738
MS.109         	12.63          	7.77
MS.110         	12.605         	7.781
MS.111         	12.58          	7.726
MS.112         	12.555         	7.792
MS.113         	12.53          	7.789
MS.114         	12.505         	7.793
MS.115         	12.48          	7.786
MS.116         	12.455         	7.77
MS.117         	12.43          	7.762
MS.118         	12.405         	7.782
MS.119         	12.38          	7.683
MS.120         	12.355         	7.744
MS.121         	12.33          	7.76
MS.122         	12.305         	7.723
MS.123         	12.28          	7.755
MS.124         	12.257         	7.772
MS.125         	12.233         	7.761
MS.126         	12.207         	7.742
MS.127         	12.182         	7.787
MS.128         	12.16          	7.773
MS.129         	12.135         	7.736
MS.130         	12.11          	7.771
MS.131         	12.085         	7.769
MS.132         	12.062         	7.739
MS.133         	12.037         	7.778
MS.134         	12.012         	7.751
MS.135         	11.99          	7.731
MS.136         	11.965         	7.755
MS.137         	11.943         	7.762
MS.138         	11.917         	7.695
MS.139         	11.895         	7.731
MS.140         	11.87          	7.711
MS.141         	11.847         	7.725
MS.142         	11.822         	7.729
MS.143         	11.8           	7.683
MS.144         	11.775         	7.734
MS.145         	11.752         	7.703
MS.146         	11.73          	7.743
MS.147         	11.705         	7.662
MS.148         	11.682         	7.731
MS.149         	11.657         	7.656
MS.150         	11.635         	7.681
MS.151         	11.613         	7.556
MS.152         	11.59          	7.656
MS.153         	11.565         	7.708
MS.154         	11.542         	7.651
MS.155         	11.52          	7.665
MS.156         	11.497         	7.583
MS.157         	11.472         	7.699
MS.158         	11.45          	7.61
MS.159         	11.427         	7.643
MS.160         	11.405         	7.662
MS.161         	11.382         	7.682
MS.162         	11.36          	7.643
MS.163         	11.337         	7.726
MS.164         	11.315         	7.671
MS.165         	11.292         	7.634
MS.166         	11.27          	7.689
MS.167         	11.247         	7.642
MS.168         	11.225         	7.656
MS.169         	11.202         	7.742
MS.170         	11.18          	7.657
MS.171         	11.157         	7.648
MS.172         	11.135         	7.601
MS.173         	11.113         	7.577
MS.174         	11.09          	7.478
MS.175         	11.068         	7.559
MS.176         	11.045         	7.521
MS.177         	11.023         	7.537
MS.178         	11.002         	7.517
MS.179         	10.98          	7.548
MS.180         	10.957         	7.551
MS.181         	10.935         	7.544
MS.182         	10.915         	7.552
MS.183         	10.892         	7.557
MS.184         	10.87          	7.57
MS.185         	10.85          	7.578
MS.186         	10.827         	7.521
MS.187         	10.805         	7.506
MS.188         	10.785         	7.451
MS.189         	10.762         	7.445
MS.190         	10.74          	7.433
MS.191         	10.72          	7.512
MS.192         	10.698         	7.526
MS.193         	10.677         	7.445
MS.194         	10.655         	7.474
MS.195         	10.635         	7.466
MS.196         	10.613         	7.484
MS.197         	10.592         	7.445
MS.198         	10.57          	7.452
MS.199         	10.55          	7.495
MS.200         	10.528         	7.377
MS.201         	10.507         	7.417
MS.202         	10.485         	7.443
MS.203         	10.465         	7.421
MS.204         	10.445         	7.437
MS.205         	10.422         	7.537
MS.206         	10.403         	7.399
MS.207         	10.382         	7.393
MS.208         	10.36          	7.363
MS.209         	10.34          	7.438
MS.210         	10.32          	7.273
MS.211         	10.3           	7.292
MS.212         	10.278         	7.402
MS.213         	10.257         	7.297
MS.214         	10.238         	7.36
MS.215         	10.217         	7.314
MS.216         	10.198         	7.366
MS.217         	10.175         	7.408
MS.218         	10.155         	7.3
MS.219         	10.135         	7.335
MS.220         	10.115         	7.416
MS.221         	10.095         	7.404
MS.222         	10.075         	7.283
MS.223         	10.055         	7.382
MS.224         	10.035         	7.323
MS.225         	10.015         	7.295
MS.226         	9.995          	7.198
MS.227         	9.975          	7.222
MS.228         	9.955          	7.261
MS.229         	9.935          	7.113
MS.230         	9.915          	7.15
MS.231         	9.895          	7.137
MS.232         	9.875          	7.139
MS.233         	9.855          	7.183
MS.234         	9.835          	7.085
MS.235         	9.818          	7.065
MS.236         	9.797          	7.104
MS.237         	9.778          	7.114
MS.238         	9.757          	7.04
MS.239         	9.738          	6.927
MS.240         	9.717          	6.936
MS.241         	9.7            	6.963
MS.242         	9.68           	6.954
MS.243         	9.66           	6.936
MS.244         	9.64           	6.934
MS.245         	9.622          	6.899
MS.246         	9.602          	6.907
MS.247         	9.582          	6.931
MS.248         	9.565          	6.879
MS.249         	9.545          	6.865
MS.250         	9.525          	6.833
MS.251         	9.507          	6.805
MS.252         	9.488          	6.782
MS.253         	9.47           	6.77
MS.254         	9.45           	6.851
MS.255         	9.432          	6.814
MS.256         	9.412          	6.79
MS.257         	9.395          	6.771
MS.258         	9.375          	6.825
MS.259         	9.358          	6.862
MS.260         	9.337          	6.802
MS.261         	9.32           	6.726
MS.262         	9.3            	6.719
MS.263         	9.283          	6.619
MS.264         	9.262          	6.689
MS.265         	9.245          	6.669
MS.266         	9.225          	6.608
MS.267         	9.207          	6.691
MS.268         	9.19           	6.625
MS.269         	9.17           	6.489
MS.270         	9.153          	6.564
MS.271         	9.135          	6.61
MS.272         	9.115          	6.5
MS.273         	9.097          	6.528
MS.274         	9.08           	6.538
MS.275         	9.062          	6.49
MS.276         	9.042          	6.486
MS.277         	9.025          	6.433
MS.278         	9.007          	6.438
MS.279         	8.99           	6.487
MS.280         	8.972          	6.368
MS.281         	8.952          	6.403
MS.282         	8.935          	6.241
MS.283         	8.917          	6.249
MS.284         	8.9            	6.333
MS.285         	8.882          	6.345
MS.286         	8.865          	6.322
MS.287         	8.847          	6.312
MS.288         	8.83           	6.189
MS.289         	8.812          	6.049
MS.290         	8.795          	6.276
MS.291         	8.778          	6.219
MS.292         	8.757          	6.085
MS.293         	8.74           	6.16
MS.294         	8.725          	6.077
MS.295         	8.707          	5.994
MS.296         	8.69           	5.892
MS.297         	8.672          	5.881
MS.298         	8.655          	5.892
MS.299         	8.637          	5.968
MS.300         	8.62           	5.962
MS.301         	8.602          	5.758
MS.302         	8.585          	5.835
MS.303         	8.568          	5.615
MS.304         	8.55           	5.859
MS.305         	8.535          	5.807
MS.306         	8.517          	5.717
MS.307         	8.5            	5.776
MS.308         	8.483          	5.712
MS.309         	8.465          	5.533
MS.310         	8.45           	5.737
MS.311         	8.432          	5.464
MS.312         	8.415          	5.529
MS.313         	8.398          	5.421
MS.314         	8.382          	5.348
MS.315         	8.365          	5.219
MS.316         	8.347          	5.385
MS.317         	8.332          	5.454
MS.318         	8.315          	5.457
MS.319         	8.297          	5.481
MS.320         	8.283          	5.242
MS.321         	8.265          	5.188
MS.322         	8.247          	5.126
MS.323         	8.233          	5.195
MS.324         	8.215          	5.056
MS.325         	8.2            	5.231
MS.326         	8.182          	5.234
MS.327         	8.167          	5.217
MS.328         	8.15           	5.131
MS.329         	8.135          	5.034
MS.330         	8.117          	5.076
MS.331         	8.102          	4.811
MS.332         	8.085          	4.868
MS.333         	8.07           	4.879
MS.334         	8.052          	4.83
MS.335         	8.037          	4.902
MS.336         	8.02           	4.851
MS.337         	8.005          	4.839
MS.338         	7.99           	4.767
MS.339         	7.972          	4.731
MS.340         	7.957          	4.681
MS.341         	7.94           	4.62
MS.342         	7.925          	4.685
MS.343         	7.91           	4.563
MS.344         	7.892          	4.493
MS.345         	7.878          	4.576
MS.346         	7.862          	4.451
MS.347         	7.847          	4.44
MS.348         	7.83           	4.519
MS.349         	7.815          	4.598
MS.350         	7.8            	4.343
MS.351         	7.785          	4.427
MS.352         	7.767          	4.315
MS.353         	7.753          	4.226
MS.354         	7.737          	4.269
MS.355         	7.722          	4.337
MS.356         	7.707          	4.259
MS.357         	7.69           	4.242
MS.358         	7.675          	4.197
MS.359         	7.66           	4.236
MS.360         	7.645          	4.154
MS.361         	7.63           	4.174
MS.362         	7.615          	4.17
MS.363         	7.6            	4.257
MS.364         	7.585          	4.121
MS.365         	7.57           	3.901
MS.366         	7.555          	4.144
MS.367         	7.537          	4.139
MS.368         	7.523          	4.13
MS.369         	7.507          	4.117
MS.370         	7.492          	4.075
MS.371         	7.477          	3.978
MS.372         	7.462          	3.997
MS.373         	7.45           	4.043
MS.374         	7.435          	3.999
MS.375         	7.42           	3.873
MS.376         	7.405          	3.806
MS.377         	7.39           	3.854
MS.378         	7.375          	3.774
MS.379         	7.36           	3.713
MS.380         	7.345          	3.76
MS.381         	7.33           	3.728
MS.382         	7.315          	3.635
MS.383         	7.302          	3.761
MS.384         	7.287          	3.518
MS.385         	7.273          	3.689
MS.386         	7.257          	3.549
MS.387         	7.242          	3.511
MS.388         	7.227          	3.547
MS.389         	7.215          	3.407
MS.390         	7.2            	3.442
MS.391         	7.185          	3.429
MS.392         	7.17           	3.417
MS.393         	7.157          	3.452
MS.394         	7.142          	3.268
MS.395         	7.128          	3.258
MS.396         	7.115          	3.162
MS.397         	7.1            	3.184
MS.398         	7.085          	3.207
MS.399         	7.072          	3.182
MS.400         	7.057          	3.185
MS.401         	7.043          	3.184
MS.402         	7.03           	3.063
MS.403         	7.015          	2.975
MS.404         	7              	2.936
MS.405         	6.987          	2.999
MS.406         	6.972          	3.083
MS.407         	6.96           	3.051
MS.408         	6.945          	2.909
MS.409         	6.932          	2.852
MS.410         	6.918          	2.952
MS.411         	6.902          	2.773
MS.412         	6.89           	2.896
MS.413         	6.875          	2.632
MS.414         	6.862          	2.679
MS.415         	6.847          	2.573
MS.416         	6.835          	2.582
MS.417         	6.822          	2.571
MS.418         	6.807          	2.546
MS.419         	6.795          	2.601
MS.420         	6.78           	2.538
MS.421         	6.767          	2.368
MS.422         	6.753          	2.277
MS.423         	6.74           	2.513
MS.424         	6.727          	2.174
MS.425         	6.712          	2.238
MS.426         	6.7            	2.256
MS.427         	6.685          	2.312
MS.428         	6.672          	2.225
MS.429         	6.66           	2.134
MS.430         	6.645          	2.087
MS.431         	6.632          	2.162
MS.432         	6.62           	2.123
MS.433         	6.608          	2.058
MS.434         	6.592          	1.987
MS.435         	6.58           	2.017
MS.436         	6.567          	1.874
MS.437         	6.555          	1.812
MS.438         	6.54           	1.847
MS.439         	6.527          	1.882
MS.440         	6.515          	1.997
MS.441         	6.503          	1.805
MS.442         	6.487          	1.692
MS.443         	6.475          	1.849
MS.444         	6.462          	1.818
MS.445         	6.45           	1.556
MS.446         	6.438          	1.605
MS.447         	6.425          	1.445
MS.448         	6.41           	1.759
MS.449         	6.398          	1.631
MS.450         	6.385          	1.534
MS.451         	6.372          	1.396
MS.452         	6.36           	1.344
MS.453         	6.347          	1.219
MS.454         	6.335          	1.279
MS.455         	6.322          	1.201
MS.456         	6.31           	1.238
MS.457         	6.297          	1.278
MS.458         	6.285          	1.248
MS.459         	6.273          	1.272
MS.460         	6.26           	1.168
MS.461         	6.247          	1.221
MS.462         	6.235          	1.162
MS.463         	6.222          	0.988
MS.464         	6.21           	1.05
MS.465         	6.197          	0.983
MS.466         	6.185          	1.042
MS.467         	6.172          	1.084
MS.468         	6.16           	1.022
MS.469         	6.148          	0.913
MS.470         	6.135          	1.03
MS.471         	6.122          	1.162
MS.472         	6.11           	0.984
MS.473         	6.097          	0.946
MS.474         	6.088          	0.974
MS.475         	6.075          	1.042
MS.476         	6.062          	0.868
MS.477         	6.05           	0.837
MS.478         	6.037          	0.856
MS.479         	6.025          	0.87
MS.480         	6.015          	0.867
MS.481         	6.003          	0.751
MS.482         	5.99           	0.756
MS.483         	5.977          	0.802
MS.484         	5.965          	0.756
MS.485         	5.955          	0.775
MS.486         	5.942          	0.798
MS.487         	5.93           	0.724
MS.488         	5.918          	0.696
MS.489         	5.907          	0.652
MS.490         	5.895          	0.647
MS.491         	5.882          	0.706
MS.492         	5.87           	0.641
MS.493         	5.86           	0.691
MS.494         	5.847          	0.57
MS.495         	5.835          	0.641
MS.496         	5.825          	0.614
MS.497         	5.812          	0.69
MS.498         	5.8            	0.673
MS.499         	5.79           	0.592
MS.500         	5.777          	0.616
MS.501         	5.767          	0.547
MS.502         	5.755          	0.636
MS.503         	5.742          	0.476
MS.504         	5.733          	0.509
MS.505         	5.72           	0.605
MS.506         	5.71           	0.516
MS.507         	5.697          	0.48
MS.508         	5.685          	0.519
MS.509         	5.675          	0.43
MS.510         	5.662          	0.428
MS.511         	5.652          	0.49
MS.512         	5.64           	0.436
MS.513         	5.63           	0.402
MS.514         	5.617          	0.42
MS.515         	5.608          	0.441
MS.516         	5.595          	0.32
MS.517         	5.585          	0.37
MS.518         	5.572          	0.303
MS.519         	5.562          	0.387
MS.520         	5.552          	0.311
MS.521         	5.54           	0.323
MS.522         	5.53           	0.33
MS.523         	5.517          	0.358
MS.524         	5.507          	0.381
MS.525         	5.495          	0.403
MS.526         	5.485          	0.339
MS.527         	5.475          	0.327
MS.528         	5.463          	0.336
MS.529         	5.452          	0.267
MS.530         	5.443          	0.312
MS.531         	5.43           	0.217
MS.532         	5.42           	0.192
MS.533         	5.41           	0.266
MS.534         	5.398          	0.298
MS.535         	5.387          	0.247
MS.536         	5.378          	0.204
MS.537         	5.365          	0.195
MS.538         	5.355          	0.186
MS.539         	5.345          	0.186
MS.540         	5.332          	0.228
MS.541         	5.322          	0.217
MS.542         	5.312          	0.195
MS.543         	5.302          	0.198
MS.544         	5.29           	0.195
MS.545         	5.28           	0.121
MS.546         	5.27           	0.209
MS.547         	5.26           	0.156
MS.548         	5.25           	0.17
MS.549         	5.237          	0.201
MS.550         	5.227          	0.123
MS.551         	5.217          	0.142
MS.552         	5.207          	0.1
MS.553         	5.197          	0.161
MS.554         	5.188          	0.16
MS.555         	5.175          	0.135
MS.556         	5.165          	0.145
MS.557         	5.155          	0.088
MS.558         	5.145          	0.155
MS.559         	5.135          	0.131
MS.560         	5.125          	0.161
MS.561         	5.115          	0.072
MS.562         	5.105          	0.099
MS.563         	5.095          	0.081
MS.564         	5.085          	0.077
MS.565         	5.072          	0.131
MS.566         	5.062          	0.14
MS.567         	5.052          	0.083
MS.568         	5.043          	0.082
MS.569         	5.032          	0.106
MS.570         	5.023          	0.123
MS.571         	5.012          	0.107
MS.572         	5.003          	0.137
MS.573         	4.992          	0.085
MS.574         	4.983          	0.143
MS.575         	4.972          	0.11
MS.576         	4.963          	0.1
MS.577         	4.952          	0.107
MS.578         	4.943          	0.076
MS.579         	4.932          	0.122
MS.580         	4.922          	0.05
MS.581         	4.915          	0.077
MS.582         	4.905          	0.09
MS.583         	4.895          	0.074
MS.584         	4.885          	0.082
MS.585         	4.875          	0.087
MS.586         	4.865          	0.023
MS.587         	4.855          	0.095
MS.588         	4.845          	0.089
MS.589         	4.835          	0.062
MS.590         	4.825          	0.121
MS.591         	4.818          	0.112
MS.592         	4.807          	0.046
MS.593         	4.797          	0.101
MS.594         	4.787          	0.061
MS.595         	4.777          	0.023
MS.596         	4.767          	0.05
MS.597         	4.76           	0.088
MS.598         	4.75           	0.09
MS.599         	4.74           	0.023
MS.600         	4.73           	0.048
MS.601         	4.72           	0.011
MS.602         	4.713          	0.098
MS.603         	4.702          	0.009
MS.604         	4.693          	0.022
MS.605         	4.682          	0.022
MS.606         	4.675          	0.043
MS.607         	4.665          	0.021
MS.608         	4.655          	0.022
MS.609         	4.645          	0.027
MS.610         	4.637          	0.013
MS.611         	4.628          	0.042
MS.612         	4.617          	0.011
MS.613         	4.61           	0.032
MS.614         	4.6            	0.02
MS.615         	4.59           	0.018
MS.616         	4.582          	0.026
MS.617         	4.572          	0.013
MS.618         	4.562          	0.011
MS.619         	4.555          	0.021
MS.620         	4.545          	0.017
MS.621         	4.535          	0.007
MS.622         	4.527          	0.015
MS.623         	4.517          	0.012
MS.624         	4.51           	0.024
MS.625         	4.5            	0.024
MS.626         	4.49           	0.016
MS.627         	4.483          	0.015
MS.628         	4.472          	0.011
MS.629         	4.465          	0.033
MS.630         	4.455          	0.035
MS.631         	4.445          	0.038
MS.632         	4.438          	0.028
MS.633         	4.427          	0.021
MS.634         	4.42           	0.021
MS.635         	4.41           	0.027
MS.636         	4.402          	0.015
MS.637         	4.392          	0.02
MS.638         	4.385          	0.027
MS.639         	4.375          	0.027
MS.640         	4.367          	0.027
MS.641         	4.358          	0.023
MS.642         	4.35           	0.017
MS.643         	4.34           	0.02
MS.644         	4.332          	0.011
MS.645         	4.322          	0.029
MS.646         	4.315          	0.031
MS.647         	4.305          	0.018
DERIVED EXCITABILITY VARIABLES
Program = QTracP 12/2/2021
Threshold method = 6 (optimised for CAP, using data for present condition only)
SR method = 1 (using actual data values)
6.                 	0.000               	Peak response\(mV)
9.                 	30.8                	Temperature ( C)
17.                	24                  	Age (years)
18.                	2                   	Sex (M=1, F=2)

EXTRA VARIABLES

MScPeak(mV) = 7.86
MScS5(mA) = 5.53
MScS50(mA) = 7.52
MScS95(mA) = 10.6
MScNSteps = 0
MScSteps(%) = 0.0
MScStepMax(%) = 0.0
MScD50 = 69
MScSlope = 3.55
MSFPeakAmp(mV) = 7.77
MSFNUnits = 170
MSFMeanUnitAmp(uV) = 45.7
MSFHuntTime(m) = 1.65
MSFError(%) = 2.42
MSFNLarge = 64.59
MSFMedianAmp(%) = 0.571
MSFMedianAmp(mV) = 0.0444
MSFHalfAmpAmp(%) = 0.623
MSFHalfAmpAmp(mV) = 0.0484
MSFLargestAmp(%) = 1.55
MSFLargestAmp(mV) = 0.12
MSFMeanRS(%) = 2
MSFOpts = 10106022032
MSFTraces = 561
MSFSizeLimit(uV) = 25.9
MSFLimitType = 1
MSFSmallestAmp(uV) = 26.1
MSFSDMax = 13.5
MSFSDMin = 7.42

EXTRA WAVEFORMS


!MScan Model
!170
	1	4.74	0.84	2
	2	5.2	0.69	2
	3	5.28	0.37	2
	4	5.34	0.41	2
	5	5.38	0.45	2
	6	5.43	0.38	2
	7	5.5	0.61	2
	8	5.56	0.59	2
	9	5.6	0.58	2
	10	5.65	0.45	2
	11	5.67	0.35	2
	12	5.69	0.35	2
	13	5.72	0.42	2
	14	5.76	0.43	2
	15	5.8	0.59	2
	16	5.85	0.58	2
	17	5.89	0.47	2
	18	5.92	0.67	2
	19	5.97	0.66	2
	20	6	0.51	2
	21	6.03	0.45	2
	22	6.06	0.62	2
	23	6.11	0.71	2
	24	6.15	0.84	2
	25	6.2	0.85	2
	26	6.24	0.73	2
	27	6.27	0.59	2
	28	6.3	0.65	2
	29	6.32	0.76	2
	30	6.34	0.62	2
	31	6.36	0.71	2
	32	6.38	0.7	2
	33	6.4	0.61	2
	34	6.42	0.7	2
	35	6.44	0.75	2
	36	6.46	0.77	2
	37	6.48	0.73	2
	38	6.5	0.72	2
	39	6.52	0.76	2
	40	6.55	0.67	2
	41	6.57	0.67	2
	42	6.59	0.67	2
	43	6.61	0.61	2
	44	6.63	0.45	2
	45	6.65	0.68	2
	46	6.66	0.39	2
	47	6.68	0.41	2
	48	6.69	0.42	2
	49	6.7	0.47	2
	50	6.72	0.49	2
	51	6.73	0.48	2
	52	6.74	0.46	2
	53	6.76	0.45	2
	54	6.77	0.45	2
	55	6.79	0.47	2
	56	6.8	0.52	2
	57	6.81	0.53	2
	58	6.83	0.53	2
	59	6.84	0.54	2
	60	6.86	0.49	2
	61	6.87	0.43	2
	62	6.89	0.52	2
	63	6.9	0.46	2
	64	6.92	0.43	2
	65	6.93	0.4	2
	66	6.95	0.37	2
	67	6.96	0.44	2
	68	6.98	0.56	2
	69	7	0.63	2
	70	7.02	0.57	2
	71	7.03	0.45	2
	72	7.05	0.38	2
	73	7.06	0.39	2
	74	7.07	0.38	2
	75	7.09	0.37	2
	76	7.11	0.62	2
	77	7.13	0.52	2
	78	7.15	0.57	2
	79	7.18	0.74	2
	80	7.21	0.69	2
	81	7.23	0.51	2
	82	7.25	0.61	2
	83	7.26	0.36	2
	84	7.28	0.39	2
	85	7.29	0.39	2
	86	7.3	0.37	2
	87	7.32	0.63	2
	88	7.35	0.82	2
	89	7.37	0.68	2
	90	7.41	0.76	2
	91	7.44	0.54	2
	92	7.46	0.5	2
	93	7.5	0.84	2
	94	7.55	0.72	2
	95	7.62	1.18	2
	96	7.67	0.48	2
	97	7.7	0.73	2
	98	7.73	0.44	2
	99	7.75	0.5	2
	100	7.77	0.37	2
	101	7.8	0.49	2
	102	7.83	0.61	2
	103	7.86	0.72	2
	104	7.88	0.4	2
	105	7.9	0.37	2
	106	7.92	0.39	2
	107	7.94	0.63	2
	108	7.97	0.62	2
	109	7.98	0.35	2
	110	7.99	0.52	2
	111	8.02	0.58	2
	112	8.03	0.43	2
	113	8.05	0.38	2
	114	8.07	0.34	2
	115	8.09	0.43	2
	116	8.11	0.52	2
	117	8.13	0.59	2
	118	8.15	0.6	2
	119	8.18	0.66	2
	120	8.22	0.75	2
	121	8.26	0.78	2
	122	8.3	1.22	2
	123	8.34	0.94	2
	124	8.38	0.66	2
	125	8.42	0.78	2
	126	8.45	0.91	2
	127	8.49	0.86	2
	128	8.53	0.69	2
	129	8.55	0.77	2
	130	8.58	0.69	2
	131	8.62	0.78	2
	132	8.65	0.79	2
	133	8.68	0.68	2
	134	8.71	0.45	2
	135	8.74	0.42	2
	136	8.77	0.62	2
	137	8.8	0.57	2
	138	8.82	0.5	2
	139	8.85	0.54	2
	140	8.89	0.8	2
	141	8.93	0.65	2
	142	8.96	0.47	2
	143	8.99	0.43	2
	144	9.02	0.56	2
	145	9.1	0.69	2
	146	9.15	0.67	2
	147	9.17	0.38	2
	148	9.23	0.74	2
	149	9.31	0.77	2
	150	9.36	0.55	2
	151	9.4	0.43	2
	152	9.45	0.45	2
	153	9.5	0.34	2
	154	9.56	0.42	2
	155	9.63	0.72	2
	156	9.66	0.35	2
	157	9.74	1.21	2
	158	9.82	0.56	2
	159	9.85	0.34	2
	160	9.87	0.34	2
	161	9.91	0.49	2
	162	9.95	0.44	2
	163	10.03	0.65	2
	164	10.31	1.55	2
	165	10.59	0.96	2
	166	10.78	0.71	2
	167	11.02	0.84	2
	168	11.19	0.6	2
	169	11.74	1.05	2
	170	12.22	0.58	2

