File:              	C:\Qtrac\Data\Daniel M Sørensen\MScan multicentre study\Data from centres\Oslo\IronKey\Oslo_NC_first examination\SZC00618E.QZD
Name:              	NO.OSL.NC.20.1
Protocol:          	MSCAN-R2
Date:              	18/6/20
Start time:        	11:14:11
Age:               	59
Sex:               	M
Temperature:       	34.5
S/R sites:         	Ulnar Wr-ADM
NC/disease:        	NC20
Operator:          	SZ
Comments:          	T1 initially muscleart
M-SCAN DATA (9.2-4.5m)
Scanpts: 2, 8, 469, 476
Stim. (mA)     	Amp. (mV)
MS.1           	16.5           	11.567
MS.2           	16.5           	11.608
MS.3           	16.5           	11.547
MS.4           	16.5           	11.622
MS.5           	16.5           	11.63
MS.6           	16.5           	11.67
MS.7           	16.5           	11.549
MS.8           	16.5           	11.604
MS.9           	16.5           	11.543
MS.10          	16.5           	11.628
MS.11          	16.5           	11.664
MS.12          	16.5           	11.543
MS.13          	16.5           	11.563
MS.14          	16.5           	11.763
MS.15          	16.5           	11.73
MS.16          	16.5           	11.716
MS.17          	16.5           	11.773
MS.18          	16.5           	11.759
MS.19          	16.5           	11.797
MS.20          	16.5           	11.747
MS.21          	16.5           	11.845
MS.22          	16.5           	11.569
MS.23          	16.5           	11.662
MS.24          	16.435         	11.674
MS.25          	16.4           	11.43
MS.26          	16.368         	11.493
MS.27          	16.335         	11.753
MS.28          	16.302         	11.708
MS.29          	16.27          	11.668
MS.30          	16.237         	11.589
MS.31          	16.205         	11.612
MS.32          	16.172         	11.533
MS.33          	16.14          	11.412
MS.34          	16.108         	11.513
MS.35          	16.077         	11.432
MS.36          	16.045         	11.628
MS.37          	16.012         	11.326
MS.38          	15.98          	11.354
MS.39          	15.947         	11.412
MS.40          	15.917         	11.519
MS.41          	15.885         	11.459
MS.42          	15.852         	11.493
MS.43          	15.822         	11.348
MS.44          	15.79          	11.316
MS.45          	15.757         	11.257
MS.46          	15.727         	11.219
MS.47          	15.695         	11.267
MS.48          	15.665         	11.068
MS.49          	15.632         	11.312
MS.50          	15.602         	11.281
MS.51          	15.57          	11.171
MS.52          	15.54          	11.201
MS.53          	15.507         	11.148
MS.54          	15.477         	11.239
MS.55          	15.445         	11.148
MS.56          	15.415         	11.098
MS.57          	15.385         	11.009
MS.58          	15.352         	11.142
MS.59          	15.322         	11.011
MS.60          	15.292         	11.017
MS.61          	15.262         	11.068
MS.62          	15.233         	10.981
MS.63          	15.2           	10.905
MS.64          	15.17          	11.14
MS.65          	15.14          	11.12
MS.66          	15.11          	10.883
MS.67          	15.08          	10.85
MS.68          	15.05          	11.054
MS.69          	15.02          	11.026
MS.70          	14.99          	10.776
MS.71          	14.96          	10.599
MS.72          	14.93          	10.631
MS.73          	14.9           	10.693
MS.74          	14.87          	10.697
MS.75          	14.84          	10.572
MS.76          	14.81          	10.806
MS.77          	14.78          	10.895
MS.78          	14.752         	10.504
MS.79          	14.722         	10.695
MS.80          	14.693         	10.584
MS.81          	14.662         	10.607
MS.82          	14.635         	10.605
MS.83          	14.605         	10.415
MS.84          	14.575         	10.812
MS.85          	14.547         	10.607
MS.86          	14.517         	10.603
MS.87          	14.487         	10.286
MS.88          	14.46          	10.524
MS.89          	14.43          	10.202
MS.90          	14.403         	10.393
MS.91          	14.372         	10.437
MS.92          	14.345         	9.912
MS.93          	14.315         	10.127
MS.94          	14.287         	10.355
MS.95          	14.257         	10.234
MS.96          	14.23          	10.026
MS.97          	14.202         	10.264
MS.98          	14.172         	9.94
MS.99          	14.145         	10.184
MS.100         	14.117         	9.807
MS.101         	14.087         	10.051
MS.102         	14.06          	9.579
MS.103         	14.032         	9.745
MS.104         	14.005         	10.008
MS.105         	13.975         	9.773
MS.106         	13.947         	9.763
MS.107         	13.92          	9.559
MS.108         	13.892         	9.747
MS.109         	13.865         	9.698
MS.110         	13.837         	9.62
MS.111         	13.81          	9.215
MS.112         	13.782         	9.471
MS.113         	13.755         	9.122
MS.114         	13.727         	9.348
MS.115         	13.7           	9.056
MS.116         	13.672         	8.951
MS.117         	13.645         	8.852
MS.118         	13.617         	8.842
MS.119         	13.59          	8.899
MS.120         	13.562         	8.594
MS.121         	13.535         	8.76
MS.122         	13.51          	8.327
MS.123         	13.483         	8.886
MS.124         	13.455         	8.089
MS.125         	13.427         	8.526
MS.126         	13.403         	7.738
MS.127         	13.375         	8.188
MS.128         	13.347         	7.873
MS.129         	13.32          	7.932
MS.130         	13.295         	7.771
MS.131         	13.267         	7.438
MS.132         	13.242         	7.376
MS.133         	13.215         	7.678
MS.134         	13.188         	7.716
MS.135         	13.162         	7.334
MS.136         	13.135         	7.464
MS.137         	13.11          	7.352
MS.138         	13.082         	7.285
MS.139         	13.057         	7.082
MS.140         	13.032         	6.872
MS.141         	13.005         	6.641
MS.142         	12.98          	6.953
MS.143         	12.952         	6.615
MS.144         	12.927         	6.741
MS.145         	12.903         	7.046
MS.146         	12.875         	6.387
MS.147         	12.85          	6.8
MS.148         	12.825         	6.498
MS.149         	12.8           	6.894
MS.150         	12.773         	6.351
MS.151         	12.747         	6.627
MS.152         	12.722         	6.216
MS.153         	12.697         	6.617
MS.154         	12.672         	6.576
MS.155         	12.645         	6.516
MS.156         	12.62          	6.469
MS.157         	12.595         	6.27
MS.158         	12.57          	6.381
MS.159         	12.545         	6.071
MS.160         	12.52          	6.133
MS.161         	12.495         	5.918
MS.162         	12.47          	6.026
MS.163         	12.445         	5.827
MS.164         	12.42          	5.801
MS.165         	12.395         	5.877
MS.166         	12.37          	5.696
MS.167         	12.347         	5.557
MS.168         	12.322         	5.644
MS.169         	12.297         	5.601
MS.170         	12.273         	5.382
MS.171         	12.247         	5.589
MS.172         	12.222         	5.503
MS.173         	12.2           	5.626
MS.174         	12.175         	5.575
MS.175         	12.15          	5.533
MS.176         	12.125         	5.501
MS.177         	12.102         	5.452
MS.178         	12.077         	5.221
MS.179         	12.052         	5.277
MS.180         	12.03          	5.271
MS.181         	12.005         	5.182
MS.182         	11.983         	5.094
MS.183         	11.957         	4.959
MS.184         	11.932         	5.255
MS.185         	11.91          	4.796
MS.186         	11.885         	4.655
MS.187         	11.863         	4.717
MS.188         	11.837         	4.5
MS.189         	11.815         	4.58
MS.190         	11.79          	4.498
MS.191         	11.767         	4.528
MS.192         	11.745         	4.689
MS.193         	11.72          	4.57
MS.194         	11.697         	4.292
MS.195         	11.675         	4.198
MS.196         	11.65          	4.31
MS.197         	11.627         	4.081
MS.198         	11.605         	4.258
MS.199         	11.58          	4.083
MS.200         	11.557         	3.867
MS.201         	11.535         	3.972
MS.202         	11.512         	4.097
MS.203         	11.488         	3.893
MS.204         	11.465         	3.797
MS.205         	11.443         	3.712
MS.206         	11.42          	3.571
MS.207         	11.398         	3.863
MS.208         	11.375         	3.499
MS.209         	11.352         	3.484
MS.210         	11.33          	3.464
MS.211         	11.307         	3.712
MS.212         	11.282         	3.372
MS.213         	11.26          	3.529
MS.214         	11.238         	3.42
MS.215         	11.215         	2.981
MS.216         	11.195         	3.484
MS.217         	11.172         	3.493
MS.218         	11.15          	3.333
MS.219         	11.127         	2.689
MS.220         	11.105         	3.106
MS.221         	11.082         	3.253
MS.222         	11.06          	3.396
MS.223         	11.037         	2.898
MS.224         	11.015         	2.973
MS.225         	10.995         	2.842
MS.226         	10.972         	2.904
MS.227         	10.95          	2.753
MS.228         	10.927         	2.84
MS.229         	10.907         	2.479
MS.230         	10.885         	2.508
MS.231         	10.863         	2.224
MS.232         	10.84          	2.199
MS.233         	10.82          	2.717
MS.234         	10.797         	2.314
MS.235         	10.778         	2.173
MS.236         	10.755         	2.471
MS.237         	10.733         	2.103
MS.238         	10.712         	2.105
MS.239         	10.69          	2.179
MS.240         	10.67          	1.98
MS.241         	10.648         	2.163
MS.242         	10.627         	2.159
MS.243         	10.605         	1.95
MS.244         	10.585         	1.911
MS.245         	10.562         	1.915
MS.246         	10.542         	1.915
MS.247         	10.52          	1.96
MS.248         	10.5           	1.66
MS.249         	10.48          	1.797
MS.250         	10.457         	1.692
MS.251         	10.438         	1.621
MS.252         	10.415         	1.801
MS.253         	10.395         	1.726
MS.254         	10.375         	1.726
MS.255         	10.355         	1.65
MS.256         	10.332         	1.706
MS.257         	10.312         	1.581
MS.258         	10.292         	1.531
MS.259         	10.273         	1.492
MS.260         	10.25          	1.638
MS.261         	10.23          	1.503
MS.262         	10.21          	1.539
MS.263         	10.19          	1.364
MS.264         	10.17          	1.418
MS.265         	10.15          	1.476
MS.266         	10.127         	1.45
MS.267         	10.108         	1.392
MS.268         	10.087         	1.372
MS.269         	10.068         	1.349
MS.270         	10.047         	1.354
MS.271         	10.028         	1.337
MS.272         	10.007         	1.237
MS.273         	9.988          	1.213
MS.274         	9.967          	1.18
MS.275         	9.948          	1.269
MS.276         	9.927          	1.271
MS.277         	9.907          	1.215
MS.278         	9.887          	1.041
MS.279         	9.867          	1.128
MS.280         	9.85           	1.18
MS.281         	9.83           	1.023
MS.282         	9.81           	1.14
MS.283         	9.79           	1.136
MS.284         	9.77           	1.086
MS.285         	9.75           	1.059
MS.286         	9.733          	0.89
MS.287         	9.712          	0.88
MS.288         	9.693          	0.983
MS.289         	9.672          	0.912
MS.290         	9.655          	0.929
MS.291         	9.635          	0.995
MS.292         	9.615          	0.816
MS.293         	9.595          	0.715
MS.294         	9.577          	0.878
MS.295         	9.557          	0.792
MS.296         	9.537          	0.634
MS.297         	9.52           	0.711
MS.298         	9.5            	0.707
MS.299         	9.483          	0.929
MS.300         	9.462          	0.578
MS.301         	9.445          	0.784
MS.302         	9.425          	0.788
MS.303         	9.405          	0.636
MS.304         	9.387          	0.574
MS.305         	9.367          	0.588
MS.306         	9.35           	0.504
MS.307         	9.33           	0.673
MS.308         	9.312          	0.526
MS.309         	9.295          	0.63
MS.310         	9.275          	0.427
MS.311         	9.257          	0.667
MS.312         	9.238          	0.536
MS.313         	9.22           	0.439
MS.314         	9.202          	0.564
MS.315         	9.182          	0.616
MS.316         	9.165          	0.429
MS.317         	9.148          	0.582
MS.318         	9.127          	0.437
MS.319         	9.11           	0.413
MS.320         	9.092          	0.411
MS.321         	9.073          	0.417
MS.322         	9.055          	0.433
MS.323         	9.037          	0.379
MS.324         	9.02           	0.377
MS.325         	9              	0.409
MS.326         	8.983          	0.389
MS.327         	8.965          	0.395
MS.328         	8.948          	0.359
MS.329         	8.93           	0.371
MS.330         	8.912          	0.383
MS.331         	8.895          	0.264
MS.332         	8.875          	0.344
MS.333         	8.858          	0.324
MS.334         	8.84           	0.342
MS.335         	8.823          	0.318
MS.336         	8.805          	0.32
MS.337         	8.787          	0.29
MS.338         	8.77           	0.302
MS.339         	8.752          	0.34
MS.340         	8.735          	0.278
MS.341         	8.717          	0.302
MS.342         	8.7            	0.284
MS.343         	8.682          	0.272
MS.344         	8.665          	0.236
MS.345         	8.648          	0.252
MS.346         	8.63           	0.228
MS.347         	8.613          	0.236
MS.348         	8.597          	0.187
MS.349         	8.58           	0.238
MS.350         	8.562          	0.216
MS.351         	8.545          	0.189
MS.352         	8.528          	0.207
MS.353         	8.51           	0.185
MS.354         	8.495          	0.185
MS.355         	8.477          	0.167
MS.356         	8.46           	0.191
MS.357         	8.443          	0.195
MS.358         	8.427          	0.177
MS.359         	8.41           	0.171
MS.360         	8.392          	0.189
MS.361         	8.375          	0.207
MS.362         	8.36           	0.173
MS.363         	8.342          	0.169
MS.364         	8.325          	0.177
MS.365         	8.31           	0.169
MS.366         	8.292          	0.161
MS.367         	8.275          	0.181
MS.368         	8.26           	0.165
MS.369         	8.242          	0.163
MS.370         	8.227          	0.177
MS.371         	8.21           	0.175
MS.372         	8.193          	0.177
MS.373         	8.177          	0.169
MS.374         	8.16           	0.163
MS.375         	8.145          	0.161
MS.376         	8.127          	0.121
MS.377         	8.113          	0.159
MS.378         	8.095          	0.145
MS.379         	8.08           	0.165
MS.380         	8.062          	0.143
MS.381         	8.047          	0.159
MS.382         	8.033          	0.139
MS.383         	8.015          	0.137
MS.384         	8              	0.131
MS.385         	7.982          	0.147
MS.386         	7.967          	0.143
MS.387         	7.952          	0.151
MS.388         	7.935          	0.081
MS.389         	7.92           	0.095
MS.390         	7.905          	0.113
MS.391         	7.887          	0.141
MS.392         	7.872          	0.077
MS.393         	7.857          	0.085
MS.394         	7.84           	0.081
MS.395         	7.825          	0.083
MS.396         	7.81           	0.07
MS.397         	7.795          	0.109
MS.398         	7.777          	0.111
MS.399         	7.762          	0.089
MS.400         	7.747          	0.087
MS.401         	7.732          	0.077
MS.402         	7.717          	0.066
MS.403         	7.7            	0.073
MS.404         	7.685          	0.073
MS.405         	7.67           	0.073
MS.406         	7.655          	0.127
MS.407         	7.64           	0.127
MS.408         	7.625          	0.089
MS.409         	7.61           	0.05
MS.410         	7.595          	0.087
MS.411         	7.58           	0.068
MS.412         	7.562          	0.062
MS.413         	7.547          	0.042
MS.414         	7.532          	0.062
MS.415         	7.517          	0.081
MS.416         	7.503          	0.062
MS.417         	7.487          	0.06
MS.418         	7.472          	0.054
MS.419         	7.457          	0.068
MS.420         	7.442          	0.079
MS.421         	7.427          	0.079
MS.422         	7.415          	0.066
MS.423         	7.4            	0.073
MS.424         	7.385          	0.068
MS.425         	7.37           	0.054
MS.426         	7.355          	0.07
MS.427         	7.34           	0.048
MS.428         	7.325          	0.062
MS.429         	7.31           	0.056
MS.430         	7.295          	0.064
MS.431         	7.282          	0.073
MS.432         	7.267          	0.05
MS.433         	7.253          	0.034
MS.434         	7.237          	0.066
MS.435         	7.222          	0.05
MS.436         	7.21           	0.05
MS.437         	7.195          	0.044
MS.438         	7.18           	0.032
MS.439         	7.165          	0.042
MS.440         	7.152          	0.042
MS.441         	7.137          	0.038
MS.442         	7.122          	0.03
MS.443         	7.11           	0.056
MS.444         	7.095          	0.034
MS.445         	7.08           	0.054
MS.446         	7.067          	0.032
MS.447         	7.052          	0.036
MS.448         	7.037          	0.034
MS.449         	7.025          	0.034
MS.450         	7.01           	0.032
MS.451         	6.995          	0.042
MS.452         	6.983          	0.032
MS.453         	6.967          	0.036
MS.454         	6.955          	0.034
MS.455         	6.94           	0.03
MS.456         	6.927          	0.04
MS.457         	6.912          	0.032
MS.458         	6.9            	0.042
MS.459         	6.885          	0.038
MS.460         	6.872          	0.04
MS.461         	6.858          	0.04
MS.462         	6.845          	0.042
MS.463         	6.83           	0.042
MS.464         	6.817          	0.038
MS.465         	6.802          	0.046
MS.466         	6.79           	0.042
MS.467         	6.775          	0.04
MS.468         	6.762          	0.042
MS.469         	6.747          	0.036
MS.470         	6.735          	0.04
MS.471         	6.722          	0.04
MS.472         	6.707          	0.04
MS.473         	6.695          	0.036
MS.474         	6.682          	0.036
MS.475         	6.668          	0.036
MS.476         	6.655          	0.044
MS.477         	6.642          	0.038
MS.478         	6.628          	0.038
MS.479         	6.615          	0.042
MS.480         	6.602          	0.036
MS.481         	6.587          	0.038
MS.482         	6.575          	0.036
MS.483         	6.562          	0.04
MS.484         	6.55           	0.038
MS.485         	6.535          	0.04
MS.486         	6.523          	0.04
MS.487         	6.51           	0.036
MS.488         	6.497          	0.038
MS.489         	6.485          	0.04
MS.490         	6.47           	0.042
MS.491         	6.457          	0.04
MS.492         	6.445          	0.044
MS.493         	6.432          	0.044
MS.494         	6.42           	0.034
MS.495         	6.407          	0.026
MS.496         	6.395          	0.032
MS.497         	6.38           	0.038
MS.498         	6.367          	0.044
MS.499         	6.355          	0.03
MS.500         	6.342          	0.038
MS.501         	6.33           	0.036
MS.502         	6.317          	0.036
MS.503         	6.305          	0.028
MS.504         	6.293          	0.032
MS.505         	6.28           	0.036
MS.506         	6.267          	0.02
MS.507         	6.255          	0.04
MS.508         	6.242          	0.02
MS.509         	6.23           	0.022
MS.510         	6.217          	0.02
MS.511         	6.205          	0.022
MS.512         	6.192          	0.024
MS.513         	6.18           	0.028
MS.514         	6.168          	0.024
MS.515         	6.155          	0.03
MS.516         	6.142          	0.02
MS.517         	6.13           	0.03
MS.518         	6.117          	0.024
MS.519         	6.108          	0.024
MS.520         	6.095          	0.024
MS.521         	6.082          	0.02
DERIVED EXCITABILITY VARIABLES
Program = QTracP 3/4/2020
Threshold method = 6 (optimised for CAP, using data for present condition only)
SR method = 1 (using actual data values)
6.                 	0.000               	Peak response\(mV)
9.                 	34.5                	Temperature ( C)
17.                	59                  	Age (years)
18.                	1                   	Sex (M=1, F=2)

EXTRA VARIABLES

MScPeak(mV) = 11.63
MScS5(mA) = 9.3
MScS50(mA) = 12.41
MScS95(mA) = 15.23
MScNSteps = 0
MScSteps(%) = 0.0
MScStepMax(%) = 0.0
MScD50 = 55
MScSlope = 5.05
MSFPeakAmp(mV) = 11.6
MSFNUnits = 126
MSFMeanUnitAmp(uV) = 91.8
MSFHuntTime(m) = 2.96
MSFError(%) = 4.08
MSFNLarge = 41.3
MSFMedianAmp(%) = 0.753
MSFMedianAmp(mV) = 0.0871
MSFHalfAmpAmp(%) = 0.969
MSFHalfAmpAmp(mV) = 0.112
MSFLargestAmp(%) = 1.61
MSFLargestAmp(mV) = 0.186
MSFMeanRS(%) = 2
MSFOpts = 10106121
MScDuration(min) = 4.7
MSFTraces = 475
MSFSizeLimit(uV) = 28.9
MSFLimitType = 1
MSFSmallestAmp(uV) = 29.5

EXTRA WAVEFORMS


!MScan Model
!126
	1	7.26	0.38	2
	2	7.88	0.26	2
	3	8.15	0.38	2
	4	8.38	0.26	2
	5	8.52	0.29	2
	6	8.64	0.3	2
	7	8.74	0.3	2
	8	8.88	0.5	2
	9	8.98	0.47	2
	10	9.1	0.52	2
	11	9.24	0.75	2
	12	9.36	0.79	2
	13	9.46	0.74	2
	14	9.54	0.62	2
	15	9.6	0.57	2
	16	9.66	0.49	2
	17	9.71	0.44	2
	18	9.76	0.45	2
	19	9.8	0.39	2
	20	9.84	0.32	2
	21	9.87	0.32	2
	22	9.9	0.32	2
	23	9.94	0.32	2
	24	9.97	0.31	2
	25	10	0.31	2
	26	10.04	0.31	2
	27	10.07	0.31	2
	28	10.11	0.34	2
	29	10.15	0.34	2
	30	10.19	0.36	2
	31	10.22	0.35	2
	32	10.26	0.36	2
	33	10.29	0.42	2
	34	10.34	0.45	2
	35	10.38	0.46	2
	36	10.44	0.72	2
	37	10.51	0.78	2
	38	10.56	0.76	2
	39	10.62	0.83	2
	40	10.67	0.87	2
	41	10.73	1.03	2
	42	10.79	1.02	2
	43	10.85	0.64	2
	44	10.85	0.43	2
	45	10.91	0.86	2
	46	10.97	1.38	2
	47	11.03	1.17	2
	48	11.1	1.22	2
	49	11.16	1.15	2
	50	11.22	1.16	2
	51	11.28	1.17	2
	52	11.34	1.14	2
	53	11.4	1.1	2
	54	11.45	0.97	2
	55	11.49	0.65	2
	56	11.52	0.69	2
	57	11.56	0.69	2
	58	11.59	0.61	2
	59	11.62	0.51	2
	60	11.64	0.52	2
	61	11.67	0.53	2
	62	11.7	0.53	2
	63	11.72	0.54	2
	64	11.75	0.52	2
	65	11.77	0.54	2
	66	11.8	0.52	2
	67	11.82	0.54	2
	68	11.86	0.59	2
	69	11.89	0.57	2
	70	11.92	0.56	2
	71	11.95	0.59	2
	72	11.99	0.67	2
	73	12.02	0.64	2
	74	12.06	0.66	2
	75	12.1	0.84	2
	76	12.18	0.54	2
	77	12.23	1.06	2
	78	12.28	0.9	2
	79	12.33	0.91	2
	80	12.38	0.88	2
	81	12.45	1.07	2
	82	12.52	1.09	2
	83	12.6	1.06	2
	84	12.62	0.7	2.4
	85	12.67	1.17	2
	86	12.74	1.25	2
	87	12.81	1.36	2
	88	12.88	1.28	2
	89	12.94	1.31	2
	90	13.01	1.33	2
	91	13.07	1.18	2
	92	13.12	1.01	2
	93	13.16	1.05	2
	94	13.2	0.87	2
	95	13.24	0.89	2
	96	13.28	0.98	2
	97	13.3	1.28	2
	98	13.31	0.91	2
	99	13.35	0.87	2
	100	13.38	0.87	2
	101	13.41	0.88	2
	102	13.45	0.92	2
	103	13.49	0.93	2
	104	13.52	0.94	2
	105	13.56	1.04	2
	106	13.59	0.68	2
	107	13.64	0.97	2
	108	13.68	0.97	2
	109	13.73	1.21	2
	110	13.79	1.4	2
	111	13.92	1.08	2
	112	13.97	1.02	2
	113	14.07	1.54	2
	114	14.16	1.52	2
	115	14.29	1.61	2
	116	14.44	1.4	2
	117	14.61	1.6	2
	118	14.82	1.59	2
	119	15.02	1.39	2
	120	15.18	0.91	2
	121	15.36	0.99	2
	122	15.51	0.82	2
	123	15.64	0.68	2
	124	15.76	0.61	2
	125	15.93	0.69	2
	126	16.24	1.37	2

