File:              	C:\Qtrac\Data\Daniel M Sørensen\MScan multicentre study\Data from centres\Oslo\IronKey\Oslo_NC_first examination\SZC00429E.QZD
Name:              	NO.OSL.NC.3.1
Protocol:          	MSCAN-R2
Date:              	29/4/20
Start time:        	12:35:49
Age:               	37
Sex:               	M
Temperature:       	33.7
S/R sites:         	Median Wr-APB
NC/disease:        	NC3
Operator:          	SZ
Comments:          	Test1
M-SCAN DATA (6.9-2.5m)
Scanpts: 29, 33, 464, 486
Stim. (mA)     	Amp. (mV)
MS.1           	12.5           	10.699
MS.2           	12.5           	10.695
MS.3           	12.5           	10.707
MS.4           	12.5           	10.691
MS.5           	12.5           	10.703
MS.6           	12.5           	10.695
MS.7           	12.5           	10.703
MS.8           	12.5           	10.709
MS.9           	12.5           	10.687
MS.10          	12.5           	10.683
MS.11          	12.5           	10.677
MS.12          	12.5           	10.681
MS.13          	12.5           	10.669
MS.14          	12.5           	10.677
MS.15          	12.5           	10.669
MS.16          	12.5           	10.663
MS.17          	12.5           	10.627
MS.18          	12.5           	10.625
MS.19          	12.5           	10.627
MS.20          	12.5           	10.649
MS.21          	12.5           	10.631
MS.22          	12.5           	10.633
MS.23          	12.5           	10.659
MS.24          	12.45          	10.659
MS.25          	12.425         	10.635
MS.26          	12.4           	10.655
MS.27          	12.375         	10.659
MS.28          	12.35          	10.665
MS.29          	12.325         	10.711
MS.30          	12.302         	10.711
MS.31          	12.278         	10.727
MS.32          	12.252         	10.721
MS.33          	12.227         	10.725
MS.34          	12.202         	10.725
MS.35          	12.18          	10.701
MS.36          	12.155         	10.701
MS.37          	12.13          	10.697
MS.38          	12.108         	10.695
MS.39          	12.082         	10.703
MS.40          	12.057         	10.713
MS.41          	12.035         	10.705
MS.42          	12.01          	10.701
MS.43          	11.985         	10.713
MS.44          	11.962         	10.701
MS.45          	11.938         	10.699
MS.46          	11.915         	10.689
MS.47          	11.89          	10.695
MS.48          	11.867         	10.701
MS.49          	11.842         	10.683
MS.50          	11.82          	10.699
MS.51          	11.795         	10.695
MS.52          	11.773         	10.703
MS.53          	11.747         	10.691
MS.54          	11.725         	10.683
MS.55          	11.702         	10.701
MS.56          	11.677         	10.601
MS.57          	11.655         	10.582
MS.58          	11.632         	10.592
MS.59          	11.608         	10.588
MS.60          	11.585         	10.576
MS.61          	11.562         	10.574
MS.62          	11.54          	10.574
MS.63          	11.515         	10.57
MS.64          	11.492         	10.566
MS.65          	11.47          	10.572
MS.66          	11.447         	10.566
MS.67          	11.425         	10.669
MS.68          	11.403         	10.552
MS.69          	11.377         	10.572
MS.70          	11.355         	10.57
MS.71          	11.332         	10.566
MS.72          	11.31          	10.542
MS.73          	11.287         	10.562
MS.74          	11.265         	10.56
MS.75          	11.242         	10.548
MS.76          	11.22          	10.554
MS.77          	11.197         	10.548
MS.78          	11.175         	10.536
MS.79          	11.153         	10.558
MS.80          	11.13          	10.558
MS.81          	11.108         	10.556
MS.82          	11.087         	10.554
MS.83          	11.065         	10.544
MS.84          	11.042         	10.542
MS.85          	11.02          	10.526
MS.86          	10.997         	10.534
MS.87          	10.975         	10.54
MS.88          	10.955         	10.536
MS.89          	10.932         	10.538
MS.90          	10.91          	10.54
MS.91          	10.887         	10.524
MS.92          	10.867         	10.526
MS.93          	10.845         	10.528
MS.94          	10.823         	10.542
MS.95          	10.802         	10.532
MS.96          	10.78          	10.552
MS.97          	10.76          	10.544
MS.98          	10.738         	10.558
MS.99          	10.715         	10.548
MS.100         	10.695         	10.536
MS.101         	10.672         	10.542
MS.102         	10.653         	10.514
MS.103         	10.63          	10.536
MS.104         	10.61          	10.389
MS.105         	10.587         	10.51
MS.106         	10.568         	10.53
MS.107         	10.545         	10.48
MS.108         	10.525         	10.456
MS.109         	10.502         	10.518
MS.110         	10.483         	10.516
MS.111         	10.462         	10.518
MS.112         	10.44          	10.53
MS.113         	10.42          	10.323
MS.114         	10.4           	10.54
MS.115         	10.377         	10.3
MS.116         	10.358         	10.494
MS.117         	10.337         	10.502
MS.118         	10.318         	10.321
MS.119         	10.295         	10.349
MS.120         	10.275         	10.403
MS.121         	10.255         	10.409
MS.122         	10.235         	10.486
MS.123         	10.212         	10.341
MS.124         	10.193         	10.367
MS.125         	10.172         	10.361
MS.126         	10.153         	10.365
MS.127         	10.132         	10.369
MS.128         	10.113         	10.431
MS.129         	10.092         	10.345
MS.130         	10.073         	10.339
MS.131         	10.052         	10.333
MS.132         	10.032         	10.292
MS.133         	10.012         	10.292
MS.134         	9.992          	10.288
MS.135         	9.972          	10.272
MS.136         	9.952          	10.294
MS.137         	9.932          	10.254
MS.138         	9.912          	10.242
MS.139         	9.892          	10.276
MS.140         	9.872          	10.238
MS.141         	9.852          	10.236
MS.142         	9.832          	10.272
MS.143         	9.812          	10.256
MS.144         	9.792          	10.276
MS.145         	9.775          	10.244
MS.146         	9.755          	10.312
MS.147         	9.735          	10.312
MS.148         	9.715          	10.323
MS.149         	9.695          	10.331
MS.150         	9.677          	10.317
MS.151         	9.657          	10.276
MS.152         	9.637          	10.25
MS.153         	9.62           	10.306
MS.154         	9.6            	10.292
MS.155         	9.58           	10.323
MS.156         	9.562          	10.296
MS.157         	9.542          	10.302
MS.158         	9.523          	10.304
MS.159         	9.505          	10.343
MS.160         	9.485          	10.333
MS.161         	9.465          	10.252
MS.162         	9.448          	10.304
MS.163         	9.427          	10.157
MS.164         	9.41           	10.21
MS.165         	9.39           	10.373
MS.166         	9.372          	10.218
MS.167         	9.352          	10.274
MS.168         	9.335          	10.421
MS.169         	9.315          	10.383
MS.170         	9.297          	10.441
MS.171         	9.278          	10.407
MS.172         	9.26           	10.443
MS.173         	9.242          	10.312
MS.174         	9.222          	10.256
MS.175         	9.205          	10.445
MS.176         	9.188          	10.256
MS.177         	9.167          	10.272
MS.178         	9.15           	10.397
MS.179         	9.132          	10.351
MS.180         	9.113          	10.266
MS.181         	9.095          	10.347
MS.182         	9.077          	10.321
MS.183         	9.057          	10.302
MS.184         	9.04           	10.196
MS.185         	9.023          	10.178
MS.186         	9.005          	10.296
MS.187         	8.988          	10.163
MS.188         	8.967          	10.27
MS.189         	8.95           	10.169
MS.190         	8.932          	10.123
MS.191         	8.915          	10.113
MS.192         	8.898          	10.226
MS.193         	8.88           	10.137
MS.194         	8.863          	10.099
MS.195         	8.845          	10.202
MS.196         	8.825          	10.067
MS.197         	8.807          	10.103
MS.198         	8.79           	10.055
MS.199         	8.773          	10.079
MS.200         	8.755          	10.051
MS.201         	8.738          	10.051
MS.202         	8.72           	9.992
MS.203         	8.702          	10.047
MS.204         	8.685          	10.016
MS.205         	8.67           	10.059
MS.206         	8.653          	10.014
MS.207         	8.635          	9.904
MS.208         	8.617          	9.928
MS.209         	8.6            	10.053
MS.210         	8.582          	10
MS.211         	8.565          	9.902
MS.212         	8.547          	9.674
MS.213         	8.53           	9.807
MS.214         	8.515          	9.803
MS.215         	8.497          	9.654
MS.216         	8.48           	9.779
MS.217         	8.462          	9.549
MS.218         	8.448          	9.612
MS.219         	8.43           	9.63
MS.220         	8.412          	9.295
MS.221         	8.395          	9.142
MS.222         	8.38           	9.485
MS.223         	8.363          	8.893
MS.224         	8.345          	9.021
MS.225         	8.33           	8.858
MS.226         	8.312          	8.232
MS.227         	8.295          	8.331
MS.228         	8.28           	8.659
MS.229         	8.262          	8.151
MS.230         	8.245          	8.208
MS.231         	8.23           	8.036
MS.232         	8.212          	8.395
MS.233         	8.198          	8.157
MS.234         	8.18           	8.415
MS.235         	8.165          	8.216
MS.236         	8.148          	7.823
MS.237         	8.132          	7.73
MS.238         	8.115          	7.712
MS.239         	8.1            	7.39
MS.240         	8.082          	7.293
MS.241         	8.068          	7.495
MS.242         	8.05           	7.464
MS.243         	8.035          	7.378
MS.244         	8.017          	7.134
MS.245         	8.002          	7.189
MS.246         	7.987          	7.166
MS.247         	7.97           	7.197
MS.248         	7.955          	7.13
MS.249         	7.938          	6.896
MS.250         	7.922          	6.933
MS.251         	7.907          	7.191
MS.252         	7.89           	7.094
MS.253         	7.875          	7.048
MS.254         	7.86           	7.096
MS.255         	7.845          	6.886
MS.256         	7.827          	6.584
MS.257         	7.812          	6.528
MS.258         	7.797          	6.592
MS.259         	7.782          	6.945
MS.260         	7.765          	6.403
MS.261         	7.75           	6.58
MS.262         	7.735          	6.369
MS.263         	7.72           	6.637
MS.264         	7.705          	6.341
MS.265         	7.688          	5.879
MS.266         	7.672          	6.103
MS.267         	7.657          	5.857
MS.268         	7.642          	5.773
MS.269         	7.628          	5.662
MS.270         	7.612          	5.754
MS.271         	7.597          	5.571
MS.272         	7.582          	6.016
MS.273         	7.567          	5.333
MS.274         	7.552          	5.444
MS.275         	7.535          	5.188
MS.276         	7.52           	5.406
MS.277         	7.505          	4.898
MS.278         	7.49           	5.239
MS.279         	7.475          	4.604
MS.280         	7.462          	4.939
MS.281         	7.447          	4.306
MS.282         	7.432          	4.657
MS.283         	7.418          	4.2
MS.284         	7.402          	4.04
MS.285         	7.387          	4.488
MS.286         	7.372          	4.262
MS.287         	7.357          	3.928
MS.288         	7.342          	3.718
MS.289         	7.327          	4.433
MS.290         	7.312          	4.234
MS.291         	7.3            	3.636
MS.292         	7.285          	3.918
MS.293         	7.27           	3.539
MS.294         	7.255          	3.895
MS.295         	7.24           	3.521
MS.296         	7.227          	3.64
MS.297         	7.212          	3.376
MS.298         	7.197          	3.487
MS.299         	7.182          	3.694
MS.300         	7.168          	3.331
MS.301         	7.155          	3.398
MS.302         	7.14           	3.263
MS.303         	7.125          	3.289
MS.304         	7.112          	2.917
MS.305         	7.097          	2.866
MS.306         	7.082          	2.788
MS.307         	7.07           	3.039
MS.308         	7.055          	2.921
MS.309         	7.04           	2.81
MS.310         	7.027          	2.723
MS.311         	7.012          	2.707
MS.312         	6.997          	2.558
MS.313         	6.985          	2.441
MS.314         	6.97           	2.494
MS.315         	6.957          	2.447
MS.316         	6.942          	2.443
MS.317         	6.93           	2.401
MS.318         	6.915          	2.173
MS.319         	6.902          	2.322
MS.320         	6.887          	2.334
MS.321         	6.875          	2.342
MS.322         	6.86           	2.242
MS.323         	6.847          	2.135
MS.324         	6.832          	2.119
MS.325         	6.82           	2.036
MS.326         	6.805          	2.187
MS.327         	6.793          	2.125
MS.328         	6.777          	2.113
MS.329         	6.765          	1.936
MS.330         	6.75           	1.917
MS.331         	6.737          	1.682
MS.332         	6.725          	1.49
MS.333         	6.71           	1.623
MS.334         	6.697          	1.623
MS.335         	6.685          	1.609
MS.336         	6.67           	1.851
MS.337         	6.657          	1.565
MS.338         	6.645          	1.535
MS.339         	6.63           	1.428
MS.340         	6.617          	1.495
MS.341         	6.605          	1.462
MS.342         	6.59           	1.148
MS.343         	6.577          	1.325
MS.344         	6.565          	1.241
MS.345         	6.552          	1.007
MS.346         	6.537          	1.315
MS.347         	6.525          	1.057
MS.348         	6.512          	1.172
MS.349         	6.5            	1.025
MS.350         	6.487          	1.144
MS.351         	6.472          	0.854
MS.352         	6.46           	0.781
MS.353         	6.447          	0.973
MS.354         	6.435          	0.747
MS.355         	6.422          	0.798
MS.356         	6.41           	0.618
MS.357         	6.398          	0.816
MS.358         	6.382          	0.884
MS.359         	6.37           	0.711
MS.360         	6.358          	0.54
MS.361         	6.345          	0.483
MS.362         	6.332          	0.556
MS.363         	6.32           	0.429
MS.364         	6.307          	0.493
MS.365         	6.295          	0.475
MS.366         	6.282          	0.403
MS.367         	6.27           	0.558
MS.368         	6.257          	0.518
MS.369         	6.245          	0.483
MS.370         	6.233          	0.433
MS.371         	6.22           	0.361
MS.372         	6.207          	0.354
MS.373         	6.195          	0.419
MS.374         	6.182          	0.431
MS.375         	6.17           	0.322
MS.376         	6.157          	0.391
MS.377         	6.145          	0.314
MS.378         	6.132          	0.32
MS.379         	6.12           	0.411
MS.380         	6.11           	0.312
MS.381         	6.097          	0.306
MS.382         	6.085          	0.286
MS.383         	6.072          	0.357
MS.384         	6.06           	0.338
MS.385         	6.047          	0.318
MS.386         	6.035          	0.346
MS.387         	6.025          	0.304
MS.388         	6.012          	0.332
MS.389         	6              	0.33
MS.390         	5.987          	0.286
MS.391         	5.975          	0.211
MS.392         	5.965          	0.222
MS.393         	5.952          	0.278
MS.394         	5.94           	0.228
MS.395         	5.927          	0.211
MS.396         	5.918          	0.286
MS.397         	5.905          	0.276
MS.398         	5.892          	0.276
MS.399         	5.88           	0.22
MS.400         	5.87           	0.185
MS.401         	5.858          	0.205
MS.402         	5.845          	0.175
MS.403         	5.835          	0.288
MS.404         	5.822          	0.282
MS.405         	5.81           	0.175
MS.406         	5.8            	0.167
MS.407         	5.787          	0.115
MS.408         	5.775          	0.135
MS.409         	5.765          	0.167
MS.410         	5.753          	0.115
MS.411         	5.742          	0.119
MS.412         	5.73           	0.183
MS.413         	5.717          	0.117
MS.414         	5.707          	0.107
MS.415         	5.695          	0.113
MS.416         	5.685          	0.125
MS.417         	5.672          	0.113
MS.418         	5.662          	0.113
MS.419         	5.65           	0.111
MS.420         	5.64           	0.119
MS.421         	5.628          	0.109
MS.422         	5.617          	0.105
MS.423         	5.605          	0.113
MS.424         	5.595          	0.097
MS.425         	5.582          	0.115
MS.426         	5.572          	0.052
MS.427         	5.56           	0.117
MS.428         	5.55           	0.064
MS.429         	5.537          	0.115
MS.430         	5.527          	0.064
MS.431         	5.517          	0.111
MS.432         	5.505          	0.052
MS.433         	5.495          	0.109
MS.434         	5.483          	0.113
MS.435         	5.472          	0.117
MS.436         	5.463          	0.066
MS.437         	5.45           	0.066
MS.438         	5.44           	0.024
MS.439         	5.43           	0.07
MS.440         	5.418          	0.068
MS.441         	5.407          	0.07
MS.442         	5.398          	0.066
MS.443         	5.385          	0.026
MS.444         	5.375          	0.064
MS.445         	5.365          	0.058
MS.446         	5.352          	0.062
MS.447         	5.342          	0.026
MS.448         	5.332          	0.02
MS.449         	5.322          	0.000
MS.450         	5.31           	0.03
MS.451         	5.3            	0.028
MS.452         	5.29           	0.068
MS.453         	5.28           	0.026
MS.454         	5.267          	0.004
MS.455         	5.257          	0.022
MS.456         	5.247          	0.008
MS.457         	5.237          	0.002
MS.458         	5.227          	0.004
MS.459         	5.215          	0.002
MS.460         	5.205          	0.000
MS.461         	5.195          	0.008
MS.462         	5.185          	0.03
MS.463         	5.175          	0.022
MS.464         	5.165          	0.004
MS.465         	5.155          	0.008
MS.466         	5.142          	0.028
MS.467         	5.132          	0.006
MS.468         	5.122          	0.01
MS.469         	5.112          	0.000
MS.470         	5.102          	0.006
MS.471         	5.092          	0.012
MS.472         	5.082          	0.004
MS.473         	5.072          	-0.002
MS.474         	5.062          	0.000
MS.475         	5.052          	0.000
MS.476         	5.043          	0.000
MS.477         	5.032          	0.004
MS.478         	5.023          	0.002
MS.479         	5.012          	0.000
MS.480         	5.003          	0.008
MS.481         	4.992          	0.006
MS.482         	4.983          	0.002
MS.483         	4.972          	0.002
MS.484         	4.963          	0.000
MS.485         	4.952          	0.004
MS.486         	4.943          	0.000
DERIVED EXCITABILITY VARIABLES
Program = QTracP 3/4/2020
Threshold method = 6 (optimised for CAP, using data for present condition only)
SR method = 1 (using actual data values)
6.                 	0.000               	Peak response\(mV)
9.                 	33.7                	Temperature ( C)
17.                	37                  	Age (years)
18.                	1                   	Sex (M=1, F=2)

EXTRA VARIABLES

MScPeak(mV) = 10.67
MScS5(mA) = 6.31
MScS50(mA) = 7.54
MScS95(mA) = 8.88
MScNSteps = 4
MScSteps(%) = 8.5
MScStepMax(%) = 2.3
MScD50 = 36
MScSlope = 6.58
MSFPeakAmp(mV) = 10.7
MSFNUnits = 133
MSFMeanUnitAmp(uV) = 80.6
MSFHuntTime(m) = 2.85
MSFError(%) = 4.25
MSFNLarge = 40.66
MSFMedianAmp(%) = 0.673
MSFMedianAmp(mV) = 0.0722
MSFHalfAmpAmp(%) = 0.88
MSFHalfAmpAmp(mV) = 0.0943
MSFLargestAmp(%) = 2.39
MSFLargestAmp(mV) = 0.256
MSFMeanRS(%) = 2
MSFOpts = 10106121
MScDuration(min) = 4.4
MSFTraces = 458
MSFSizeLimit(uV) = 26.8
MSFLimitType = 1
MSFSmallestAmp(uV) = 27

EXTRA WAVEFORMS


!MScan Model
!133
	1	5.31	0.36	2
	2	5.63	0.62	2
	3	5.73	0.45	2
	4	5.86	0.48	2
	5	5.95	0.53	2
	6	6.04	0.37	2
	7	6.15	0.66	2
	8	6.21	0.71	2
	9	6.23	0.48	2
	10	6.31	0.47	2
	11	6.34	0.6	2
	12	6.37	0.61	2
	13	6.39	0.37	2
	14	6.41	0.57	2
	15	6.44	0.61	2
	16	6.46	0.65	2
	17	6.48	0.65	2
	18	6.5	0.51	2
	19	6.51	0.42	2
	20	6.53	0.49	2
	21	6.55	0.52	2
	22	6.57	0.82	2
	23	6.6	0.78	2
	24	6.63	0.72	2
	25	6.65	0.51	2
	26	6.67	0.67	2
	27	6.69	0.67	2
	28	6.7	0.61	2
	29	6.72	0.6	2
	30	6.74	0.55	2
	31	6.76	0.58	2
	32	6.77	0.46	2
	33	6.79	0.29	2
	34	6.8	0.34	2
	35	6.82	0.47	2
	36	6.83	0.52	2
	37	6.85	0.61	2
	38	6.87	0.58	2
	39	6.88	0.41	2
	40	6.89	0.27	2
	41	6.92	0.45	2
	42	6.93	0.27	2
	43	6.94	0.29	2
	44	6.95	0.31	2
	45	6.96	0.3	2
	46	6.96	0.26	2
	47	6.97	0.25	2
	48	6.98	0.25	2
	49	6.99	0.28	2
	50	7	0.31	2
	51	7.01	0.36	2
	52	7.02	0.33	2
	53	7.02	0.3	2
	54	7.03	0.38	2
	55	7.04	0.36	2
	56	7.06	0.36	2
	57	7.07	0.38	2
	58	7.08	0.39	2
	59	7.09	0.41	2
	60	7.1	0.42	2
	61	7.11	0.71	2
	62	7.13	0.74	2
	63	7.15	0.74	2
	64	7.17	0.73	2
	65	7.2	1.13	2
	66	7.22	1.14	2
	67	7.26	1.42	2
	68	7.3	1.65	2
	69	7.33	1.28	2
	70	7.36	1.33	2
	71	7.39	1.45	2
	72	7.41	1.14	2
	73	7.43	1.29	2
	74	7.45	1.39	2
	75	7.47	1.19	2
	76	7.49	0.74	2
	77	7.51	0.71	2
	78	7.52	0.88	2
	79	7.54	0.98	2
	80	7.56	1	2
	81	7.57	1.14	2
	82	7.59	1.14	2
	83	7.61	0.9	2
	84	7.62	0.89	2
	85	7.64	0.98	2
	86	7.66	0.87	2
	87	7.68	0.85	2
	88	7.7	0.85	2
	89	7.71	0.82	2
	90	7.73	0.79	2
	91	7.75	0.74	2
	92	7.77	0.94	2
	93	7.81	1.63	2
	94	7.85	1.14	2
	95	7.9	1.13	2
	96	7.94	1.22	2
	97	7.99	2.39	2
	98	8.02	0.5	2
	99	8.04	0.48	2
	100	8.06	0.72	2
	101	8.08	0.78	2
	102	8.11	1.22	2
	103	8.14	0.99	2
	104	8.17	1.19	2
	105	8.19	1.05	2
	106	8.22	1.3	2
	107	8.23	1.65	2
	108	8.24	1.26	2
	109	8.26	1.13	2
	110	8.29	1.48	2
	111	8.31	1.39	2
	112	8.34	1.12	2
	113	8.35	1.02	2
	114	8.35	0.8	2
	115	8.37	0.63	2
	116	8.39	0.5	2
	117	8.4	0.79	2
	118	8.43	1.07	2
	119	8.45	1.61	2
	120	8.48	1.02	2
	121	8.51	0.87	2
	122	8.63	0.68	2
	123	8.8	0.72	2
	124	8.86	0.38	2
	125	8.91	0.35	2
	126	8.99	0.51	2
	127	9.1	0.7	2
	128	10.08	0.35	2
	129	10.41	1.04	2
	130	10.55	0.72	2
	131	11.52	0.66	2
	132	11.77	0.66	2
	133	12.05	0.38	2

