File:              	C:\Qtrac\Data\Daniel M Sørensen\MScan multicentre study\Data from centres\Oslo\Processed data\SZC00608D.QZD
Name:              	NO.OSL.NC.14.2
Protocol:          	MSCAN-R2
Date:              	8/6/20
Start time:        	16:42:57
Age:               	28
Sex:               	F
Temperature:       	30.1
S/R sites:         	TA
NC/disease:        	NC14
Operator:          	SZ
Comments:          	Test2
M-SCAN DATA (6.2-2.4m)
Scanpts: 5, 11, 361, 364
Stim. (mA)     	Amp. (mV)
MS.1           	42             	4.641
MS.2           	42             	4.649
MS.3           	42             	4.649
MS.4           	42             	4.685
MS.5           	42             	4.61
MS.6           	42             	4.608
MS.7           	42             	4.58
MS.8           	42             	4.56
MS.9           	42             	4.608
MS.10          	42             	4.62
MS.11          	42             	4.578
MS.12          	42             	4.641
MS.13          	42             	4.715
MS.14          	42             	4.665
MS.15          	42             	4.606
MS.16          	42             	4.627
MS.17          	42             	4.612
MS.18          	42             	4.598
MS.19          	42             	4.651
MS.20          	42             	4.637
MS.21          	42             	4.596
MS.22          	42             	4.612
MS.23          	42             	4.663
MS.24          	41.833         	4.506
MS.25          	41.747         	4.518
MS.26          	41.665         	4.514
MS.27          	41.583         	4.562
MS.28          	41.5           	4.469
MS.29          	41.415         	4.383
MS.30          	41.333         	4.415
MS.31          	41.25          	4.324
MS.32          	41.167         	4.399
MS.33          	41.085         	4.246
MS.34          	41.005         	4.256
MS.35          	40.923         	4.292
MS.36          	40.84          	4.127
MS.37          	40.757         	4.147
MS.38          	40.677         	4.206
MS.39          	40.595         	4.163
MS.40          	40.515         	4.141
MS.41          	40.435         	4.075
MS.42          	40.353         	4.103
MS.43          	40.272         	4.163
MS.44          	40.192         	3.994
MS.45          	40.112         	4.061
MS.46          	40.032         	4.05
MS.47          	39.952         	3.95
MS.48          	39.872         	3.992
MS.49          	39.792         	4.01
MS.50          	39.712         	3.911
MS.51          	39.632         	3.893
MS.52          	39.555         	3.899
MS.53          	39.475         	3.839
MS.54          	39.395         	3.879
MS.55          	39.317         	3.837
MS.56          	39.24          	3.777
MS.57          	39.16          	3.728
MS.58          	39.083         	3.728
MS.59          	39.005         	3.754
MS.60          	38.925         	3.672
MS.61          	38.847         	3.708
MS.62          	38.77          	3.623
MS.63          	38.692         	3.605
MS.64          	38.615         	3.559
MS.65          	38.54          	3.632
MS.66          	38.462         	3.515
MS.67          	38.385         	3.458
MS.68          	38.307         	3.561
MS.69          	38.232         	3.478
MS.70          	38.155         	3.458
MS.71          	38.08          	3.474
MS.72          	38.002         	3.424
MS.73          	37.927         	3.446
MS.74          	37.853         	3.341
MS.75          	37.775         	3.341
MS.76          	37.7           	3.327
MS.77          	37.625         	3.341
MS.78          	37.55          	3.325
MS.79          	37.475         	3.285
MS.80          	37.4           	3.253
MS.81          	37.325         	3.237
MS.82          	37.25          	3.207
MS.83          	37.175         	3.15
MS.84          	37.103         	3.11
MS.85          	37.028         	3.128
MS.86          	36.952         	3.053
MS.87          	36.88          	3.035
MS.88          	36.805         	3.043
MS.89          	36.732         	3.015
MS.90          	36.66          	2.9
MS.91          	36.585         	2.973
MS.92          	36.513         	2.925
MS.93          	36.44          	2.888
MS.94          	36.368         	2.846
MS.95          	36.295         	2.925
MS.96          	36.222         	2.884
MS.97          	36.15          	2.804
MS.98          	36.077         	2.784
MS.99          	36.005         	2.778
MS.100         	35.932         	2.755
MS.101         	35.862         	2.767
MS.102         	35.79          	2.707
MS.103         	35.717         	2.649
MS.104         	35.647         	2.637
MS.105         	35.575         	2.647
MS.106         	35.505         	2.651
MS.107         	35.435         	2.647
MS.108         	35.362         	2.504
MS.109         	35.292         	2.574
MS.110         	35.222         	2.56
MS.111         	35.153         	2.56
MS.112         	35.08          	2.5
MS.113         	35.01          	2.524
MS.114         	34.94          	2.445
MS.115         	34.872         	2.409
MS.116         	34.802         	2.439
MS.117         	34.732         	2.328
MS.118         	34.662         	2.375
MS.119         	34.592         	2.353
MS.120         	34.525         	2.387
MS.121         	34.455         	2.346
MS.122         	34.388         	2.258
MS.123         	34.318         	2.268
MS.124         	34.25          	2.216
MS.125         	34.18          	2.25
MS.126         	34.112         	2.183
MS.127         	34.045         	2.234
MS.128         	33.978         	2.193
MS.129         	33.907         	2.161
MS.130         	33.84          	2.129
MS.131         	33.772         	2.107
MS.132         	33.705         	2.087
MS.133         	33.638         	2.052
MS.134         	33.57          	1.998
MS.135         	33.505         	1.978
MS.136         	33.438         	2.028
MS.137         	33.37          	1.986
MS.138         	33.302         	1.996
MS.139         	33.237         	1.968
MS.140         	33.17          	1.968
MS.141         	33.105         	1.873
MS.142         	33.037         	1.901
MS.143         	32.972         	1.911
MS.144         	32.907         	1.903
MS.145         	32.84          	1.883
MS.146         	32.775         	1.829
MS.147         	32.71          	1.879
MS.148         	32.645         	1.853
MS.149         	32.58          	1.801
MS.150         	32.515         	1.772
MS.151         	32.45          	1.821
MS.152         	32.385         	1.829
MS.153         	32.32          	1.73
MS.154         	32.255         	1.764
MS.155         	32.19          	1.726
MS.156         	32.125         	1.72
MS.157         	32.062         	1.698
MS.158         	31.997         	1.625
MS.159         	31.935         	1.619
MS.160         	31.87          	1.65
MS.161         	31.807         	1.575
MS.162         	31.742         	1.623
MS.163         	31.68          	1.631
MS.164         	31.615         	1.585
MS.165         	31.552         	1.613
MS.166         	31.49          	1.573
MS.167         	31.427         	1.553
MS.168         	31.365         	1.551
MS.169         	31.302         	1.497
MS.170         	31.24          	1.507
MS.171         	31.177         	1.535
MS.172         	31.115         	1.509
MS.173         	31.052         	1.553
MS.174         	30.99          	1.531
MS.175         	30.927         	1.434
MS.176         	30.867         	1.422
MS.177         	30.805         	1.414
MS.178         	30.742         	1.414
MS.179         	30.682         	1.438
MS.180         	30.62          	1.384
MS.181         	30.56          	1.446
MS.182         	30.497         	1.392
MS.183         	30.438         	1.341
MS.184         	30.377         	1.335
MS.185         	30.315         	1.343
MS.186         	30.255         	1.321
MS.187         	30.195         	1.36
MS.188         	30.135         	1.263
MS.189         	30.075         	1.283
MS.190         	30.015         	1.295
MS.191         	29.955         	1.273
MS.192         	29.895         	1.243
MS.193         	29.835         	1.289
MS.194         	29.775         	1.217
MS.195         	29.715         	1.247
MS.196         	29.655         	1.277
MS.197         	29.597         	1.221
MS.198         	29.537         	1.227
MS.199         	29.477         	1.196
MS.200         	29.42          	1.196
MS.201         	29.36          	1.128
MS.202         	29.302         	1.176
MS.203         	29.242         	1.134
MS.204         	29.185         	1.194
MS.205         	29.127         	1.122
MS.206         	29.07          	1.17
MS.207         	29.01          	1.116
MS.208         	28.952         	1.134
MS.209         	28.895         	1.1
MS.210         	28.837         	1.1
MS.211         	28.78          	1.122
MS.212         	28.722         	1.051
MS.213         	28.665         	1.057
MS.214         	28.608         	1.025
MS.215         	28.55          	1.017
MS.216         	28.493         	1.098
MS.217         	28.438         	1.039
MS.218         	28.38          	1.047
MS.219         	28.323         	1.029
MS.220         	28.265         	0.969
MS.221         	28.21          	0.951
MS.222         	28.153         	0.971
MS.223         	28.097         	0.924
MS.224         	28.04          	0.955
MS.225         	27.985         	0.912
MS.226         	27.93          	0.892
MS.227         	27.872         	0.955
MS.228         	27.817         	0.878
MS.229         	27.762         	0.86
MS.230         	27.707         	0.88
MS.231         	27.65          	0.902
MS.232         	27.595         	0.858
MS.233         	27.54          	0.844
MS.234         	27.485         	0.808
MS.235         	27.43          	0.822
MS.236         	27.375         	0.794
MS.237         	27.323         	0.864
MS.238         	27.267         	0.773
MS.239         	27.212         	0.808
MS.240         	27.157         	0.781
MS.241         	27.102         	0.773
MS.242         	27.05          	0.757
MS.243         	26.995         	0.721
MS.244         	26.942         	0.741
MS.245         	26.887         	0.719
MS.246         	26.835         	0.731
MS.247         	26.78          	0.685
MS.248         	26.727         	0.707
MS.249         	26.672         	0.699
MS.250         	26.62          	0.669
MS.251         	26.567         	0.693
MS.252         	26.515         	0.638
MS.253         	26.46          	0.663
MS.254         	26.407         	0.693
MS.255         	26.355         	0.604
MS.256         	26.302         	0.578
MS.257         	26.25          	0.624
MS.258         	26.198         	0.622
MS.259         	26.145         	0.606
MS.260         	26.092         	0.562
MS.261         	26.04          	0.554
MS.262         	25.99          	0.558
MS.263         	25.938         	0.572
MS.264         	25.885         	0.534
MS.265         	25.832         	0.538
MS.266         	25.782         	0.552
MS.267         	25.73          	0.502
MS.268         	25.68          	0.516
MS.269         	25.627         	0.457
MS.270         	25.577         	0.502
MS.271         	25.525         	0.417
MS.272         	25.475         	0.453
MS.273         	25.422         	0.393
MS.274         	25.372         	0.429
MS.275         	25.323         	0.439
MS.276         	25.27          	0.373
MS.277         	25.22          	0.409
MS.278         	25.17          	0.415
MS.279         	25.12          	0.379
MS.280         	25.07          	0.393
MS.281         	25.02          	0.357
MS.282         	24.97          	0.383
MS.283         	24.92          	0.369
MS.284         	24.87          	0.306
MS.285         	24.82          	0.332
MS.286         	24.77          	0.338
MS.287         	24.722         	0.268
MS.288         	24.672         	0.338
MS.289         	24.622         	0.342
MS.290         	24.573         	0.316
MS.291         	24.525         	0.276
MS.292         	24.475         	0.3
MS.293         	24.427         	0.28
MS.294         	24.377         	0.244
MS.295         	24.33          	0.264
MS.296         	24.28          	0.258
MS.297         	24.233         	0.27
MS.298         	24.182         	0.242
MS.299         	24.135         	0.24
MS.300         	24.087         	0.23
MS.301         	24.038         	0.216
MS.302         	23.99          	0.218
MS.303         	23.942         	0.211
MS.304         	23.895         	0.163
MS.305         	23.847         	0.205
MS.306         	23.8           	0.183
MS.307         	23.752         	0.185
MS.308         	23.705         	0.179
MS.309         	23.657         	0.175
MS.310         	23.61          	0.181
MS.311         	23.562         	0.195
MS.312         	23.515         	0.169
MS.313         	23.467         	0.165
MS.314         	23.422         	0.167
MS.315         	23.375         	0.177
MS.316         	23.327         	0.109
MS.317         	23.282         	0.143
MS.318         	23.235         	0.151
MS.319         	23.188         	0.113
MS.320         	23.142         	0.135
MS.321         	23.095         	0.115
MS.322         	23.05          	0.091
MS.323         	23.005         	0.127
MS.324         	22.957         	0.117
MS.325         	22.913         	0.111
MS.326         	22.868         	0.097
MS.327         	22.82          	0.131
MS.328         	22.775         	0.093
MS.329         	22.73          	0.062
MS.330         	22.685         	0.111
MS.331         	22.64          	0.087
MS.332         	22.592         	0.062
MS.333         	22.547         	0.079
MS.334         	22.502         	0.042
MS.335         	22.457         	0.064
MS.336         	22.413         	0.058
MS.337         	22.37          	0.03
MS.338         	22.325         	0.04
MS.339         	22.28          	0.018
MS.340         	22.235         	0.03
MS.341         	22.19          	0.058
MS.342         	22.145         	0.024
MS.343         	22.102         	0.004
MS.344         	22.057         	0.018
MS.345         	22.012         	0.052
MS.346         	21.97          	0.038
MS.347         	21.925         	0.034
MS.348         	21.882         	-0.006
MS.349         	21.837         	0.014
MS.350         	21.795         	0.004
MS.351         	21.75          	0.004
MS.352         	21.708         	0.000
MS.353         	21.665         	0.042
MS.354         	21.62          	0.008
MS.355         	21.577         	-0.004
MS.356         	21.535         	0.004
MS.357         	21.493         	-0.01
MS.358         	21.448         	-0.004
MS.359         	21.405         	0.000
MS.360         	21.362         	0.008
MS.361         	21.32          	0.002
MS.362         	21.278         	0.006
MS.363         	21.235         	0.014
MS.364         	21.192         	0.018
MS.365         	21.15          	0.000
MS.366         	21.108         	0.008
MS.367         	21.065         	0.03
MS.368         	21.025         	0.004
MS.369         	20.983         	0.018
MS.370         	20.94          	0.018
MS.371         	20.897         	0.01
MS.372         	20.858         	0.012
MS.373         	20.815         	0.012
MS.374         	20.772         	0.026
MS.375         	20.733         	0.012
MS.376         	20.69          	0.026
MS.377         	20.65          	0.022
MS.378         	20.608         	0.03
MS.379         	20.567         	0.016
MS.380         	20.525         	0.048
MS.381         	20.485         	0.03
MS.382         	20.442         	0.03
MS.383         	20.403         	0.026
MS.384         	20.362         	0.044
MS.385         	20.32          	0.042
MS.386         	20.28          	0.054
MS.387         	20.24          	0.03
MS.388         	20.2           	0.052
MS.389         	20.16          	0.056
MS.390         	20.12          	0.026
MS.391         	20.08          	0.046
MS.392         	20.038         	0.052
MS.393         	19.997         	0.06
MS.394         	19.958         	0.042
MS.395         	19.92          	0.036
MS.396         	19.88          	0.052
MS.397         	19.84          	0.075
MS.398         	19.8           	0.054
MS.399         	19.76          	0.066
MS.400         	19.72          	0.056
MS.401         	19.68          	0.06
MS.402         	19.642         	0.066
MS.403         	19.602         	0.054
MS.404         	19.562         	0.054
MS.405         	19.525         	0.068
MS.406         	19.485         	0.073
MS.407         	19.448         	0.062
MS.408         	19.407         	0.056
MS.409         	19.37          	0.058
MS.410         	19.33          	0.066
MS.411         	19.292         	0.073
MS.412         	19.252         	0.058
MS.413         	19.215         	0.068
MS.414         	19.175         	0.083
MS.415         	19.137         	0.077
MS.416         	19.1           	0.077
MS.417         	19.062         	0.077
MS.418         	19.022         	0.068
MS.419         	18.985         	0.087
MS.420         	18.948         	0.073
MS.421         	18.91          	0.077
MS.422         	18.872         	0.095
MS.423         	18.835         	0.089
MS.424         	18.797         	0.075
MS.425         	18.76          	0.097
MS.426         	18.722         	0.083
MS.427         	18.685         	0.101
MS.428         	18.647         	0.064
MS.429         	18.61          	0.097
MS.430         	18.573         	0.073
DERIVED EXCITABILITY VARIABLES
Program = QTracP 3/4/2020
Threshold method = 6 (optimised for CAP, using data for present condition only)
SR method = 1 (using actual data values)
6.                 	0.000               	Peak response\(mV)
9.                 	30.1                	Temperature ( C)
17.                	28                  	Age (years)
18.                	2                   	Sex (M=1, F=2)

EXTRA VARIABLES

MScPeak(mV) = 4.55
MScS5(mA) = 24.08
MScS50(mA) = 34.4
MScS95(mA) = 41.12
MScNSteps = 0
MScSteps(%) = 0.0
MScStepMax(%) = 0.0
MScD50 = 59
MScSlope = 3.96
MSFPeakAmp(mV) = 4.58
MSFNUnits = 185
MSFMeanUnitAmp(uV) = 24.8
MSFHuntTime(m) = 2.14
MSFError(%) = 1.06
MSFNLarge = 66.46
MSFMedianAmp(%) = 0.49
MSFMedianAmp(mV) = 0.0225
MSFHalfAmpAmp(%) = 0.542
MSFHalfAmpAmp(mV) = 0.0249
MSFLargestAmp(%) = 3.6
MSFLargestAmp(mV) = 0.165
MSFMeanRS(%) = 2
MSFOpts = 10106121
MScDuration(min) = 3.8
MSFTraces = 360
MSFSizeLimit(uV) = 11.5
MSFLimitType = 1
MSFSmallestAmp(uV) = 12.1

EXTRA WAVEFORMS


!MScan Model
!185
	1	22.04	0.37	2
	2	22.36	0.5	2
	3	22.56	0.44	2
	4	22.79	0.5	2
	5	23.07	0.61	2
	6	23.28	0.49	2
	7	23.52	0.49	2
	8	23.72	0.42	2
	9	23.84	0.38	2
	10	24.02	0.38	2
	11	24.11	0.26	2
	12	24.24	0.4	2
	13	24.4	0.54	2
	14	24.58	0.62	2
	15	24.76	0.57	2
	16	25	0.81	2
	17	25.19	0.68	2
	18	25.33	0.61	2
	19	25.44	0.49	2
	20	25.56	0.44	2
	21	25.67	0.54	2
	22	25.79	0.48	2
	23	25.92	0.56	2
	24	26.04	0.7	2
	25	26.17	0.51	2
	26	26.28	0.45	2
	27	26.39	0.46	2
	28	26.51	0.52	2
	29	26.63	0.48	2
	30	26.77	0.56	2
	31	26.9	0.57	2
	32	27	0.35	2
	33	27.09	0.33	2
	34	27.18	0.38	2
	35	27.32	0.52	2
	36	27.47	0.57	2
	37	27.64	0.71	2
	38	27.8	0.59	2
	39	27.93	0.64	2
	40	28.06	0.63	2
	41	28.2	0.48	2
	42	28.34	0.65	2
	43	28.49	0.66	2
	44	28.73	1.07	2
	45	28.96	0.78	2
	46	29.11	0.52	2
	47	29.28	0.68	2
	48	29.46	0.62	2
	49	29.67	0.69	2
	50	29.85	0.64	2
	51	30.02	0.71	2
	52	30.18	0.55	2
	53	30.33	0.53	2
	54	30.47	0.6	2
	55	30.62	0.73	2
	56	30.76	0.67	2
	57	30.9	0.57	2
	58	31.07	0.8	2
	59	31.24	0.6	2
	60	31.45	0.99	2
	61	31.62	0.64	2
	62	31.73	0.41	2
	63	31.84	0.56	2
	64	31.95	0.57	2
	65	32.05	0.47	2
	66	32.15	0.48	2
	67	32.26	0.62	2
	68	32.38	0.59	2
	69	32.5	0.54	2
	70	32.62	0.62	2
	71	32.76	0.83	2
	72	32.88	0.55	2
	73	32.97	0.33	2
	74	33.06	0.52	2
	75	33.15	0.46	2
	76	33.24	0.45	2
	77	33.3	0.3	2
	78	33.36	0.33	2
	79	33.42	0.4	2
	80	33.48	0.38	2
	81	33.53	0.34	2
	82	33.59	0.33	2
	83	33.64	0.33	2
	84	33.69	0.28	2
	85	33.74	0.3	2
	86	33.79	0.33	2
	87	33.85	0.36	2
	88	33.9	0.35	2
	89	33.96	0.43	2
	90	34.02	0.37	2
	91	34.09	0.34	2
	92	34.15	0.39	2
	93	34.21	0.42	2
	94	34.28	0.41	2
	95	34.34	0.44	2
	96	34.41	0.51	2
	97	34.47	0.49	2
	98	34.53	0.41	2
	99	34.6	0.43	2
	100	34.67	0.49	2
	101	34.75	0.4	2
	102	34.82	0.44	2
	103	34.89	0.52	2
	104	34.97	0.53	2
	105	35.05	0.49	2
	106	35.12	0.43	2
	107	35.2	0.48	2
	108	35.28	0.51	2
	109	35.35	0.49	2
	110	35.42	0.56	2
	111	35.5	0.58	2
	112	35.57	0.49	2
	113	35.67	0.64	2
	114	35.76	0.56	2
	115	35.86	0.44	2
	116	35.95	0.63	2
	117	36.03	0.52	2
	118	36.1	0.42	2
	119	36.16	0.44	2
	120	36.23	0.46	2
	121	36.29	0.44	2
	122	36.34	0.33	2
	123	36.39	0.33	2
	124	36.43	0.32	2
	125	36.48	0.34	2
	126	36.53	0.36	2
	127	36.57	0.37	2
	128	36.62	0.35	2
	129	36.67	0.34	2
	130	36.72	0.28	2
	131	36.75	0.35	2
	132	36.79	0.36	2
	133	36.88	0.5	2
	134	36.95	0.44	2
	135	36.98	0.27	2
	136	37.02	0.39	2
	137	37.1	0.56	2
	138	37.15	0.44	2
	139	37.21	0.44	2
	140	37.26	0.43	2
	141	37.32	0.39	2
	142	37.37	0.5	2
	143	37.45	0.5	2
	144	37.49	0.27	2
	145	37.56	0.5	2
	146	37.63	0.5	2
	147	37.7	0.44	2
	148	37.77	0.45	2
	149	37.86	0.57	2
	150	37.95	0.59	2
	151	38.04	0.61	2
	152	38.13	0.55	2
	153	38.22	0.54	2
	154	38.3	0.48	2
	155	38.38	0.49	2
	156	38.46	0.53	2
	157	38.54	0.5	2
	158	38.6	0.43	2
	159	38.67	0.43	2
	160	38.74	0.41	2
	161	38.8	0.42	2
	162	38.87	0.44	2
	163	38.94	0.45	2
	164	39.01	0.45	2
	165	39.06	0.34	2
	166	39.11	0.34	2
	167	39.16	0.33	2
	168	39.21	0.34	2
	169	39.26	0.34	2
	170	39.31	0.35	2
	171	39.4	0.62	2
	172	39.5	0.67	2
	173	39.6	0.61	2
	174	39.69	0.59	2
	175	39.79	0.6	2
	176	39.97	1.1	2
	177	40.16	1	2
	178	40.35	1.14	2
	179	40.54	1.2	2
	180	40.69	0.85	2
	181	40.83	0.86	2
	182	40.96	0.94	2
	183	41.1	0.97	2
	184	41.23	2.18	2
	185	41.68	3.6	2

