File:              	C:\Qtrac\Data\Daniel M Sørensen\MScan multicentre study\Data from centres\Oslo\Processed data\SZC00526C.QZD
Name:              	NO.OSL.NC.12.2
Protocol:          	MSCAN-R2
Date:              	26/5/20
Start time:        	17:16:38
Age:               	53
Sex:               	F
Temperature:       	31.4
S/R sites:         	ADM
NC/disease:        	NC12
Operator:          	SZ
Comments:          	Test2
M-SCAN DATA (9.4-2.4m)
Scanpts: 146, 163, 723, 744
Stim. (mA)     	Amp. (mV)
MS.1           	21             	10.915
MS.2           	21             	10.899
MS.3           	21             	10.907
MS.4           	21             	10.895
MS.5           	21             	10.919
MS.6           	21             	10.977
MS.7           	21             	10.969
MS.8           	21             	11.005
MS.9           	21             	10.979
MS.10          	21             	10.991
MS.11          	21             	10.993
MS.12          	21             	11.011
MS.13          	21             	11.015
MS.14          	21             	11.026
MS.15          	21             	11.038
MS.16          	21             	11.04
MS.17          	21             	11.023
MS.18          	21             	11.038
MS.19          	21             	11.04
MS.20          	21             	11.028
MS.21          	21             	11.044
MS.22          	21             	11.038
MS.23          	21             	11.03
MS.24          	20.915         	11.032
MS.25          	20.875         	11.038
MS.26          	20.833         	11.036
MS.27          	20.79          	11.028
MS.28          	20.75          	11.07
MS.29          	20.708         	11.05
MS.30          	20.667         	11.072
MS.31          	20.625         	11.064
MS.32          	20.585         	11.076
MS.33          	20.542         	11.07
MS.34          	20.502         	11.072
MS.35          	20.46          	11.058
MS.36          	20.42          	11.07
MS.37          	20.38          	11.076
MS.38          	20.337         	11.08
MS.39          	20.297         	11.064
MS.40          	20.257         	11.074
MS.41          	20.217         	11.054
MS.42          	20.177         	11.056
MS.43          	20.135         	11.056
MS.44          	20.095         	11.072
MS.45          	20.055         	11.068
MS.46          	20.015         	11.076
MS.47          	19.975         	11.084
MS.48          	19.935         	11.082
MS.49          	19.895         	11.076
MS.50          	19.855         	11.086
MS.51          	19.817         	11.09
MS.52          	19.778         	11.072
MS.53          	19.737         	11.062
MS.54          	19.698         	11.084
MS.55          	19.657         	11.068
MS.56          	19.62          	11.062
MS.57          	19.58          	11.06
MS.58          	19.54          	11.066
MS.59          	19.502         	11.066
MS.60          	19.462         	11.086
MS.61          	19.425         	11.09
MS.62          	19.385         	11.084
MS.63          	19.347         	11.092
MS.64          	19.307         	11.076
MS.65          	19.27          	11.074
MS.66          	19.23          	11.078
MS.67          	19.192         	11.088
MS.68          	19.155         	11.09
MS.69          	19.115         	11.08
MS.70          	19.077         	11.07
MS.71          	19.04          	11.08
MS.72          	19.002         	11.096
MS.73          	18.962         	11.082
MS.74          	18.925         	11.102
MS.75          	18.887         	11.076
MS.76          	18.85          	11.092
MS.77          	18.812         	11.084
MS.78          	18.775         	11.092
MS.79          	18.737         	11.084
MS.80          	18.7           	11.088
MS.81          	18.663         	11.104
MS.82          	18.625         	11.096
MS.83          	18.587         	11.11
MS.84          	18.55          	11.1
MS.85          	18.515         	11.114
MS.86          	18.477         	11.098
MS.87          	18.44          	11.082
MS.88          	18.403         	11.102
MS.89          	18.368         	11.102
MS.90          	18.33          	11.108
MS.91          	18.292         	11.106
MS.92          	18.257         	11.102
MS.93          	18.22          	11.104
MS.94          	18.182         	11.098
MS.95          	18.147         	11.098
MS.96          	18.11          	11.116
MS.97          	18.075         	11.12
MS.98          	18.038         	11.126
MS.99          	18.003         	11.12
MS.100         	17.967         	11.108
MS.101         	17.93          	11.106
MS.102         	17.895         	11.132
MS.103         	17.86          	11.108
MS.104         	17.823         	11.098
MS.105         	17.788         	11.112
MS.106         	17.753         	11.1
MS.107         	17.717         	11.122
MS.108         	17.682         	11.106
MS.109         	17.645         	11.128
MS.110         	17.61          	11.108
MS.111         	17.575         	11.114
MS.112         	17.54          	11.116
MS.113         	17.505         	11.118
MS.114         	17.47          	11.116
MS.115         	17.435         	11.132
MS.116         	17.4           	11.118
MS.117         	17.365         	11.104
MS.118         	17.333         	11.126
MS.119         	17.297         	11.114
MS.120         	17.262         	11.106
MS.121         	17.227         	11.124
MS.122         	17.192         	11.12
MS.123         	17.16          	11.122
MS.124         	17.125         	11.128
MS.125         	17.09          	11.108
MS.126         	17.057         	11.124
MS.127         	17.022         	11.128
MS.128         	16.987         	11.126
MS.129         	16.955         	11.132
MS.130         	16.92          	11.116
MS.131         	16.887         	11.13
MS.132         	16.852         	11.136
MS.133         	16.82          	11.124
MS.134         	16.785         	11.128
MS.135         	16.753         	11.144
MS.136         	16.717         	11.124
MS.137         	16.685         	11.128
MS.138         	16.653         	11.116
MS.139         	16.618         	11.122
MS.140         	16.585         	11.104
MS.141         	16.552         	11.106
MS.142         	16.52          	11.124
MS.143         	16.485         	11.116
MS.144         	16.452         	11.104
MS.145         	16.42          	11.108
MS.146         	16.387         	11.116
MS.147         	16.355         	11.118
MS.148         	16.323         	11.11
MS.149         	16.29          	11.104
MS.150         	16.257         	11.12
MS.151         	16.225         	11.094
MS.152         	16.192         	11.102
MS.153         	16.16          	11.112
MS.154         	16.128         	11.102
MS.155         	16.095         	11.1
MS.156         	16.062         	11.104
MS.157         	16.03          	11.11
MS.158         	16             	11.106
MS.159         	15.967         	11.114
MS.160         	15.935         	11.112
MS.161         	15.902         	11.108
MS.162         	15.872         	11.104
MS.163         	15.84          	11.122
MS.164         	15.807         	11.112
MS.165         	15.777         	11.1
MS.166         	15.745         	11.098
MS.167         	15.712         	11.128
MS.168         	15.682         	11.104
MS.169         	15.65          	11.13
MS.170         	15.62          	11.098
MS.171         	15.587         	11.104
MS.172         	15.557         	11.114
MS.173         	15.525         	11.134
MS.174         	15.495         	11.108
MS.175         	15.465         	11.086
MS.176         	15.432         	11.098
MS.177         	15.402         	11.108
MS.178         	15.372         	11.096
MS.179         	15.34          	11.102
MS.180         	15.31          	11.106
MS.181         	15.28          	11.102
MS.182         	15.25          	11.098
MS.183         	15.217         	11.078
MS.184         	15.188         	11.086
MS.185         	15.157         	11.104
MS.186         	15.127         	11.128
MS.187         	15.097         	11.11
MS.188         	15.068         	11.116
MS.189         	15.037         	11.104
MS.190         	15.007         	11.088
MS.191         	14.977         	11.114
MS.192         	14.947         	11.116
MS.193         	14.917         	11.104
MS.194         	14.887         	11.122
MS.195         	14.858         	11.096
MS.196         	14.827         	11.094
MS.197         	14.797         	11.106
MS.198         	14.77          	11.11
MS.199         	14.74          	11.11
MS.200         	14.71          	11.122
MS.201         	14.68          	11.068
MS.202         	14.65          	11.09
MS.203         	14.622         	11.102
MS.204         	14.592         	11.092
MS.205         	14.562         	11.058
MS.206         	14.535         	11.106
MS.207         	14.505         	11.09
MS.208         	14.477         	11.092
MS.209         	14.447         	11.076
MS.210         	14.417         	11.058
MS.211         	14.39          	11.074
MS.212         	14.36          	11.082
MS.213         	14.332         	11.06
MS.214         	14.302         	11.092
MS.215         	14.275         	11.048
MS.216         	14.247         	11.078
MS.217         	14.217         	10.975
MS.218         	14.19          	11.009
MS.219         	14.162         	11.032
MS.220         	14.132         	10.985
MS.221         	14.105         	11.026
MS.222         	14.077         	10.973
MS.223         	14.047         	11.019
MS.224         	14.02          	10.985
MS.225         	13.992         	10.985
MS.226         	13.965         	10.973
MS.227         	13.938         	10.949
MS.228         	13.91          	10.959
MS.229         	13.88          	11.013
MS.230         	13.852         	10.969
MS.231         	13.825         	10.937
MS.232         	13.797         	10.937
MS.233         	13.77          	10.933
MS.234         	13.742         	10.929
MS.235         	13.715         	10.907
MS.236         	13.688         	10.957
MS.237         	13.66          	10.889
MS.238         	13.632         	10.872
MS.239         	13.605         	10.901
MS.240         	13.58          	10.963
MS.241         	13.552         	10.901
MS.242         	13.525         	10.909
MS.243         	13.497         	10.895
MS.244         	13.47          	10.901
MS.245         	13.445         	10.907
MS.246         	13.417         	10.889
MS.247         	13.39          	10.891
MS.248         	13.362         	10.887
MS.249         	13.337         	10.856
MS.250         	13.31          	10.878
MS.251         	13.282         	10.848
MS.252         	13.257         	10.891
MS.253         	13.23          	10.87
MS.254         	13.205         	10.83
MS.255         	13.177         	10.909
MS.256         	13.153         	10.878
MS.257         	13.125         	10.842
MS.258         	13.1           	10.834
MS.259         	13.072         	10.828
MS.260         	13.047         	10.832
MS.261         	13.02          	10.812
MS.262         	12.995         	10.796
MS.263         	12.967         	10.798
MS.264         	12.943         	10.814
MS.265         	12.917         	10.808
MS.266         	12.89          	10.79
MS.267         	12.865         	10.76
MS.268         	12.84          	10.752
MS.269         	12.812         	10.687
MS.270         	12.787         	10.691
MS.271         	12.762         	10.76
MS.272         	12.738         	10.685
MS.273         	12.712         	10.675
MS.274         	12.685         	10.742
MS.275         	12.66          	10.721
MS.276         	12.635         	10.663
MS.277         	12.61          	10.727
MS.278         	12.585         	10.649
MS.279         	12.56          	10.653
MS.280         	12.535         	10.637
MS.281         	12.51          	10.667
MS.282         	12.485         	10.544
MS.283         	12.46          	10.586
MS.284         	12.435         	10.558
MS.285         	12.41          	10.55
MS.286         	12.385         	10.49
MS.287         	12.36          	10.57
MS.288         	12.335         	10.524
MS.289         	12.312         	10.592
MS.290         	12.287         	10.534
MS.291         	12.262         	10.538
MS.292         	12.238         	10.53
MS.293         	12.212         	10.526
MS.294         	12.19          	10.534
MS.295         	12.165         	10.49
MS.296         	12.14          	10.562
MS.297         	12.115         	10.55
MS.298         	12.092         	10.47
MS.299         	12.068         	10.445
MS.300         	12.042         	10.504
MS.301         	12.02          	10.435
MS.302         	11.995         	10.484
MS.303         	11.972         	10.5
MS.304         	11.947         	10.449
MS.305         	11.922         	10.425
MS.306         	11.9           	10.482
MS.307         	11.875         	10.407
MS.308         	11.852         	10.468
MS.309         	11.827         	10.413
MS.310         	11.805         	10.433
MS.311         	11.782         	10.419
MS.312         	11.757         	10.427
MS.313         	11.735         	10.395
MS.314         	11.71          	10.407
MS.315         	11.688         	10.407
MS.316         	11.665         	10.369
MS.317         	11.64          	10.401
MS.318         	11.617         	10.397
MS.319         	11.595         	10.321
MS.320         	11.57          	10.339
MS.321         	11.547         	10.29
MS.322         	11.525         	10.331
MS.323         	11.502         	10.27
MS.324         	11.48          	10.242
MS.325         	11.455         	10.204
MS.326         	11.432         	10.3
MS.327         	11.41          	10.234
MS.328         	11.387         	10.232
MS.329         	11.365         	10.147
MS.330         	11.342         	10.234
MS.331         	11.32          	10.186
MS.332         	11.297         	10.137
MS.333         	11.275         	10.105
MS.334         	11.252         	10.047
MS.335         	11.23          	10.002
MS.336         	11.207         	10.039
MS.337         	11.185         	10.059
MS.338         	11.162         	9.954
MS.339         	11.14          	10.014
MS.340         	11.117         	9.918
MS.341         	11.095         	9.916
MS.342         	11.073         	10.008
MS.343         	11.05          	9.9
MS.344         	11.03          	9.863
MS.345         	11.007         	9.843
MS.346         	10.985         	9.833
MS.347         	10.962         	9.747
MS.348         	10.94          	9.769
MS.349         	10.92          	9.7
MS.350         	10.898         	9.696
MS.351         	10.875         	9.644
MS.352         	10.855         	9.461
MS.353         	10.832         	9.503
MS.354         	10.81          	9.65
MS.355         	10.79          	9.422
MS.356         	10.767         	9.438
MS.357         	10.745         	9.324
MS.358         	10.725         	9.531
MS.359         	10.702         	9.434
MS.360         	10.682         	9.479
MS.361         	10.66          	9.545
MS.362         	10.64          	9.481
MS.363         	10.617         	9.275
MS.364         	10.597         	9.251
MS.365         	10.575         	9.17
MS.366         	10.555         	9.168
MS.367         	10.532         	9.388
MS.368         	10.512         	9.164
MS.369         	10.49          	9.114
MS.370         	10.47          	9.108
MS.371         	10.45          	9.098
MS.372         	10.427         	9.005
MS.373         	10.407         	9.013
MS.374         	10.387         	8.828
MS.375         	10.365         	8.995
MS.376         	10.345         	8.866
MS.377         	10.325         	8.929
MS.378         	10.305         	8.782
MS.379         	10.282         	8.888
MS.380         	10.262         	8.931
MS.381         	10.242         	8.677
MS.382         	10.222         	8.81
MS.383         	10.202         	8.693
MS.384         	10.18          	8.703
MS.385         	10.16          	8.663
MS.386         	10.14          	8.778
MS.387         	10.12          	8.602
MS.388         	10.1           	8.52
MS.389         	10.08          	8.673
MS.390         	10.06          	8.566
MS.391         	10.04          	8.512
MS.392         	10.02          	8.536
MS.393         	10             	8.564
MS.394         	9.98           	8.498
MS.395         	9.96           	8.582
MS.396         	9.94           	8.482
MS.397         	9.92           	8.592
MS.398         	9.9            	8.383
MS.399         	9.88           	8.431
MS.400         	9.86           	8.379
MS.401         	9.84           	8.417
MS.402         	9.82           	8.375
MS.403         	9.802          	8.47
MS.404         	9.782          	8.385
MS.405         	9.762          	8.318
MS.406         	9.742          	8.304
MS.407         	9.722          	8.403
MS.408         	9.705          	8.32
MS.409         	9.685          	7.918
MS.410         	9.665          	7.835
MS.411         	9.645          	8.053
MS.412         	9.627          	8.006
MS.413         	9.608          	7.91
MS.414         	9.587          	7.93
MS.415         	9.57           	8.184
MS.416         	9.55           	7.841
MS.417         	9.53           	7.9
MS.418         	9.512          	8.175
MS.419         	9.492          	8.302
MS.420         	9.472          	7.809
MS.421         	9.455          	7.839
MS.422         	9.435          	7.773
MS.423         	9.417          	8.057
MS.424         	9.398          	7.819
MS.425         	9.38           	7.771
MS.426         	9.36           	7.728
MS.427         	9.342          	7.807
MS.428         	9.323          	7.841
MS.429         	9.305          	7.589
MS.430         	9.285          	7.543
MS.431         	9.267          	7.757
MS.432         	9.25           	7.551
MS.433         	9.23           	7.706
MS.434         	9.212          	7.603
MS.435         	9.193          	7.652
MS.436         	9.175          	7.44
MS.437         	9.158          	7.648
MS.438         	9.137          	7.624
MS.439         	9.12           	7.642
MS.440         	9.102          	7.376
MS.441         	9.085          	7.404
MS.442         	9.065          	7.313
MS.443         	9.047          	7.023
MS.444         	9.03           	7.279
MS.445         	9.012          	6.969
MS.446         	8.992          	7.251
MS.447         	8.975          	6.878
MS.448         	8.957          	7.064
MS.449         	8.94           	6.802
MS.450         	8.922          	7.104
MS.451         	8.905          	7.098
MS.452         	8.887          	7.338
MS.453         	8.867          	6.8
MS.454         	8.85           	6.469
MS.455         	8.832          	6.588
MS.456         	8.815          	6.768
MS.457         	8.797          	7.025
MS.458         	8.78           	6.612
MS.459         	8.762          	6.53
MS.460         	8.745          	6.385
MS.461         	8.727          	6.701
MS.462         	8.71           	5.946
MS.463         	8.693          	6.252
MS.464         	8.675          	6.049
MS.465         	8.658          	5.799
MS.466         	8.64           	6.331
MS.467         	8.622          	5.833
MS.468         	8.608          	6.149
MS.469         	8.59           	6.121
MS.470         	8.573          	5.742
MS.471         	8.555          	5.668
MS.472         	8.537          	5.954
MS.473         	8.52           	5.656
MS.474         	8.505          	5.626
MS.475         	8.488          	5.569
MS.476         	8.47           	5.533
MS.477         	8.452          	5.503
MS.478         	8.435          	5.495
MS.479         	8.42           	5.525
MS.480         	8.403          	5.056
MS.481         	8.385          	5.523
MS.482         	8.37           	5.354
MS.483         	8.352          	5.356
MS.484         	8.335          	5.233
MS.485         	8.32           	5.368
MS.486         	8.302          	5.197
MS.487         	8.285          	5.223
MS.488         	8.27           	5.225
MS.489         	8.252          	5.168
MS.490         	8.235          	4.949
MS.491         	8.22           	5.138
MS.492         	8.202          	4.84
MS.493         	8.188          	4.673
MS.494         	8.17           	4.592
MS.495         	8.155          	4.405
MS.496         	8.137          	4.25
MS.497         	8.122          	4.536
MS.498         	8.105          	3.855
MS.499         	8.09           	4.129
MS.500         	8.073          	4.429
MS.501         	8.057          	4.204
MS.502         	8.04           	3.901
MS.503         	8.025          	3.801
MS.504         	8.007          	3.76
MS.505         	7.992          	3.728
MS.506         	7.977          	4.139
MS.507         	7.96           	3.372
MS.508         	7.945          	3.527
MS.509         	7.93           	3.454
MS.510         	7.912          	3.275
MS.511         	7.898          	3.06
MS.512         	7.882          	3.38
MS.513         	7.865          	3.16
MS.514         	7.85           	3.057
MS.515         	7.835          	2.963
MS.516         	7.817          	2.872
MS.517         	7.802          	2.532
MS.518         	7.787          	3.086
MS.519         	7.773          	2.842
MS.520         	7.757          	2.824
MS.521         	7.74           	2.439
MS.522         	7.725          	2.572
MS.523         	7.71           	2.431
MS.524         	7.695          	2.788
MS.525         	7.68           	2.604
MS.526         	7.665          	2.427
MS.527         	7.648          	2.318
MS.528         	7.632          	2.292
MS.529         	7.617          	2.361
MS.530         	7.602          	2.266
MS.531         	7.587          	2.177
MS.532         	7.572          	2.326
MS.533         	7.557          	2.29
MS.534         	7.543          	2.195
MS.535         	7.527          	2.534
MS.536         	7.512          	1.95
MS.537         	7.497          	2.04
MS.538         	7.482          	2.127
MS.539         	7.467          	2.218
MS.540         	7.452          	1.69
MS.541         	7.438          	1.803
MS.542         	7.422          	1.573
MS.543         	7.407          	1.694
MS.544         	7.392          	1.605
MS.545         	7.378          	1.728
MS.546         	7.362          	1.581
MS.547         	7.347          	1.446
MS.548         	7.335          	1.38
MS.549         	7.32           	1.42
MS.550         	7.305          	1.086
MS.551         	7.29           	1.221
MS.552         	7.275          	1.116
MS.553         	7.26           	1.277
MS.554         	7.247          	1.319
MS.555         	7.233          	1.049
MS.556         	7.217          	1.11
MS.557         	7.202          	1.166
MS.558         	7.19           	1.08
MS.559         	7.175          	0.904
MS.560         	7.16           	1.033
MS.561         	7.145          	0.86
MS.562         	7.132          	0.892
MS.563         	7.117          	0.945
MS.564         	7.102          	0.874
MS.565         	7.09           	0.866
MS.566         	7.075          	0.808
MS.567         	7.06           	0.864
MS.568         	7.047          	0.693
MS.569         	7.032          	0.777
MS.570         	7.017          	0.777
MS.571         	7.005          	0.727
MS.572         	6.99           	0.697
MS.573         	6.977          	0.745
MS.574         	6.962          	0.779
MS.575         	6.947          	0.687
MS.576         	6.935          	0.729
MS.577         	6.92           	0.719
MS.578         	6.907          	0.653
MS.579         	6.892          	0.572
MS.580         	6.88           	0.634
MS.581         	6.865          	0.604
MS.582         	6.852          	0.508
MS.583         	6.837          	0.6
MS.584         	6.825          	0.568
MS.585         	6.81           	0.608
MS.586         	6.797          	0.582
MS.587         	6.782          	0.516
MS.588         	6.77           	0.522
MS.589         	6.757          	0.578
MS.590         	6.742          	0.497
MS.591         	6.73           	0.598
MS.592         	6.715          	0.465
MS.593         	6.702          	0.536
MS.594         	6.69           	0.534
MS.595         	6.675          	0.506
MS.596         	6.662          	0.6
MS.597         	6.65           	0.534
MS.598         	6.635          	0.451
MS.599         	6.622          	0.385
MS.600         	6.61           	0.389
MS.601         	6.597          	0.425
MS.602         	6.582          	0.272
MS.603         	6.57           	0.437
MS.604         	6.557          	0.302
MS.605         	6.545          	0.284
MS.606         	6.53           	0.318
MS.607         	6.517          	0.375
MS.608         	6.505          	0.312
MS.609         	6.492          	0.205
MS.610         	6.477          	0.324
MS.611         	6.465          	0.29
MS.612         	6.452          	0.27
MS.613         	6.44           	0.252
MS.614         	6.427          	0.252
MS.615         	6.415          	0.197
MS.616         	6.402          	0.199
MS.617         	6.387          	0.242
MS.618         	6.375          	0.211
MS.619         	6.362          	0.193
MS.620         	6.35           	0.207
MS.621         	6.338          	0.199
MS.622         	6.325          	0.236
MS.623         	6.312          	0.238
MS.624         	6.3            	0.197
MS.625         	6.287          	0.205
MS.626         	6.275          	0.185
MS.627         	6.262          	0.199
MS.628         	6.25           	0.171
MS.629         	6.237          	0.161
MS.630         	6.225          	0.195
MS.631         	6.213          	0.173
MS.632         	6.2            	0.165
MS.633         	6.188          	0.129
MS.634         	6.175          	0.175
MS.635         	6.162          	0.177
MS.636         	6.15           	0.121
MS.637         	6.137          	0.191
MS.638         	6.125          	0.203
MS.639         	6.112          	0.149
MS.640         	6.102          	0.123
MS.641         	6.09           	0.171
MS.642         	6.077          	0.151
MS.643         	6.065          	0.163
MS.644         	6.052          	0.125
MS.645         	6.04           	0.185
MS.646         	6.027          	0.161
MS.647         	6.017          	0.157
MS.648         	6.005          	0.115
MS.649         	5.992          	0.064
MS.650         	5.98           	0.109
MS.651         	5.967          	0.113
MS.652         	5.957          	0.064
MS.653         	5.945          	0.113
MS.654         	5.932          	0.048
MS.655         	5.92           	0.06
MS.656         	5.91           	0.113
MS.657         	5.898          	0.137
MS.658         	5.885          	0.058
MS.659         	5.875          	0.129
MS.660         	5.862          	0.054
MS.661         	5.85           	0.046
MS.662         	5.84           	0.06
MS.663         	5.827          	0.052
MS.664         	5.815          	0.052
MS.665         	5.805          	0.054
MS.666         	5.793          	0.115
MS.667         	5.78           	0.121
MS.668         	5.77           	0.066
MS.669         	5.757          	0.054
MS.670         	5.745          	0.06
MS.671         	5.735          	0.058
MS.672         	5.722          	0.062
MS.673         	5.713          	0.052
MS.674         	5.7            	0.05
MS.675         	5.69           	0.064
MS.676         	5.677          	0.052
MS.677         	5.665          	0.062
MS.678         	5.655          	0.052
MS.679         	5.642          	0.058
MS.680         	5.632          	0.062
MS.681         	5.62           	0.064
MS.682         	5.61           	0.07
MS.683         	5.597          	0.056
MS.684         	5.588          	0.06
MS.685         	5.577          	0.062
MS.686         	5.565          	0.056
MS.687         	5.555          	0.058
MS.688         	5.543          	0.07
MS.689         	5.532          	0.07
MS.690         	5.52           	0.073
MS.691         	5.51           	0.056
MS.692         	5.497          	0.062
MS.693         	5.487          	0.068
MS.694         	5.477          	0.068
MS.695         	5.465          	0.056
MS.696         	5.455          	0.062
MS.697         	5.445          	0.066
MS.698         	5.432          	0.073
MS.699         	5.422          	0.062
MS.700         	5.412          	0.068
MS.701         	5.4            	0.066
MS.702         	5.39           	0.064
MS.703         	5.38           	0.06
MS.704         	5.367          	0.056
MS.705         	5.358          	0.06
MS.706         	5.347          	0.07
MS.707         	5.335          	0.068
MS.708         	5.325          	0.06
MS.709         	5.315          	0.06
MS.710         	5.305          	0.06
MS.711         	5.293          	0.068
MS.712         	5.282          	0.066
MS.713         	5.273          	0.07
MS.714         	5.262          	0.064
MS.715         	5.253          	0.06
MS.716         	5.24           	0.073
MS.717         	5.23           	0.062
MS.718         	5.22           	0.064
MS.719         	5.21           	0.062
MS.720         	5.2            	0.06
MS.721         	5.19           	0.066
MS.722         	5.177          	0.062
MS.723         	5.168          	0.07
MS.724         	5.157          	0.062
MS.725         	5.148          	0.066
MS.726         	5.137          	0.06
MS.727         	5.128          	0.062
MS.728         	5.117          	0.066
MS.729         	5.108          	0.066
MS.730         	5.097          	0.06
MS.731         	5.085          	0.073
MS.732         	5.075          	0.07
MS.733         	5.065          	0.068
MS.734         	5.055          	0.068
MS.735         	5.045          	0.066
MS.736         	5.035          	0.066
MS.737         	5.025          	0.064
MS.738         	5.015          	0.073
MS.739         	5.005          	0.07
MS.740         	4.995          	0.068
MS.741         	4.985          	0.068
MS.742         	4.975          	0.066
MS.743         	4.965          	0.07
MS.744         	4.955          	0.068
DERIVED EXCITABILITY VARIABLES
Program = QTracP 3/4/2020
Threshold method = 6 (optimised for CAP, using data for present condition only)
SR method = 1 (using actual data values)
6.                 	0.000               	Peak response\(mV)
9.                 	31.4                	Temperature ( C)
17.                	53                  	Age (years)
18.                	2                   	Sex (M=1, F=2)

EXTRA VARIABLES

MScPeak(mV) = 10.92
MScS5(mA) = 6.75
MScS50(mA) = 8.39
MScS95(mA) = 11.65
MScNSteps = 1
MScSteps(%) = 2.1
MScStepMax(%) = 2.1
MScD50 = 58
MScSlope = 4.62
MSFPeakAmp(mV) = 11
MSFNUnits = 149
MSFMeanUnitAmp(uV) = 74.1
MSFHuntTime(m) = 3.29
MSFError(%) = 2.93
MSFNLarge = 41.2
MSFMedianAmp(%) = 0.509
MSFMedianAmp(mV) = 0.0562
MSFHalfAmpAmp(%) = 0.745
MSFHalfAmpAmp(mV) = 0.0823
MSFLargestAmp(%) = 2.81
MSFLargestAmp(mV) = 0.31
MSFMeanRS(%) = 1.99
MSFOpts = 10106121
MScDuration(min) = 7
MSFTraces = 599
MSFSizeLimit(uV) = 27.6
MSFLimitType = 1
MSFSmallestAmp(uV) = 28

EXTRA WAVEFORMS


!MScan Model
!149
	1	5.99	0.48	2
	2	6.16	0.41	2
	3	6.33	0.53	2
	4	6.45	0.37	2
	5	6.5	0.33	2
	6	6.54	0.45	2
	7	6.61	0.58	2
	8	6.66	0.62	2
	9	6.77	0.6	2
	10	6.85	0.55	2
	11	6.89	0.27	2
	12	6.95	0.5	2
	13	6.98	0.35	2
	14	7.02	0.35	2
	15	7.06	0.43	2
	16	7.07	0.3	2
	17	7.09	0.27	2
	18	7.11	0.28	2
	19	7.14	0.28	2
	20	7.16	0.37	2
	21	7.18	0.4	2
	22	7.2	0.41	2
	23	7.22	0.48	2
	24	7.24	0.42	2
	25	7.26	0.39	2
	26	7.28	0.49	2
	27	7.3	0.48	2
	28	7.31	0.47	2
	29	7.33	0.47	2
	30	7.35	0.57	2
	31	7.37	0.59	2
	32	7.39	0.63	2
	33	7.41	0.73	2
	34	7.43	0.83	2
	35	7.45	0.74	2
	36	7.49	1.1	2
	37	7.52	0.77	2
	38	7.61	2.43	2
	39	7.66	0.94	2
	40	7.7	0.88	2
	41	7.73	0.83	2
	42	7.76	0.92	2
	43	7.79	0.79	2
	44	7.81	1.04	2
	45	7.84	1	2
	46	7.86	0.69	2
	47	7.87	0.63	2
	48	7.89	0.69	2
	49	7.91	0.77	2
	50	7.93	0.97	2
	51	7.96	0.94	2
	52	7.98	0.95	2
	53	8	0.94	2
	54	8.02	0.92	2
	55	8.03	1.3	2
	56	8.05	1.11	2
	57	8.07	0.98	2
	58	8.08	0.7	2
	59	8.1	0.59	2
	60	8.11	0.57	2
	61	8.12	0.55	2
	62	8.14	0.65	2
	63	8.15	0.66	2
	64	8.16	0.68	2
	65	8.18	0.65	2
	66	8.19	0.48	2
	67	8.21	0.34	2
	68	8.22	0.57	2
	69	8.24	0.67	2
	70	8.3	2.61	1.6
	71	8.41	1.09	2
	72	8.44	0.54	2
	73	8.47	0.76	2
	74	8.51	1	2
	75	8.56	1.1	2
	76	8.6	1.08	2
	77	8.64	1.26	2
	78	8.68	1.42	2
	79	8.73	1.45	2
	80	8.78	1.71	2
	81	8.84	1.39	2
	82	8.88	1.51	2
	83	8.93	2.28	2
	84	9	1.42	2
	85	9.03	0.85	2
	86	9.07	0.32	2
	87	9.1	0.66	2
	88	9.15	1	2
	89	9.38	1.68	2
	90	9.64	2.81	2
	91	9.71	0.7	2
	92	9.77	0.66	2
	93	9.87	1.37	2
	94	9.94	0.71	2
	95	10.01	0.44	2
	96	10.06	0.54	2
	97	10.13	0.44	2
	98	10.16	0.34	2
	99	10.2	0.37	2
	100	10.23	0.39	2
	101	10.27	0.37	2
	102	10.29	0.3	2
	103	10.32	0.34	2
	104	10.35	0.37	2
	105	10.38	0.35	2
	106	10.4	0.33	2
	107	10.43	0.28	2
	108	10.45	0.38	2
	109	10.48	0.45	2
	110	10.52	0.48	2
	111	10.56	0.42	2
	112	10.62	0.89	2
	113	10.7	0.76	2
	114	10.75	0.74	2
	115	10.8	0.58	2
	116	10.86	0.5	2
	117	10.88	0.29	2
	118	10.9	0.28	2
	119	10.93	0.43	2
	120	10.96	0.36	2
	121	11	0.46	2
	122	11.04	0.42	2
	123	11.08	0.47	2
	124	11.11	0.25	2
	125	11.14	0.31	2
	126	11.18	0.48	2
	127	11.23	0.43	2
	128	11.27	0.46	2
	129	11.36	0.43	2
	130	11.4	0.37	2
	131	11.45	0.32	2
	132	11.49	0.4	2
	133	11.61	0.51	2
	134	11.71	0.38	2
	135	11.9	0.67	2
	136	12.19	0.5	2
	137	12.4	0.56	2
	138	12.51	0.36	2
	139	12.57	0.26	2
	140	12.7	0.45	2
	141	12.76	0.29	2
	142	12.9	0.39	2
	143	13.04	0.44	2
	144	13.24	0.42	2
	145	13.63	0.45	2
	146	13.91	0.48	2
	147	14.12	0.43	2
	148	14.29	0.31	2
	149	14.59	0.39	2

