File:              	C:\Qtrac\Data\Daniel M Sørensen\MScan multicentre study\Data from centres\Oslo\IronKey\Oslo_NC_first examination\SZC00514A.QZD
Name:              	NO.OSL.NC.11.1
Protocol:          	MSCAN-R2
Date:              	14/5/20
Start time:        	16:44:18
Age:               	45
Sex:               	M
Temperature:       	32.4
S/R sites:         	Median Wr-APB
NC/disease:        	NC11
Operator:          	SZ
Comments:          	Test1
M-SCAN DATA (8.3-3.8m)
Scanpts: 17, 21, 468, 489
Stim. (mA)     	Amp. (mV)
MS.1           	17.5           	11.801
MS.2           	17.5           	11.777
MS.3           	17.5           	11.775
MS.4           	17.5           	11.769
MS.5           	17.5           	11.745
MS.6           	17.5           	11.728
MS.7           	17.5           	11.732
MS.8           	17.5           	11.728
MS.9           	17.5           	11.755
MS.10          	17.5           	11.763
MS.11          	17.5           	11.757
MS.12          	17.5           	11.753
MS.13          	17.5           	11.743
MS.14          	17.5           	11.749
MS.15          	17.5           	11.741
MS.16          	17.5           	11.734
MS.17          	17.5           	11.732
MS.18          	17.5           	11.728
MS.19          	17.5           	11.743
MS.20          	17.5           	11.732
MS.21          	17.5           	11.722
MS.22          	17.5           	11.708
MS.23          	17.5           	11.73
MS.24          	17.43          	11.708
MS.25          	17.395         	11.694
MS.26          	17.36          	11.696
MS.27          	17.325         	11.708
MS.28          	17.29          	11.722
MS.29          	17.257         	11.7
MS.30          	17.222         	11.712
MS.31          	17.188         	11.692
MS.32          	17.153         	11.696
MS.33          	17.12          	11.692
MS.34          	17.085         	11.692
MS.35          	17.05          	11.702
MS.36          	17.017         	11.692
MS.37          	16.983         	11.694
MS.38          	16.95          	11.676
MS.39          	16.915         	11.694
MS.40          	16.88          	11.694
MS.41          	16.847         	11.69
MS.42          	16.812         	11.702
MS.43          	16.78          	11.698
MS.44          	16.747         	11.529
MS.45          	16.712         	11.69
MS.46          	16.68          	11.69
MS.47          	16.647         	11.545
MS.48          	16.612         	11.692
MS.49          	16.58          	11.678
MS.50          	16.547         	11.521
MS.51          	16.515         	11.684
MS.52          	16.48          	11.684
MS.53          	16.448         	11.68
MS.54          	16.415         	11.523
MS.55          	16.382         	11.521
MS.56          	16.35          	11.501
MS.57          	16.317         	11.509
MS.58          	16.285         	11.662
MS.59          	16.253         	11.491
MS.60          	16.22          	11.497
MS.61          	16.188         	11.491
MS.62          	16.155         	11.493
MS.63          	16.122         	11.493
MS.64          	16.09          	11.66
MS.65          	16.057         	11.475
MS.66          	16.025         	11.475
MS.67          	15.992         	11.467
MS.68          	15.962         	11.475
MS.69          	15.93          	11.483
MS.70          	15.898         	11.471
MS.71          	15.867         	11.467
MS.72          	15.835         	11.485
MS.73          	15.802         	11.487
MS.74          	15.773         	11.481
MS.75          	15.74          	11.491
MS.76          	15.707         	11.475
MS.77          	15.677         	11.483
MS.78          	15.645         	11.491
MS.79          	15.615         	11.477
MS.80          	15.582         	11.477
MS.81          	15.552         	11.459
MS.82          	15.52          	11.469
MS.83          	15.49          	11.469
MS.84          	15.46          	11.473
MS.85          	15.427         	11.477
MS.86          	15.398         	11.481
MS.87          	15.367         	11.463
MS.88          	15.335         	11.469
MS.89          	15.305         	11.473
MS.90          	15.275         	11.408
MS.91          	15.245         	11.386
MS.92          	15.212         	11.463
MS.93          	15.182         	11.394
MS.94          	15.152         	11.376
MS.95          	15.122         	11.398
MS.96          	15.092         	11.378
MS.97          	15.062         	11.368
MS.98          	15.032         	11.364
MS.99          	15.002         	11.35
MS.100         	14.972         	11.358
MS.101         	14.943         	11.348
MS.102         	14.912         	11.162
MS.103         	14.882         	11.189
MS.104         	14.852         	11.189
MS.105         	14.822         	11.104
MS.106         	14.792         	11.132
MS.107         	14.765         	11.102
MS.108         	14.735         	11.289
MS.109         	14.705         	11.13
MS.110         	14.675         	11.183
MS.111         	14.648         	11.078
MS.112         	14.617         	11.142
MS.113         	14.587         	11.086
MS.114         	14.56          	11.164
MS.115         	14.53          	11.11
MS.116         	14.5           	11.146
MS.117         	14.472         	11.021
MS.118         	14.443         	11.05
MS.119         	14.415         	11.13
MS.120         	14.385         	11.086
MS.121         	14.358         	11.277
MS.122         	14.327         	11.034
MS.123         	14.3           	11.048
MS.124         	14.27          	10.85
MS.125         	14.242         	10.981
MS.126         	14.212         	11.001
MS.127         	14.185         	10.665
MS.128         	14.157         	10.891
MS.129         	14.127         	10.864
MS.130         	14.1           	10.86
MS.131         	14.072         	10.733
MS.132         	14.045         	10.719
MS.133         	14.015         	10.596
MS.134         	13.987         	10.488
MS.135         	13.96          	10.53
MS.136         	13.932         	10.631
MS.137         	13.905         	10.341
MS.138         	13.877         	10.518
MS.139         	13.85          	10.353
MS.140         	13.82          	10.389
MS.141         	13.792         	10.19
MS.142         	13.765         	10.105
MS.143         	13.737         	10.272
MS.144         	13.71          	10.049
MS.145         	13.682         	9.892
MS.146         	13.655         	10.141
MS.147         	13.63          	9.966
MS.148         	13.602         	9.853
MS.149         	13.575         	9.759
MS.150         	13.547         	9.561
MS.151         	13.52          	9.803
MS.152         	13.492         	9.636
MS.153         	13.467         	9.555
MS.154         	13.44          	9.305
MS.155         	13.412         	9.342
MS.156         	13.385         	9.287
MS.157         	13.36          	9.273
MS.158         	13.332         	9.126
MS.159         	13.305         	9.223
MS.160         	13.28          	9.179
MS.161         	13.252         	9.124
MS.162         	13.225         	8.834
MS.163         	13.2           	9.448
MS.164         	13.172         	10.121
MS.165         	13.148         	9.841
MS.166         	13.12          	8.762
MS.167         	13.095         	8.627
MS.168         	13.068         	8.31
MS.169         	13.042         	8.286
MS.170         	13.015         	8.182
MS.171         	12.99          	8.204
MS.172         	12.965         	8.143
MS.173         	12.938         	8.32
MS.174         	12.912         	7.422
MS.175         	12.887         	7.501
MS.176         	12.86          	7.829
MS.177         	12.835         	7.753
MS.178         	12.81          	7.571
MS.179         	12.785         	7.662
MS.180         	12.757         	7.66
MS.181         	12.733         	7.207
MS.182         	12.707         	7.098
MS.183         	12.682         	6.661
MS.184         	12.657         	6.755
MS.185         	12.632         	6.449
MS.186         	12.608         	6.627
MS.187         	12.58          	5.914
MS.188         	12.555         	6.308
MS.189         	12.53          	6.29
MS.190         	12.505         	5.871
MS.191         	12.48          	5.779
MS.192         	12.455         	5.581
MS.193         	12.43          	5.559
MS.194         	12.405         	5.543
MS.195         	12.382         	5.203
MS.196         	12.358         	5.162
MS.197         	12.332         	5.358
MS.198         	12.307         	5.068
MS.199         	12.282         	4.647
MS.200         	12.257         	4.445
MS.201         	12.233         	4.608
MS.202         	12.21          	4.361
MS.203         	12.185         	4.477
MS.204         	12.16          	4.439
MS.205         	12.135         	4.445
MS.206         	12.113         	4.31
MS.207         	12.087         	3.887
MS.208         	12.062         	3.875
MS.209         	12.04          	3.922
MS.210         	12.015         	3.984
MS.211         	11.992         	4.038
MS.212         	11.967         	3.42
MS.213         	11.943         	3.329
MS.214         	11.92          	3.404
MS.215         	11.895         	3.398
MS.216         	11.872         	3.247
MS.217         	11.847         	2.83
MS.218         	11.825         	2.864
MS.219         	11.8           	2.485
MS.220         	11.778         	2.88
MS.221         	11.755         	2.536
MS.222         	11.73          	2.737
MS.223         	11.707         	2.61
MS.224         	11.682         	2.463
MS.225         	11.66          	2.794
MS.226         	11.637         	2.598
MS.227         	11.615         	2.425
MS.228         	11.59          	2.169
MS.229         	11.568         	2.298
MS.230         	11.545         	2.085
MS.231         	11.523         	2.34
MS.232         	11.497         	1.865
MS.233         	11.475         	2.193
MS.234         	11.452         	1.883
MS.235         	11.43          	1.785
MS.236         	11.407         	1.813
MS.237         	11.385         	1.881
MS.238         	11.36          	1.879
MS.239         	11.337         	1.885
MS.240         	11.315         	1.73
MS.241         	11.292         	1.565
MS.242         	11.27          	1.505
MS.243         	11.247         	1.732
MS.244         	11.225         	1.488
MS.245         	11.202         	1.597
MS.246         	11.18          	1.44
MS.247         	11.157         	1.275
MS.248         	11.135         	1.124
MS.249         	11.115         	1.211
MS.250         	11.092         	1.362
MS.251         	11.07          	1.305
MS.252         	11.047         	1.168
MS.253         	11.025         	0.927
MS.254         	11.002         	1.011
MS.255         	10.983         	0.961
MS.256         	10.96          	0.931
MS.257         	10.938         	0.848
MS.258         	10.915         	0.796
MS.259         	10.895         	0.757
MS.260         	10.872         	0.771
MS.261         	10.85          	0.759
MS.262         	10.827         	0.667
MS.263         	10.807         	0.655
MS.264         	10.785         	0.775
MS.265         	10.765         	0.616
MS.266         	10.742         	0.612
MS.267         	10.72          	0.683
MS.268         	10.7           	0.632
MS.269         	10.677         	0.58
MS.270         	10.657         	0.552
MS.271         	10.635         	0.562
MS.272         	10.615         	0.548
MS.273         	10.592         	0.566
MS.274         	10.573         	0.514
MS.275         	10.55          	0.52
MS.276         	10.53          	0.534
MS.277         	10.507         	0.522
MS.278         	10.488         	0.528
MS.279         	10.467         	0.518
MS.280         	10.445         	0.5
MS.281         	10.425         	0.491
MS.282         	10.405         	0.528
MS.283         	10.382         	0.504
MS.284         	10.363         	0.538
MS.285         	10.342         	0.518
MS.286         	10.32          	0.516
MS.287         	10.3           	0.495
MS.288         	10.28          	0.526
MS.289         	10.26          	0.5
MS.290         	10.24          	0.461
MS.291         	10.217         	0.473
MS.292         	10.198         	0.5
MS.293         	10.177         	0.485
MS.294         	10.157         	0.487
MS.295         	10.137         	0.502
MS.296         	10.117         	0.471
MS.297         	10.097         	0.497
MS.298         	10.077         	0.475
MS.299         	10.057         	0.471
MS.300         	10.035         	0.485
MS.301         	10.015         	0.463
MS.302         	9.995          	0.471
MS.303         	9.975          	0.459
MS.304         	9.955          	0.473
MS.305         	9.938          	0.451
MS.306         	9.917          	0.465
MS.307         	9.898          	0.463
MS.308         	9.877          	0.465
MS.309         	9.858          	0.463
MS.310         	9.837          	0.459
MS.311         	9.818          	0.463
MS.312         	9.797          	0.463
MS.313         	9.778          	0.425
MS.314         	9.76           	0.459
MS.315         	9.74           	0.443
MS.316         	9.72           	0.461
MS.317         	9.7            	0.467
MS.318         	9.682          	0.431
MS.319         	9.662          	0.435
MS.320         	9.642          	0.427
MS.321         	9.622          	0.435
MS.322         	9.605          	0.439
MS.323         	9.585          	0.459
MS.324         	9.565          	0.512
MS.325         	9.547          	0.506
MS.326         	9.528          	0.497
MS.327         	9.507          	0.524
MS.328         	9.49           	0.5
MS.329         	9.47           	0.502
MS.330         	9.452          	0.459
MS.331         	9.432          	0.443
MS.332         	9.415          	0.437
MS.333         	9.395          	0.437
MS.334         	9.377          	0.443
MS.335         	9.358          	0.439
MS.336         	9.34           	0.443
MS.337         	9.32           	0.387
MS.338         	9.302          	0.445
MS.339         	9.283          	0.403
MS.340         	9.265          	0.399
MS.341         	9.245          	0.445
MS.342         	9.227          	0.383
MS.343         	9.21           	0.393
MS.344         	9.19           	0.373
MS.345         	9.172          	0.379
MS.346         	9.155          	0.451
MS.347         	9.135          	0.375
MS.348         	9.117          	0.375
MS.349         	9.1            	0.373
MS.350         	9.08           	0.397
MS.351         	9.062          	0.375
MS.352         	9.045          	0.393
MS.353         	9.028          	0.393
MS.354         	9.01           	0.379
MS.355         	8.99           	0.377
MS.356         	8.972          	0.399
MS.357         	8.955          	0.373
MS.358         	8.938          	0.393
MS.359         	8.92           	0.377
MS.360         	8.903          	0.359
MS.361         	8.882          	0.359
MS.362         	8.865          	0.379
MS.363         	8.847          	0.363
MS.364         	8.83           	0.377
MS.365         	8.812          	0.381
MS.366         	8.795          	0.359
MS.367         	8.778          	0.373
MS.368         	8.76           	0.377
MS.369         	8.742          	0.379
MS.370         	8.725          	0.318
MS.371         	8.707          	0.367
MS.372         	8.69           	0.359
MS.373         	8.672          	0.316
MS.374         	8.655          	0.365
MS.375         	8.637          	0.322
MS.376         	8.62           	0.322
MS.377         	8.602          	0.32
MS.378         	8.587          	0.314
MS.379         	8.57           	0.322
MS.380         	8.552          	0.365
MS.381         	8.535          	0.32
MS.382         	8.517          	0.316
MS.383         	8.5            	0.367
MS.384         	8.485          	0.324
MS.385         	8.467          	0.316
MS.386         	8.45           	0.318
MS.387         	8.432          	0.314
MS.388         	8.417          	0.32
MS.389         	8.4            	0.25
MS.390         	8.382          	0.236
MS.391         	8.365          	0.322
MS.392         	8.35           	0.322
MS.393         	8.332          	0.25
MS.394         	8.315          	0.252
MS.395         	8.3            	0.32
MS.396         	8.283          	0.252
MS.397         	8.267          	0.252
MS.398         	8.25           	0.254
MS.399         	8.233          	0.254
MS.400         	8.217          	0.258
MS.401         	8.2            	0.25
MS.402         	8.185          	0.246
MS.403         	8.167          	0.25
MS.404         	8.153          	0.252
MS.405         	8.135          	0.137
MS.406         	8.12           	0.248
MS.407         	8.102          	0.256
MS.408         	8.087          	0.133
MS.409         	8.07           	0.133
MS.410         	8.055          	0.246
MS.411         	8.037          	0.131
MS.412         	8.023          	0.252
MS.413         	8.005          	0.252
MS.414         	7.99           	0.131
MS.415         	7.975          	0.25
MS.416         	7.957          	0.133
MS.417         	7.942          	0.135
MS.418         	7.927          	0.252
MS.419         	7.91           	0.131
MS.420         	7.895          	0.254
MS.421         	7.88           	0.129
MS.422         	7.862          	0.131
MS.423         	7.847          	0.133
MS.424         	7.832          	0.131
MS.425         	7.815          	0.133
MS.426         	7.8            	0.135
MS.427         	7.785          	0.139
MS.428         	7.77           	0.131
MS.429         	7.755          	0.135
MS.430         	7.737          	0.087
MS.431         	7.722          	0.133
MS.432         	7.707          	0.091
MS.433         	7.692          	0.127
MS.434         	7.677          	0.131
MS.435         	7.662          	0.135
MS.436         	7.645          	0.129
MS.437         	7.63           	0.133
MS.438         	7.615          	0.131
MS.439         	7.6            	0.135
MS.440         	7.585          	0.066
MS.441         	7.57           	0.105
MS.442         	7.555          	0.115
MS.443         	7.54           	0.131
MS.444         	7.525          	0.083
MS.445         	7.51           	0.077
MS.446         	7.495          	0.05
MS.447         	7.48           	0.089
MS.448         	7.465          	0.038
MS.449         	7.45           	0.087
MS.450         	7.435          	0.02
MS.451         	7.42           	0.052
MS.452         	7.405          	0.036
MS.453         	7.39           	0.022
MS.454         	7.375          	0.022
MS.455         	7.36           	0.034
MS.456         	7.347          	0.052
MS.457         	7.332          	0.05
MS.458         	7.317          	0.026
MS.459         	7.302          	0.022
MS.460         	7.287          	0.014
MS.461         	7.273          	0.024
MS.462         	7.257          	0.024
MS.463         	7.245          	0.022
MS.464         	7.23           	0.024
MS.465         	7.215          	0.026
MS.466         	7.2            	0.002
MS.467         	7.188          	0.022
MS.468         	7.172          	0.022
MS.469         	7.157          	0.048
MS.470         	7.142          	0.026
MS.471         	7.13           	0.02
MS.472         	7.115          	0.004
MS.473         	7.1            	0.002
MS.474         	7.087          	0.002
MS.475         	7.072          	0.004
MS.476         	7.057          	0.004
MS.477         	7.045          	0.002
MS.478         	7.03           	0.028
MS.479         	7.015          	0.002
MS.480         	7.003          	0.004
MS.481         	6.987          	0.002
MS.482         	6.975          	0.022
MS.483         	6.96           	0.016
MS.484         	6.945          	0.002
MS.485         	6.932          	0.006
MS.486         	6.918          	0.002
MS.487         	6.905          	0.022
MS.488         	6.89           	0.002
MS.489         	6.878          	0.002
DERIVED EXCITABILITY VARIABLES
Program = QTracP 3/4/2020
Threshold method = 6 (optimised for CAP, using data for present condition only)
SR method = 1 (using actual data values)
6.                 	0.000               	Peak response\(mV)
9.                 	32.4                	Temperature ( C)
17.                	45                  	Age (years)
18.                	1                   	Sex (M=1, F=2)

EXTRA VARIABLES

MScPeak(mV) = 11.73
MScS5(mA) = 10.68
MScS50(mA) = 12.5
MScS95(mA) = 14.61
MScNSteps = 8
MScSteps(%) = 23.9
MScStepMax(%) = 3.9
MScD50 = 29
MScSlope = 9.87
MSFPeakAmp(mV) = 11.7
MSFNUnits = 166
MSFMeanUnitAmp(uV) = 70.6
MSFHuntTime(m) = 2.82
MSFError(%) = 2.8
MSFNLarge = 47.42
MSFMedianAmp(%) = 0.462
MSFMedianAmp(mV) = 0.0542
MSFHalfAmpAmp(%) = 0.61
MSFHalfAmpAmp(mV) = 0.0715
MSFLargestAmp(%) = 4.22
MSFLargestAmp(mV) = 0.494
MSFMeanRS(%) = 2
MSFOpts = 10106121
MScDuration(min) = 4.5
MSFTraces = 473
MSFSizeLimit(uV) = 29.3
MSFLimitType = 1
MSFSmallestAmp(uV) = 29.6

EXTRA WAVEFORMS


!MScan Model
!166
	1	7.4	0.27	2
	2	7.5	0.79	2
	3	8.1	0.54	2
	4	8.2	0.71	2
	5	8.56	0.68	2
	6	8.9	0.39	2
	7	9.39	0.5	2
	8	10.23	0.41	2
	9	10.6	0.61	2
	10	10.75	0.43	2
	11	10.82	0.56	2
	12	10.86	0.41	2
	13	10.9	0.54	2
	14	10.92	0.25	2
	15	10.94	0.3	2
	16	10.96	0.3	2
	17	11	0.49	2
	18	11.01	0.33	2
	19	11.03	0.36	2
	20	11.05	0.37	2
	21	11.08	0.48	2
	22	11.1	0.57	2
	23	11.12	0.39	2
	24	11.12	0.44	2
	25	11.15	0.43	2
	26	11.17	0.39	2
	27	11.19	0.38	2
	28	11.21	0.4	2
	29	11.23	0.52	2
	30	11.29	1.19	2
	31	11.35	0.89	2
	32	11.4	0.7	2
	33	11.44	0.89	2
	34	11.47	0.51	2
	35	11.49	0.42	2
	36	11.52	0.48	2
	37	11.54	0.57	2
	38	11.57	0.64	2
	39	11.6	0.85	2
	40	11.67	1.18	2
	41	11.71	0.63	2
	42	11.74	0.73	2
	43	11.77	1.1	2
	44	11.8	0.89	2
	45	11.83	0.56	2
	46	11.85	0.56	2
	47	11.86	0.53	2
	48	11.88	0.55	2
	49	11.89	0.58	2
	50	11.91	0.63	2
	51	11.93	0.64	2
	52	11.94	0.64	2
	53	11.96	0.64	2
	54	11.98	0.67	2
	55	11.99	0.69	2
	56	12.01	0.75	2
	57	12.02	0.63	2
	58	12.04	0.54	2
	59	12.06	0.66	2
	60	12.07	0.46	2
	61	12.09	0.59	2
	62	12.11	0.55	2
	63	12.13	0.64	2
	64	12.15	0.62	2
	65	12.16	0.54	2
	66	12.17	0.39	2
	67	12.19	0.39	2
	68	12.2	0.39	2
	69	12.21	0.39	2
	70	12.22	0.43	2
	71	12.23	0.43	2
	72	12.25	0.41	2
	73	12.26	0.41	2
	74	12.27	0.44	2
	75	12.28	0.44	2
	76	12.29	0.44	2
	77	12.3	0.44	2
	78	12.32	0.46	2
	79	12.33	0.47	2
	80	12.34	0.46	2
	81	12.35	0.46	2
	82	12.37	0.49	2
	83	12.38	0.5	2
	84	12.39	0.54	2
	85	12.41	0.53	2
	86	12.42	0.41	2
	87	12.42	0.41	2
	88	12.43	0.41	2
	89	12.44	0.41	2
	90	12.45	0.41	2
	91	12.46	0.42	2
	92	12.47	0.42	2
	93	12.48	0.42	2
	94	12.49	0.42	2
	95	12.5	0.42	2
	96	12.51	0.42	2
	97	12.52	0.41	2
	98	12.53	0.41	2
	99	12.54	0.41	2
	100	12.55	0.41	2
	101	12.56	0.44	2
	102	12.57	0.51	2
	103	12.58	0.52	2
	104	12.59	0.57	2
	105	12.61	0.57	2
	106	12.62	0.64	2
	107	12.63	0.67	2
	108	12.64	0.61	2
	109	12.65	0.58	2
	110	12.67	1.01	2
	111	12.7	1.36	2
	112	12.73	0.99	2
	113	12.75	0.89	2
	114	12.78	1.02	2
	115	12.81	1.04	2
	116	12.88	2.77	2
	117	12.94	1.7	2
	118	12.99	1.71	2
	119	13.04	2.43	2
	120	13.17	4.22	2
	121	13.41	3.57	2
	122	13.43	0.41	2
	123	13.45	0.37	2
	124	13.47	0.32	2
	125	13.48	0.32	2
	126	13.5	0.31	2
	127	13.51	0.3	2
	128	13.53	0.3	2
	129	13.55	0.31	2
	130	13.56	0.32	2
	131	13.58	0.33	2
	132	13.59	0.33	2
	133	13.61	0.34	2
	134	13.63	0.36	2
	135	13.64	0.32	2
	136	13.66	0.3	2
	137	13.68	0.29	2
	138	13.7	0.32	2
	139	13.71	0.33	2
	140	13.73	0.34	2
	141	13.75	0.34	2
	142	13.77	0.32	2
	143	13.79	0.28	2
	144	13.81	0.27	2
	145	13.83	0.28	2
	146	13.84	0.3	2
	147	13.86	0.3	2
	148	13.89	0.37	2
	149	13.93	0.7	2
	150	13.97	0.67	2
	151	14	0.43	2
	152	14.04	0.38	2
	153	14.07	0.38	2
	154	14.1	0.37	2
	155	14.13	0.38	2
	156	14.18	0.6	2
	157	14.22	1.57	2
	158	14.76	0.94	2
	159	14.85	0.69	2
	160	15	0.62	2
	161	15.05	0.31	2
	162	15.14	0.46	2
	163	15.35	0.47	2
	164	16.26	0.87	2
	165	16.81	0.62	2
	166	16.81	0.41	2

