File:              	C:\Qtrac\Data\Daniel M Sørensen\MScan multicentre study\Data from centres\Oslo\IronKey\Oslo_NC_first examination\SZC00422C.QZD
Name:              	NO.OSL.NC.1.1
Protocol:          	MSCAN-R2
Date:              	22/4/20
Start time:        	08:10:00
Age:               	57
Sex:               	F
Temperature:       	32.0
S/R sites:         	Peroneal TA
NC/disease:        	NC
Operator:          	SZ
Comments:
M-SCAN DATA (10.3-2.6m)
Scanpts: 125, 137, 714, 725
Stim. (mA)     	Amp. (mV)
MS.1           	24.5           	7.33
MS.2           	24.5           	7.44
MS.3           	24.5           	7.344
MS.4           	24.5           	7.295
MS.5           	24.5           	7.319
MS.6           	24.5           	7.303
MS.7           	24.5           	7.225
MS.8           	24.5           	7.271
MS.9           	24.5           	7.251
MS.10          	24.5           	7.229
MS.11          	24.5           	7.241
MS.12          	24.5           	7.281
MS.13          	24.5           	7.237
MS.14          	24.5           	7.231
MS.15          	24.5           	7.213
MS.16          	24.5           	7.227
MS.17          	24.5           	7.221
MS.18          	24.5           	7.217
MS.19          	24.5           	7.223
MS.20          	24.5           	7.257
MS.21          	24.5           	7.209
MS.22          	24.5           	7.239
MS.23          	24.5           	7.207
MS.24          	24.403         	7.289
MS.25          	24.352         	7.191
MS.26          	24.305         	7.227
MS.27          	24.255         	7.203
MS.28          	24.207         	7.18
MS.29          	24.16          	7.18
MS.30          	24.11          	7.211
MS.31          	24.062         	7.158
MS.32          	24.015         	7.189
MS.33          	23.967         	7.158
MS.34          	23.92          	7.14
MS.35          	23.87          	7.164
MS.36          	23.823         	7.142
MS.37          	23.775         	7.182
MS.38          	23.727         	7.187
MS.39          	23.68          	7.118
MS.40          	23.632         	7.158
MS.41          	23.587         	7.187
MS.42          	23.54          	7.108
MS.43          	23.493         	7.156
MS.44          	23.445         	7.152
MS.45          	23.397         	7.128
MS.46          	23.352         	7.138
MS.47          	23.305         	7.158
MS.48          	23.257         	7.174
MS.49          	23.212         	7.13
MS.50          	23.165         	7.176
MS.51          	23.12          	7.154
MS.52          	23.073         	7.1
MS.53          	23.028         	7.172
MS.54          	22.98          	7.12
MS.55          	22.935         	7.118
MS.56          	22.89          	7.126
MS.57          	22.842         	7.134
MS.58          	22.797         	7.14
MS.59          	22.752         	7.134
MS.60          	22.707         	7.118
MS.61          	22.663         	7.102
MS.62          	22.618         	7.108
MS.63          	22.57          	7.12
MS.64          	22.525         	7.112
MS.65          	22.48          	7.124
MS.66          	22.435         	7.142
MS.67          	22.39          	7.128
MS.68          	22.347         	7.112
MS.69          	22.302         	7.108
MS.70          	22.257         	7.104
MS.71          	22.212         	7.126
MS.72          	22.167         	7.108
MS.73          	22.125         	7.116
MS.74          	22.08          	7.098
MS.75          	22.035         	7.13
MS.76          	21.993         	7.114
MS.77          	21.948         	7.106
MS.78          	21.905         	7.144
MS.79          	21.86          	7.092
MS.80          	21.817         	7.078
MS.81          	21.772         	7.052
MS.82          	21.73          	7.098
MS.83          	21.685         	7.158
MS.84          	21.642         	7.16
MS.85          	21.6           	7.13
MS.86          	21.557         	7.088
MS.87          	21.512         	7.122
MS.88          	21.47          	7.1
MS.89          	21.427         	7.076
MS.90          	21.385         	7.084
MS.91          	21.342         	7.08
MS.92          	21.3           	7.092
MS.93          	21.257         	7.039
MS.94          	21.215         	7.078
MS.95          	21.172         	7.096
MS.96          	21.13          	7.086
MS.97          	21.087         	7.118
MS.98          	21.045         	7.11
MS.99          	21.002         	7.132
MS.100         	20.96          	7.05
MS.101         	20.92          	7.066
MS.102         	20.877         	7.035
MS.103         	20.835         	7.094
MS.104         	20.795         	7.09
MS.105         	20.752         	7.056
MS.106         	20.71          	7.068
MS.107         	20.67          	7.056
MS.108         	20.627         	7.08
MS.109         	20.587         	7.056
MS.110         	20.545         	7.056
MS.111         	20.505         	7.058
MS.112         	20.465         	7.039
MS.113         	20.422         	7.07
MS.114         	20.382         	7.031
MS.115         	20.342         	7.066
MS.116         	20.3           	7.052
MS.117         	20.26          	7.046
MS.118         	20.22          	7.072
MS.119         	20.18          	7.052
MS.120         	20.14          	7.05
MS.121         	20.1           	7.072
MS.122         	20.06          	7.06
MS.123         	20.017         	7.06
MS.124         	19.977         	7.048
MS.125         	19.94          	7.06
MS.126         	19.9           	7.074
MS.127         	19.86          	7.072
MS.128         	19.82          	7.05
MS.129         	19.78          	7.062
MS.130         	19.74          	7.056
MS.131         	19.7           	7.068
MS.132         	19.663         	7.066
MS.133         	19.622         	7.082
MS.134         	19.583         	7.076
MS.135         	19.545         	7.05
MS.136         	19.505         	7.078
MS.137         	19.465         	7.058
MS.138         	19.427         	7.044
MS.139         	19.387         	7.1
MS.140         	19.35          	7.037
MS.141         	19.31          	7.039
MS.142         	19.272         	7.056
MS.143         	19.235         	7.048
MS.144         	19.195         	7.064
MS.145         	19.157         	7.076
MS.146         	19.118         	7.048
MS.147         	19.08          	7.072
MS.148         	19.042         	7.039
MS.149         	19.005         	7.027
MS.150         	18.967         	7.025
MS.151         	18.927         	7.019
MS.152         	18.89          	7.042
MS.153         	18.852         	7.037
MS.154         	18.815         	7.044
MS.155         	18.778         	7.042
MS.156         	18.74          	7.068
MS.157         	18.702         	7.039
MS.158         	18.665         	7.013
MS.159         	18.628         	7.011
MS.160         	18.59          	7.029
MS.161         	18.552         	7.042
MS.162         	18.517         	7.013
MS.163         	18.48          	7.098
MS.164         	18.442         	7.035
MS.165         	18.405         	7.058
MS.166         	18.37          	6.997
MS.167         	18.333         	7.074
MS.168         	18.295         	7.023
MS.169         	18.26          	7.025
MS.170         	18.222         	7.072
MS.171         	18.188         	7.062
MS.172         	18.15          	7.072
MS.173         	18.112         	7.007
MS.174         	18.077         	7.042
MS.175         	18.042         	7.046
MS.176         	18.005         	7.025
MS.177         	17.97          	7.048
MS.178         	17.932         	7.011
MS.179         	17.897         	7.058
MS.180         	17.862         	7.062
MS.181         	17.825         	7.056
MS.182         	17.79          	7.09
MS.183         	17.755         	7.025
MS.184         	17.72          	7.023
MS.185         	17.685         	7.066
MS.186         	17.65          	7.033
MS.187         	17.612         	7.009
MS.188         	17.577         	6.983
MS.189         	17.542         	7.027
MS.190         	17.507         	7.021
MS.191         	17.472         	7.009
MS.192         	17.438         	6.989
MS.193         	17.403         	6.983
MS.194         	17.368         	6.997
MS.195         	17.335         	7.009
MS.196         	17.3           	7.001
MS.197         	17.265         	6.981
MS.198         	17.23          	6.957
MS.199         	17.195         	6.951
MS.200         	17.163         	6.985
MS.201         	17.128         	6.951
MS.202         	17.092         	6.907
MS.203         	17.06          	6.937
MS.204         	17.025         	6.967
MS.205         	16.99          	6.933
MS.206         	16.958         	6.911
MS.207         	16.922         	6.939
MS.208         	16.89          	6.874
MS.209         	16.855         	6.876
MS.210         	16.823         	6.898
MS.211         	16.788         	6.927
MS.212         	16.755         	6.894
MS.213         	16.72          	6.898
MS.214         	16.688         	6.836
MS.215         	16.655         	6.82
MS.216         	16.62          	6.824
MS.217         	16.587         	6.713
MS.218         	16.555         	6.814
MS.219         	16.522         	6.762
MS.220         	16.487         	6.723
MS.221         	16.455         	6.653
MS.222         	16.422         	6.762
MS.223         	16.39          	6.725
MS.224         	16.358         	6.615
MS.225         	16.325         	6.578
MS.226         	16.292         	6.594
MS.227         	16.26          	6.633
MS.228         	16.227         	6.572
MS.229         	16.195         	6.633
MS.230         	16.163         	6.578
MS.231         	16.13          	6.623
MS.232         	16.097         	6.588
MS.233         	16.065         	6.568
MS.234         	16.032         	6.606
MS.235         	16.003         	6.574
MS.236         	15.97          	6.576
MS.237         	15.938         	6.596
MS.238         	15.905         	6.592
MS.239         	15.875         	6.61
MS.240         	15.842         	6.598
MS.241         	15.81          	6.578
MS.242         	15.78          	6.528
MS.243         	15.747         	6.526
MS.244         	15.715         	6.486
MS.245         	15.685         	6.451
MS.246         	15.652         	6.56
MS.247         	15.622         	6.474
MS.248         	15.59          	6.469
MS.249         	15.56          	6.544
MS.250         	15.527         	6.476
MS.251         	15.497         	6.469
MS.252         	15.467         	6.451
MS.253         	15.435         	6.461
MS.254         	15.405         	6.429
MS.255         	15.375         	6.351
MS.256         	15.342         	6.399
MS.257         	15.312         	6.373
MS.258         	15.282         	6.409
MS.259         	15.252         	6.407
MS.260         	15.22          	6.377
MS.261         	15.19          	6.401
MS.262         	15.16          	6.363
MS.263         	15.13          	6.341
MS.264         	15.1           	6.347
MS.265         	15.07          	6.326
MS.266         	15.04          	6.359
MS.267         	15.01          	6.304
MS.268         	14.98          	6.326
MS.269         	14.95          	6.318
MS.270         	14.92          	6.302
MS.271         	14.89          	6.282
MS.272         	14.86          	6.28
MS.273         	14.83          	6.252
MS.274         	14.8           	6.28
MS.275         	14.77          	6.234
MS.276         	14.742         	6.222
MS.277         	14.712         	6.24
MS.278         	14.682         	6.252
MS.279         	14.652         	6.208
MS.280         	14.625         	6.19
MS.281         	14.595         	6.196
MS.282         	14.565         	6.185
MS.283         	14.537         	6.194
MS.284         	14.507         	6.202
MS.285         	14.477         	6.107
MS.286         	14.45          	6.145
MS.287         	14.42          	6.208
MS.288         	14.392         	6.093
MS.289         	14.362         	6.089
MS.290         	14.335         	6.119
MS.291         	14.305         	6.004
MS.292         	14.278         	6.04
MS.293         	14.247         	6.03
MS.294         	14.22          	6.055
MS.295         	14.193         	5.994
MS.296         	14.162         	6.049
MS.297         	14.135         	5.986
MS.298         	14.108         	6.042
MS.299         	14.08          	6.004
MS.300         	14.05          	5.932
MS.301         	14.023         	5.928
MS.302         	13.995         	5.893
MS.303         	13.967         	5.986
MS.304         	13.938         	5.95
MS.305         	13.91          	5.901
MS.306         	13.882         	5.851
MS.307         	13.855         	5.895
MS.308         	13.827         	5.883
MS.309         	13.8           	5.918
MS.310         	13.773         	5.883
MS.311         	13.745         	5.815
MS.312         	13.717         	5.831
MS.313         	13.69          	5.763
MS.314         	13.662         	5.765
MS.315         	13.635         	5.716
MS.316         	13.608         	5.756
MS.317         	13.58          	5.74
MS.318         	13.555         	5.656
MS.319         	13.528         	5.674
MS.320         	13.5           	5.714
MS.321         	13.472         	5.718
MS.322         	13.445         	5.688
MS.323         	13.42          	5.712
MS.324         	13.392         	5.694
MS.325         	13.365         	5.607
MS.326         	13.337         	5.648
MS.327         	13.312         	5.638
MS.328         	13.285         	5.626
MS.329         	13.26          	5.632
MS.330         	13.233         	5.537
MS.331         	13.205         	5.605
MS.332         	13.18          	5.561
MS.333         	13.153         	5.517
MS.334         	13.127         	5.527
MS.335         	13.1           	5.605
MS.336         	13.075         	5.436
MS.337         	13.047         	5.462
MS.338         	13.023         	5.481
MS.339         	12.997         	5.533
MS.340         	12.97          	5.396
MS.341         	12.945         	5.392
MS.342         	12.917         	5.323
MS.343         	12.892         	5.472
MS.344         	12.867         	5.491
MS.345         	12.842         	5.418
MS.346         	12.815         	5.255
MS.347         	12.79          	5.249
MS.348         	12.765         	5.203
MS.349         	12.74          	5.301
MS.350         	12.712         	5.168
MS.351         	12.688         	5.168
MS.352         	12.662         	5.094
MS.353         	12.637         	5.172
MS.354         	12.613         	5.11
MS.355         	12.587         	5.122
MS.356         	12.562         	5.031
MS.357         	12.537         	5.197
MS.358         	12.512         	5.027
MS.359         	12.488         	5.078
MS.360         	12.462         	4.733
MS.361         	12.438         	4.935
MS.362         	12.412         	4.79
MS.363         	12.387         	4.953
MS.364         	12.363         	4.741
MS.365         	12.337         	4.931
MS.366         	12.312         	4.804
MS.367         	12.287         	4.743
MS.368         	12.265         	4.723
MS.369         	12.24          	4.701
MS.370         	12.215         	4.729
MS.371         	12.19          	4.685
MS.372         	12.167         	4.602
MS.373         	12.142         	4.653
MS.374         	12.117         	4.568
MS.375         	12.092         	4.427
MS.376         	12.07          	4.465
MS.377         	12.045         	4.413
MS.378         	12.02          	4.393
MS.379         	11.997         	4.262
MS.380         	11.972         	4.405
MS.381         	11.95          	4.308
MS.382         	11.925         	4.228
MS.383         	11.903         	4.218
MS.384         	11.877         	4.127
MS.385         	11.855         	4.248
MS.386         	11.83          	4.181
MS.387         	11.807         	4.067
MS.388         	11.782         	3.964
MS.389         	11.76          	3.962
MS.390         	11.735         	4.02
MS.391         	11.712         	3.982
MS.392         	11.69          	3.914
MS.393         	11.665         	3.891
MS.394         	11.642         	3.883
MS.395         	11.62          	3.752
MS.396         	11.595         	3.744
MS.397         	11.572         	3.777
MS.398         	11.55          	3.619
MS.399         	11.528         	3.712
MS.400         	11.502         	3.615
MS.401         	11.48          	3.66
MS.402         	11.457         	3.523
MS.403         	11.435         	3.434
MS.404         	11.412         	3.422
MS.405         	11.39          	3.301
MS.406         	11.367         	3.402
MS.407         	11.345         	3.323
MS.408         	11.32          	3.245
MS.409         	11.297         	3.335
MS.410         	11.275         	3.209
MS.411         	11.252         	3.299
MS.412         	11.23          	3.084
MS.413         	11.207         	3.146
MS.414         	11.185         	3.124
MS.415         	11.162         	3.062
MS.416         	11.142         	3.055
MS.417         	11.12          	3.055
MS.418         	11.097         	2.935
MS.419         	11.075         	2.906
MS.420         	11.052         	3.007
MS.421         	11.03          	2.854
MS.422         	11.007         	2.798
MS.423         	10.988         	2.87
MS.424         	10.965         	2.852
MS.425         	10.943         	2.888
MS.426         	10.92          	2.753
MS.427         	10.9           	2.677
MS.428         	10.877         	2.687
MS.429         	10.855         	2.574
MS.430         	10.835         	2.616
MS.431         	10.812         	2.516
MS.432         	10.79          	2.415
MS.433         	10.77          	2.419
MS.434         	10.747         	2.538
MS.435         	10.725         	2.413
MS.436         	10.705         	2.373
MS.437         	10.682         	2.371
MS.438         	10.662         	2.338
MS.439         	10.64          	2.276
MS.440         	10.62          	2.326
MS.441         	10.597         	2.123
MS.442         	10.577         	2.175
MS.443         	10.555         	2.103
MS.444         	10.535         	2.228
MS.445         	10.512         	2.157
MS.446         	10.492         	1.986
MS.447         	10.472         	2.032
MS.448         	10.45          	1.919
MS.449         	10.43          	1.996
MS.450         	10.41          	1.863
MS.451         	10.387         	1.839
MS.452         	10.367         	1.885
MS.453         	10.347         	1.76
MS.454         	10.325         	1.7
MS.455         	10.305         	1.77
MS.456         	10.285         	1.71
MS.457         	10.265         	1.734
MS.458         	10.245         	1.803
MS.459         	10.222         	1.67
MS.460         	10.202         	1.674
MS.461         	10.182         	1.573
MS.462         	10.162         	1.521
MS.463         	10.142         	1.503
MS.464         	10.122         	1.573
MS.465         	10.102         	1.557
MS.466         	10.08          	1.408
MS.467         	10.06          	1.424
MS.468         	10.04          	1.436
MS.469         	10.02          	1.454
MS.470         	10             	1.368
MS.471         	9.98           	1.37
MS.472         	9.96           	1.313
MS.473         	9.94           	1.352
MS.474         	9.92           	1.231
MS.475         	9.903          	1.237
MS.476         	9.882          	1.356
MS.477         	9.863          	1.174
MS.478         	9.842          	1.287
MS.479         	9.823          	1.231
MS.480         	9.802          	1.124
MS.481         	9.782          	1.102
MS.482         	9.762          	1.102
MS.483         	9.745          	1.154
MS.484         	9.725          	1.126
MS.485         	9.705          	1.047
MS.486         	9.685          	0.981
MS.487         	9.667          	1.033
MS.488         	9.648          	1.072
MS.489         	9.627          	0.965
MS.490         	9.608          	0.969
MS.491         	9.59           	0.955
MS.492         	9.57           	0.949
MS.493         	9.55           	0.933
MS.494         	9.532          	0.832
MS.495         	9.512          	0.888
MS.496         	9.495          	0.927
MS.497         	9.475          	0.912
MS.498         	9.455          	0.806
MS.499         	9.438          	0.788
MS.500         	9.417          	0.826
MS.501         	9.4            	0.802
MS.502         	9.38           	0.848
MS.503         	9.363          	0.759
MS.504         	9.342          	0.792
MS.505         	9.325          	0.693
MS.506         	9.305          	0.771
MS.507         	9.287          	0.721
MS.508         	9.27           	0.681
MS.509         	9.25           	0.747
MS.510         	9.233          	0.779
MS.511         	9.212          	0.699
MS.512         	9.195          	0.699
MS.513         	9.177          	0.755
MS.514         	9.158          	0.626
MS.515         	9.14           	0.54
MS.516         	9.122          	0.497
MS.517         	9.102          	0.62
MS.518         	9.085          	0.618
MS.519         	9.068          	0.59
MS.520         	9.05           	0.606
MS.521         	9.03           	0.508
MS.522         	9.012          	0.512
MS.523         	8.995          	0.483
MS.524         	8.977          	0.522
MS.525         	8.96           	0.449
MS.526         	8.94           	0.493
MS.527         	8.922          	0.429
MS.528         	8.905          	0.401
MS.529         	8.887          	0.407
MS.530         	8.87           	0.407
MS.531         	8.852          	0.437
MS.532         	8.835          	0.407
MS.533         	8.818          	0.352
MS.534         	8.8            	0.367
MS.535         	8.783          	0.359
MS.536         	8.765          	0.352
MS.537         	8.747          	0.375
MS.538         	8.73           	0.371
MS.539         	8.712          	0.35
MS.540         	8.695          	0.35
MS.541         	8.677          	0.342
MS.542         	8.66           	0.33
MS.543         	8.642          	0.274
MS.544         	8.625          	0.284
MS.545         	8.608          	0.274
MS.546         	8.59           	0.254
MS.547         	8.573          	0.276
MS.548         	8.557          	0.278
MS.549         	8.54           	0.232
MS.550         	8.523          	0.258
MS.551         	8.505          	0.306
MS.552         	8.488          	0.238
MS.553         	8.47           	0.218
MS.554         	8.455          	0.228
MS.555         	8.438          	0.246
MS.556         	8.42           	0.26
MS.557         	8.403          	0.216
MS.558         	8.387          	0.228
MS.559         	8.37           	0.183
MS.560         	8.352          	0.197
MS.561         	8.337          	0.193
MS.562         	8.32           	0.187
MS.563         	8.302          	0.211
MS.564         	8.287          	0.228
MS.565         	8.27           	0.22
MS.566         	8.255          	0.183
MS.567         	8.238          	0.191
MS.568         	8.22           	0.207
MS.569         	8.205          	0.193
MS.570         	8.188          	0.173
MS.571         	8.172          	0.183
MS.572         	8.155          	0.189
MS.573         	8.14           	0.183
MS.574         	8.122          	0.159
MS.575         	8.108          	0.153
MS.576         	8.09           	0.171
MS.577         	8.075          	0.197
MS.578         	8.057          	0.179
MS.579         	8.042          	0.179
MS.580         	8.025          	0.169
MS.581         	8.01           	0.173
MS.582         	7.995          	0.159
MS.583         	7.977          	0.179
MS.584         	7.962          	0.191
MS.585         	7.945          	0.181
MS.586         	7.93           	0.187
MS.587         	7.915          	0.143
MS.588         	7.898          	0.159
MS.589         	7.882          	0.169
MS.590         	7.867          	0.147
MS.591         	7.85           	0.139
MS.592         	7.835          	0.163
MS.593         	7.82           	0.143
MS.594         	7.805          	0.163
MS.595         	7.787          	0.143
MS.596         	7.773          	0.149
MS.597         	7.757          	0.149
MS.598         	7.742          	0.149
MS.599         	7.727          	0.143
MS.600         	7.71           	0.143
MS.601         	7.695          	0.141
MS.602         	7.68           	0.145
MS.603         	7.665          	0.135
MS.604         	7.65           	0.149
MS.605         	7.635          	0.145
MS.606         	7.62           	0.145
MS.607         	7.605          	0.137
MS.608         	7.59           	0.151
MS.609         	7.572          	0.135
MS.610         	7.557          	0.143
MS.611         	7.543          	0.147
MS.612         	7.527          	0.141
MS.613         	7.512          	0.131
MS.614         	7.497          	0.143
MS.615         	7.482          	0.141
MS.616         	7.467          	0.147
MS.617         	7.452          	0.143
MS.618         	7.438          	0.135
MS.619         	7.422          	0.137
MS.620         	7.41           	0.133
MS.621         	7.395          	0.139
MS.622         	7.38           	0.135
MS.623         	7.365          	0.131
MS.624         	7.35           	0.133
MS.625         	7.335          	0.133
MS.626         	7.32           	0.131
MS.627         	7.305          	0.135
MS.628         	7.29           	0.131
MS.629         	7.277          	0.139
MS.630         	7.262          	0.139
MS.631         	7.247          	0.109
MS.632         	7.233          	0.125
MS.633         	7.217          	0.099
MS.634         	7.205          	0.113
MS.635         	7.19           	0.121
MS.636         	7.175          	0.111
MS.637         	7.16           	0.099
MS.638         	7.148          	0.113
MS.639         	7.132          	0.101
MS.640         	7.117          	0.113
MS.641         	7.105          	0.117
MS.642         	7.09           	0.107
MS.643         	7.075          	0.105
MS.644         	7.062          	0.099
MS.645         	7.047          	0.093
MS.646         	7.032          	0.111
MS.647         	7.02           	0.111
MS.648         	7.005          	0.103
MS.649         	6.992          	0.121
MS.650         	6.977          	0.189
MS.651         	6.962          	0.292
MS.652         	6.95           	0.236
MS.653         	6.935          	0.216
MS.654         	6.922          	0.139
MS.655         	6.907          	0.093
MS.656         	6.895          	0.109
MS.657         	6.88           	0.131
MS.658         	6.867          	0.139
MS.659         	6.852          	0.119
MS.660         	6.84           	0.099
MS.661         	6.825          	0.131
MS.662         	6.812          	0.125
MS.663         	6.797          	0.103
MS.664         	6.785          	0.119
MS.665         	6.77           	0.123
MS.666         	6.757          	0.109
MS.667         	6.745          	0.125
MS.668         	6.73           	0.111
MS.669         	6.717          	0.119
MS.670         	6.705          	0.113
MS.671         	6.69           	0.107
MS.672         	6.677          	0.095
MS.673         	6.662          	0.111
MS.674         	6.65           	0.123
MS.675         	6.637          	0.087
MS.676         	6.625          	0.129
MS.677         	6.61           	0.119
MS.678         	6.597          	0.125
MS.679         	6.585          	0.123
MS.680         	6.57           	0.105
MS.681         	6.557          	0.105
MS.682         	6.545          	0.091
MS.683         	6.532          	0.101
MS.684         	6.517          	0.091
MS.685         	6.505          	0.105
MS.686         	6.492          	0.091
MS.687         	6.48           	0.101
MS.688         	6.467          	0.085
MS.689         	6.455          	0.095
MS.690         	6.44           	0.089
MS.691         	6.427          	0.093
MS.692         	6.415          	0.095
MS.693         	6.402          	0.095
MS.694         	6.39           	0.097
MS.695         	6.378          	0.095
MS.696         	6.365          	0.095
MS.697         	6.352          	0.093
MS.698         	6.338          	0.091
MS.699         	6.325          	0.091
MS.700         	6.312          	0.097
MS.701         	6.3            	0.087
MS.702         	6.287          	0.091
MS.703         	6.275          	0.105
MS.704         	6.262          	0.095
MS.705         	6.25           	0.095
MS.706         	6.237          	0.087
MS.707         	6.225          	0.097
MS.708         	6.213          	0.087
MS.709         	6.2            	0.089
MS.710         	6.188          	0.087
MS.711         	6.175          	0.089
MS.712         	6.162          	0.093
MS.713         	6.152          	0.095
MS.714         	6.14           	0.093
MS.715         	6.128          	0.087
MS.716         	6.115          	0.095
MS.717         	6.102          	0.083
MS.718         	6.09           	0.091
MS.719         	6.077          	0.085
MS.720         	6.065          	0.087
MS.721         	6.052          	0.093
MS.722         	6.043          	0.083
MS.723         	6.03           	0.087
MS.724         	6.017          	0.083
MS.725         	6.005          	0.091
MS.726         	5.992          	0.089
MS.727         	5.983          	0.083
MS.728         	5.97           	0.089
MS.729         	5.957          	0.089
MS.730         	5.945          	0.091
MS.731         	5.935          	0.091
MS.732         	5.922          	0.087
MS.733         	5.91           	0.087
MS.734         	5.898          	0.089
MS.735         	5.887          	0.087
MS.736         	5.875          	0.085
MS.737         	5.862          	0.125
MS.738         	5.852          	0.085
MS.739         	5.84           	0.085
MS.740         	5.827          	0.091
MS.741         	5.817          	0.091
MS.742         	5.805          	0.087
MS.743         	5.793          	0.079
MS.744         	5.782          	0.093
MS.745         	5.77           	0.083
MS.746         	5.757          	0.081
MS.747         	5.747          	0.085
MS.748         	5.735          	0.083
MS.749         	5.725          	0.085
MS.750         	5.713          	0.093
MS.751         	5.7            	0.085
MS.752         	5.69           	0.085
MS.753         	5.677          	0.087
MS.754         	5.668          	0.087
MS.755         	5.655          	0.087
MS.756         	5.645          	0.081
MS.757         	5.632          	0.085
MS.758         	5.622          	0.087
MS.759         	5.61           	0.081
MS.760         	5.6            	0.081
MS.761         	5.588          	0.081
MS.762         	5.577          	0.079
MS.763         	5.565          	0.081
MS.764         	5.555          	0.085
MS.765         	5.543          	0.083
MS.766         	5.532          	0.087
MS.767         	5.523          	0.083
MS.768         	5.51           	0.091
MS.769         	5.5            	0.085
MS.770         	5.487          	0.081
MS.771         	5.477          	0.085
MS.772         	5.467          	0.081
MS.773         	5.455          	0.083
MS.774         	5.445          	0.073
MS.775         	5.435          	0.085
MS.776         	5.422          	0.081
MS.777         	5.412          	0.081
MS.778         	5.402          	0.079
MS.779         	5.39           	0.085
MS.780         	5.38           	0.083
MS.781         	5.37           	0.079
MS.782         	5.358          	0.073
MS.783         	5.347          	0.077
MS.784         	5.338          	0.085
MS.785         	5.327          	0.079
MS.786         	5.315          	0.087
MS.787         	5.305          	0.073
MS.788         	5.295          	0.089
MS.789         	5.285          	0.083
MS.790         	5.273          	0.085
MS.791         	5.262          	0.081
MS.792         	5.253          	0.081
MS.793         	5.242          	0.081
MS.794         	5.233          	0.081
MS.795         	5.22           	0.083
MS.796         	5.21           	0.073
MS.797         	5.2            	0.081
MS.798         	5.19           	0.079
MS.799         	5.18           	0.087
MS.800         	5.17           	0.079
MS.801         	5.157          	0.075
MS.802         	5.148          	0.077
MS.803         	5.137          	0.085
MS.804         	5.128          	0.081
MS.805         	5.117          	0.085
MS.806         	5.108          	0.075
MS.807         	5.097          	0.081
MS.808         	5.088          	0.087
MS.809         	5.077          	0.083
MS.810         	5.068          	0.091
MS.811         	5.057          	0.077
DERIVED EXCITABILITY VARIABLES
Program = QTracP 3/4/2020
Threshold method = 6 (optimised for CAP, using data for present condition only)
SR method = 1 (using actual data values)
6.                 	0.000               	Peak response\(mV)
9.                 	32                  	Temperature ( C)
17.                	57                  	Age (years)
18.                	2                   	Sex (M=1, F=2)

EXTRA VARIABLES

MScPeak(mV) = 7.18
MScS5(mA) = 8.78
MScS50(mA) = 11.47
MScS95(mA) = 16.63
MScNSteps = 0
MScSteps(%) = 0.0
MScStepMax(%) = 0.0
MScD50 = 66
MScSlope = 4.39
MSFPeakAmp(mV) = 6.98
MSFNUnits = 176
MSFMeanUnitAmp(uV) = 39.6
MSFHuntTime(m) = 3.47
MSFError(%) = 2.55
MSFNLarge = 61.92
MSFMedianAmp(%) = 0.522
MSFMedianAmp(mV) = 0.0364
MSFHalfAmpAmp(%) = 0.587
MSFHalfAmpAmp(mV) = 0.0409
MSFLargestAmp(%) = 2.08
MSFLargestAmp(mV) = 0.145
MSFMeanRS(%) = 2
MSFOpts = 10106121
MScDuration(min) = 7.7
MSFTraces = 601
MSFSizeLimit(uV) = 17.4
MSFLimitType = 1
MSFSmallestAmp(uV) = 18.4

EXTRA WAVEFORMS


!MScan Model
!176
	1	6.55	0.37	2
	2	7.87	0.66	2
	3	8.37	0.82	2
	4	8.53	0.63	2
	5	8.6	0.44	2
	6	8.67	0.44	2
	7	8.77	0.72	2
	8	8.84	0.29	2
	9	8.87	0.28	2
	10	8.89	0.27	2
	11	8.92	0.26	2
	12	8.95	0.34	2
	13	9.06	1.11	2
	14	9.14	1.22	2
	15	9.23	0.86	2
	16	9.36	1.24	2
	17	9.43	0.67	2
	18	9.46	0.36	2
	19	9.5	0.41	2
	20	9.54	0.4	2
	21	9.57	0.49	2
	22	9.61	0.45	2
	23	9.63	0.37	2
	24	9.66	0.38	2
	25	9.69	0.4	2
	26	9.73	0.55	2
	27	9.78	0.7	2
	28	9.82	0.68	2
	29	9.86	0.6	2
	30	9.9	0.63	2
	31	9.93	0.58	2
	32	9.97	0.55	2
	33	10	0.56	2
	34	10.02	0.36	2
	35	10.04	0.34	2
	36	10.06	0.29	2
	37	10.09	0.37	2
	38	10.11	0.43	2
	39	10.15	0.64	2
	40	10.18	0.68	2
	41	10.22	0.68	2
	42	10.26	0.79	2
	43	10.3	0.7	2
	44	10.32	0.39	2
	45	10.34	0.31	2
	46	10.37	0.57	2
	47	10.39	0.5	2
	48	10.41	0.51	2
	49	10.43	0.63	2
	50	10.46	0.52	2
	51	10.48	0.38	2
	52	10.5	0.57	2
	53	10.53	0.59	2
	54	10.55	0.6	2
	55	10.58	0.65	2
	56	10.6	0.59	2
	57	10.63	0.6	2
	58	10.65	0.66	2
	59	10.68	0.36	2
	60	10.71	0.55	2
	61	10.73	0.48	2
	62	10.75	0.34	2
	63	10.76	0.34	2
	64	10.78	0.43	2
	65	10.8	0.46	2
	66	10.81	0.45	2
	67	10.83	0.45	2
	68	10.85	0.56	2
	69	10.87	0.61	2
	70	10.9	0.41	2
	71	10.92	0.47	2
	72	10.94	0.5	2
	73	10.97	0.78	2
	74	11.01	0.97	2
	75	11.05	0.63	2
	76	11.07	0.41	2
	77	11.09	0.38	2
	78	11.12	0.38	2
	79	11.14	0.46	2
	80	11.16	0.48	2
	81	11.19	0.67	2
	82	11.22	0.59	2
	83	11.25	0.56	2
	84	11.28	0.56	2
	85	11.31	0.46	2
	86	11.33	0.65	2
	87	11.36	0.71	2
	88	11.38	0.58	2
	89	11.4	0.47	2
	90	11.42	0.41	2
	91	11.44	0.51	2
	92	11.47	0.52	2
	93	11.49	0.46	2
	94	11.51	0.47	2
	95	11.52	0.51	2
	96	11.54	0.51	2
	97	11.56	0.61	2
	98	11.58	0.53	2
	99	11.6	0.4	2
	100	11.62	0.4	2
	101	11.64	0.39	2
	102	11.66	0.39	2
	103	11.68	0.36	2
	104	11.7	0.37	2
	105	11.71	0.42	2
	106	11.73	0.42	2
	107	11.76	0.63	2
	108	11.79	0.63	2
	109	11.82	0.59	2
	110	11.85	0.59	2
	111	11.88	0.61	2
	112	11.91	0.69	2
	113	11.94	0.73	2
	114	11.97	0.55	2
	115	11.99	0.28	2
	116	12	0.28	2
	117	12.02	0.28	2
	118	12.03	0.42	2
	119	12.05	0.4	2
	120	12.07	0.35	2
	121	12.08	0.28	2
	122	12.1	0.53	2
	123	12.13	0.66	2
	124	12.16	0.56	2
	125	12.19	0.53	2
	126	12.24	0.59	2
	127	12.24	0.4	2
	128	12.39	2.08	2
	129	12.5	2	2
	130	12.59	1.32	2
	131	12.62	0.57	2
	132	12.66	0.37	2
	133	12.7	0.6	2
	134	12.75	0.92	2
	135	12.82	0.79	2
	136	12.97	1.91	2
	137	13.05	0.56	2
	138	13.13	0.7	2
	139	13.21	0.62	2
	140	13.29	0.55	2
	141	13.36	0.48	2
	142	13.5	0.71	1.6
	143	13.58	0.45	2
	144	13.62	0.38	2
	145	13.66	0.37	2
	146	13.74	0.56	2
	147	13.79	0.45	2
	148	13.92	0.92	2
	149	14	0.38	2
	150	14.08	0.55	2
	151	14.17	0.48	2
	152	14.26	0.5	2
	153	14.34	0.62	2
	154	14.43	0.55	2
	155	14.5	0.45	2
	156	14.55	0.42	2
	157	14.66	0.41	2
	158	14.77	0.44	2
	159	14.85	0.35	2
	160	14.9	0.27	2
	161	14.98	0.34	2
	162	15.13	0.58	2
	163	15.29	0.63	2
	164	15.42	0.46	2
	165	15.59	0.87	2
	166	15.74	0.55	2
	167	16.33	0.75	2
	168	16.4	0.41	2
	169	16.47	0.59	2
	170	16.53	0.56	2
	171	16.68	1.69	2
	172	16.84	1.13	2
	173	17	0.89	2
	174	17.14	0.39	2
	175	17.38	0.54	2
	176	17.58	0.34	2

