File:              	C:\Qtrac\Data\CKMC00909C.QZD
Name:              	RHS02
Protocol:          	MSCAN-R2
Date:              	9/9/20
Start time:        	13:14:18
Age:               	34
Sex:               	F
Temperature:       	38.2
S/R sites:         	RMedian Wr-APB
NC/disease:        	NC
Operator:          	CK
Comments:          	CG
M-SCAN DATA (6.9-1.2m)
Scanpts: 137, 140, 598, 618
Stim. (mA)     	Amp. (mV)
MS.1           	12             	7.333
MS.2           	12             	7.349
MS.3           	12             	7.32
MS.4           	12             	7.32
MS.5           	12             	7.313
MS.6           	12             	7.294
MS.7           	12             	7.319
MS.8           	12             	7.326
MS.9           	12             	7.326
MS.10          	12             	7.319
MS.11          	12             	7.327
MS.12          	12             	7.32
MS.13          	12             	7.318
MS.14          	12             	7.325
MS.15          	12             	7.335
MS.16          	12             	7.316
MS.17          	12             	7.314
MS.18          	12             	7.314
MS.19          	12             	7.306
MS.20          	12             	7.315
MS.21          	12             	7.325
MS.22          	12             	7.319
MS.23          	12             	7.327
MS.24          	11.95          	7.323
MS.25          	11.93          	7.322
MS.26          	11.905         	7.319
MS.27          	11.88          	7.304
MS.28          	11.855         	7.289
MS.29          	11.835         	7.296
MS.30          	11.81          	7.292
MS.31          	11.785         	7.286
MS.32          	11.76          	7.302
MS.33          	11.74          	7.29
MS.34          	11.715         	7.281
MS.35          	11.69          	7.284
MS.36          	11.67          	7.284
MS.37          	11.645         	7.28
MS.38          	11.62          	7.294
MS.39          	11.6           	7.296
MS.40          	11.575         	7.315
MS.41          	11.555         	7.291
MS.42          	11.53          	7.292
MS.43          	11.505         	7.291
MS.44          	11.485         	7.289
MS.45          	11.46          	7.271
MS.46          	11.44          	7.286
MS.47          	11.415         	7.276
MS.48          	11.39          	7.265
MS.49          	11.37          	7.269
MS.50          	11.345         	7.262
MS.51          	11.325         	7.28
MS.52          	11.3           	7.283
MS.53          	11.28          	7.283
MS.54          	11.255         	7.276
MS.55          	11.235         	7.28
MS.56          	11.21          	7.282
MS.57          	11.19          	7.276
MS.58          	11.165         	7.271
MS.59          	11.145         	7.273
MS.60          	11.12          	7.273
MS.61          	11.1           	7.278
MS.62          	11.075         	7.26
MS.63          	11.055         	7.264
MS.64          	11.035         	7.266
MS.65          	11.01          	7.272
MS.66          	10.99          	7.253
MS.67          	10.965         	7.269
MS.68          	10.945         	7.256
MS.69          	10.925         	7.259
MS.70          	10.9           	7.249
MS.71          	10.88          	7.249
MS.72          	10.86          	7.26
MS.73          	10.835         	7.25
MS.74          	10.815         	7.249
MS.75          	10.795         	7.254
MS.76          	10.77          	7.249
MS.77          	10.75          	7.247
MS.78          	10.73          	7.251
MS.79          	10.705         	7.241
MS.80          	10.685         	7.25
MS.81          	10.665         	7.239
MS.82          	10.645         	7.248
MS.83          	10.62          	7.245
MS.84          	10.6           	7.233
MS.85          	10.58          	7.236
MS.86          	10.56          	7.244
MS.87          	10.535         	7.242
MS.88          	10.515         	7.236
MS.89          	10.495         	7.244
MS.90          	10.475         	7.234
MS.91          	10.455         	7.239
MS.92          	10.43          	7.243
MS.93          	10.41          	7.257
MS.94          	10.39          	7.239
MS.95          	10.37          	7.244
MS.96          	10.35          	7.249
MS.97          	10.33          	7.247
MS.98          	10.31          	7.252
MS.99          	10.285         	7.234
MS.100         	10.265         	7.23
MS.101         	10.245         	7.229
MS.102         	10.225         	7.234
MS.103         	10.205         	7.228
MS.104         	10.185         	7.239
MS.105         	10.165         	7.234
MS.106         	10.145         	7.245
MS.107         	10.125         	7.248
MS.108         	10.105         	7.244
MS.109         	10.085         	7.253
MS.110         	10.065         	7.246
MS.111         	10.045         	7.263
MS.112         	10.025         	7.249
MS.113         	10.005         	7.252
MS.114         	9.985          	7.256
MS.115         	9.965          	7.252
MS.116         	9.945          	7.241
MS.117         	9.925          	7.244
MS.118         	9.905          	7.247
MS.119         	9.885          	7.239
MS.120         	9.865          	7.227
MS.121         	9.845          	7.222
MS.122         	9.825          	7.237
MS.123         	9.805          	7.237
MS.124         	9.785          	7.222
MS.125         	9.765          	7.224
MS.126         	9.745          	7.233
MS.127         	9.725          	7.242
MS.128         	9.71           	7.227
MS.129         	9.69           	7.235
MS.130         	9.67           	7.225
MS.131         	9.65           	7.227
MS.132         	9.63           	7.229
MS.133         	9.61           	7.236
MS.134         	9.59           	7.242
MS.135         	9.575          	7.238
MS.136         	9.555          	7.25
MS.137         	9.535          	7.236
MS.138         	9.515          	7.231
MS.139         	9.495          	7.242
MS.140         	9.475          	7.245
MS.141         	9.46           	7.249
MS.142         	9.44           	7.237
MS.143         	9.42           	7.258
MS.144         	9.4            	7.247
MS.145         	9.385          	7.239
MS.146         	9.365          	7.232
MS.147         	9.345          	7.249
MS.148         	9.325          	7.24
MS.149         	9.31           	7.225
MS.150         	9.29           	7.245
MS.151         	9.27           	7.228
MS.152         	9.255          	7.233
MS.153         	9.235          	7.221
MS.154         	9.215          	7.234
MS.155         	9.195          	7.245
MS.156         	9.18           	7.235
MS.157         	9.16           	7.24
MS.158         	9.14           	7.249
MS.159         	9.125          	7.242
MS.160         	9.105          	7.24
MS.161         	9.09           	7.238
MS.162         	9.07           	7.236
MS.163         	9.05           	7.23
MS.164         	9.035          	7.223
MS.165         	9.015          	7.224
MS.166         	8.995          	7.238
MS.167         	8.98           	7.221
MS.168         	8.96           	7.241
MS.169         	8.945          	7.222
MS.170         	8.925          	7.21
MS.171         	8.91           	7.219
MS.172         	8.89           	7.223
MS.173         	8.87           	7.228
MS.174         	8.855          	7.22
MS.175         	8.835          	7.221
MS.176         	8.82           	7.219
MS.177         	8.8            	7.231
MS.178         	8.785          	7.232
MS.179         	8.765          	7.226
MS.180         	8.75           	7.219
MS.181         	8.73           	7.22
MS.182         	8.715          	7.235
MS.183         	8.695          	7.214
MS.184         	8.68           	7.225
MS.185         	8.66           	7.213
MS.186         	8.645          	7.234
MS.187         	8.625          	7.217
MS.188         	8.61           	7.221
MS.189         	8.595          	7.232
MS.190         	8.575          	7.23
MS.191         	8.56           	7.229
MS.192         	8.54           	7.225
MS.193         	8.525          	7.213
MS.194         	8.505          	7.226
MS.195         	8.49           	7.22
MS.196         	8.475          	7.206
MS.197         	8.455          	7.224
MS.198         	8.44           	7.218
MS.199         	8.42           	7.216
MS.200         	8.405          	7.225
MS.201         	8.39           	7.233
MS.202         	8.37           	7.228
MS.203         	8.355          	7.211
MS.204         	8.34           	7.222
MS.205         	8.32           	7.234
MS.206         	8.305          	7.215
MS.207         	8.29           	7.234
MS.208         	8.27           	7.236
MS.209         	8.255          	7.231
MS.210         	8.24           	7.216
MS.211         	8.225          	7.239
MS.212         	8.205          	7.239
MS.213         	8.19           	7.243
MS.214         	8.175          	7.137
MS.215         	8.155          	7.139
MS.216         	8.14           	7.139
MS.217         	8.125          	7.227
MS.218         	8.11           	7.135
MS.219         	8.09           	7.13
MS.220         	8.075          	7.136
MS.221         	8.06           	7.134
MS.222         	8.045          	7.14
MS.223         	8.03           	7.126
MS.224         	8.01           	7.125
MS.225         	7.995          	7.135
MS.226         	7.98           	7.14
MS.227         	7.965          	7.145
MS.228         	7.95           	7.133
MS.229         	7.93           	7.151
MS.230         	7.915          	7.144
MS.231         	7.9            	7.13
MS.232         	7.885          	7.217
MS.233         	7.87           	7.137
MS.234         	7.855          	7.137
MS.235         	7.835          	7.147
MS.236         	7.82           	7.147
MS.237         	7.805          	7.139
MS.238         	7.79           	7.137
MS.239         	7.775          	7.09
MS.240         	7.76           	7.128
MS.241         	7.745          	7.121
MS.242         	7.73           	7.102
MS.243         	7.715          	7.093
MS.244         	7.7            	7.03
MS.245         	7.68           	7.089
MS.246         	7.665          	7.144
MS.247         	7.65           	7.14
MS.248         	7.635          	7.045
MS.249         	7.62           	7.084
MS.250         	7.605          	7.07
MS.251         	7.59           	7.032
MS.252         	7.575          	7.108
MS.253         	7.56           	7.101
MS.254         	7.545          	7.083
MS.255         	7.53           	7.054
MS.256         	7.515          	7.096
MS.257         	7.5            	7.053
MS.258         	7.485          	7.04
MS.259         	7.47           	7.088
MS.260         	7.455          	7.066
MS.261         	7.44           	6.995
MS.262         	7.425          	7.063
MS.263         	7.41           	7.051
MS.264         	7.395          	7.037
MS.265         	7.38           	7.029
MS.266         	7.365          	7.013
MS.267         	7.35           	6.992
MS.268         	7.335          	6.99
MS.269         	7.32           	6.998
MS.270         	7.31           	6.997
MS.271         	7.295          	7.026
MS.272         	7.28           	7.018
MS.273         	7.265          	7.025
MS.274         	7.25           	7.008
MS.275         	7.235          	6.997
MS.276         	7.22           	6.942
MS.277         	7.205          	6.979
MS.278         	7.19           	6.993
MS.279         	7.175          	6.998
MS.280         	7.165          	7.003
MS.281         	7.15           	6.938
MS.282         	7.135          	6.935
MS.283         	7.12           	6.948
MS.284         	7.105          	6.932
MS.285         	7.09           	6.925
MS.286         	7.075          	6.924
MS.287         	7.065          	6.992
MS.288         	7.05           	6.911
MS.289         	7.035          	6.928
MS.290         	7.02           	6.94
MS.291         	7.005          	6.942
MS.292         	6.995          	6.898
MS.293         	6.98           	6.92
MS.294         	6.965          	6.592
MS.295         	6.95           	6.939
MS.296         	6.935          	6.829
MS.297         	6.925          	6.519
MS.298         	6.91           	6.833
MS.299         	6.895          	6.81
MS.300         	6.88           	6.613
MS.301         	6.87           	6.858
MS.302         	6.855          	6.572
MS.303         	6.84           	6.51
MS.304         	6.825          	6.407
MS.305         	6.815          	6.827
MS.306         	6.8            	6.468
MS.307         	6.785          	6.722
MS.308         	6.775          	6.379
MS.309         	6.76           	6.366
MS.310         	6.745          	6.714
MS.311         	6.73           	6.295
MS.312         	6.72           	6.409
MS.313         	6.705          	6.324
MS.314         	6.69           	6.326
MS.315         	6.68           	6.379
MS.316         	6.665          	6.332
MS.317         	6.65           	6.453
MS.318         	6.64           	6.039
MS.319         	6.625          	6.354
MS.320         	6.61           	6.071
MS.321         	6.6            	6.025
MS.322         	6.585          	6.27
MS.323         	6.575          	6.216
MS.324         	6.56           	6.227
MS.325         	6.545          	6.047
MS.326         	6.535          	5.997
MS.327         	6.52           	6.27
MS.328         	6.505          	5.897
MS.329         	6.495          	5.906
MS.330         	6.48           	6.219
MS.331         	6.47           	5.739
MS.332         	6.455          	5.935
MS.333         	6.44           	5.983
MS.334         	6.43           	5.969
MS.335         	6.415          	5.919
MS.336         	6.405          	5.397
MS.337         	6.39           	5.421
MS.338         	6.38           	5.896
MS.339         	6.365          	5.581
MS.340         	6.355          	5.424
MS.341         	6.34           	5.314
MS.342         	6.325          	5.421
MS.343         	6.315          	5.361
MS.344         	6.3            	5.536
MS.345         	6.29           	5.491
MS.346         	6.275          	5.547
MS.347         	6.265          	5.881
MS.348         	6.25           	5.349
MS.349         	6.24           	5.539
MS.350         	6.225          	4.989
MS.351         	6.215          	4.971
MS.352         	6.2            	5.177
MS.353         	6.19           	4.985
MS.354         	6.175          	5.033
MS.355         	6.165          	5.098
MS.356         	6.155          	4.498
MS.357         	6.14           	4.747
MS.358         	6.13           	5.03
MS.359         	6.115          	5.055
MS.360         	6.105          	4.997
MS.361         	6.09           	4.54
MS.362         	6.08           	4.813
MS.363         	6.065          	4.508
MS.364         	6.055          	4.781
MS.365         	6.045          	4.54
MS.366         	6.03           	4.564
MS.367         	6.02           	4.327
MS.368         	6.005          	4.642
MS.369         	5.995          	4.313
MS.370         	5.985          	4.322
MS.371         	5.97           	4.311
MS.372         	5.96           	4.214
MS.373         	5.945          	4.34
MS.374         	5.935          	4.213
MS.375         	5.925          	3.976
MS.376         	5.91           	4.039
MS.377         	5.9            	3.971
MS.378         	5.89           	3.782
MS.379         	5.875          	3.878
MS.380         	5.865          	4.096
MS.381         	5.855          	4.128
MS.382         	5.84           	3.889
MS.383         	5.83           	4.091
MS.384         	5.82           	3.912
MS.385         	5.805          	3.447
MS.386         	5.795          	3.62
MS.387         	5.785          	3.582
MS.388         	5.77           	3.209
MS.389         	5.76           	3.501
MS.390         	5.75           	3.359
MS.391         	5.735          	3.547
MS.392         	5.725          	3.375
MS.393         	5.715          	3.203
MS.394         	5.7            	3.631
MS.395         	5.69           	3.313
MS.396         	5.68           	3.232
MS.397         	5.67           	3.09
MS.398         	5.655          	3.255
MS.399         	5.645          	3.072
MS.400         	5.635          	2.833
MS.401         	5.625          	2.845
MS.402         	5.61           	3.077
MS.403         	5.6            	2.316
MS.404         	5.59           	2.784
MS.405         	5.58           	2.51
MS.406         	5.565          	2.643
MS.407         	5.555          	2.21
MS.408         	5.545          	2.435
MS.409         	5.535          	2.195
MS.410         	5.525          	2.49
MS.411         	5.51           	2.383
MS.412         	5.5            	2.125
MS.413         	5.49           	2.039
MS.414         	5.48           	2.502
MS.415         	5.47           	1.935
MS.416         	5.455          	2.019
MS.417         	5.445          	2.047
MS.418         	5.435          	1.971
MS.419         	5.425          	2.17
MS.420         	5.415          	2.093
MS.421         	5.405          	2.167
MS.422         	5.39           	1.805
MS.423         	5.38           	2.093
MS.424         	5.37           	1.703
MS.425         	5.36           	1.915
MS.426         	5.35           	1.725
MS.427         	5.34           	1.712
MS.428         	5.33           	1.553
MS.429         	5.315          	1.576
MS.430         	5.305          	1.613
MS.431         	5.295          	1.617
MS.432         	5.285          	1.432
MS.433         	5.275          	1.449
MS.434         	5.265          	1.428
MS.435         	5.255          	1.451
MS.436         	5.245          	1.442
MS.437         	5.235          	1.478
MS.438         	5.22           	1.432
MS.439         	5.21           	1.478
MS.440         	5.2            	1.232
MS.441         	5.19           	1.485
MS.442         	5.18           	1.273
MS.443         	5.17           	1.387
MS.444         	5.16           	1.259
MS.445         	5.15           	1.462
MS.446         	5.14           	1.262
MS.447         	5.13           	1.401
MS.448         	5.12           	1.247
MS.449         	5.11           	1.199
MS.450         	5.1            	1.165
MS.451         	5.09           	1.066
MS.452         	5.08           	1.277
MS.453         	5.07           	1.124
MS.454         	5.06           	1.158
MS.455         	5.05           	1.157
MS.456         	5.035          	1.084
MS.457         	5.025          	1.05
MS.458         	5.015          	0.925
MS.459         	5.005          	1.082
MS.460         	4.995          	1.073
MS.461         	4.985          	1.053
MS.462         	4.975          	0.863
MS.463         	4.965          	0.937
MS.464         	4.96           	0.746
MS.465         	4.95           	0.754
MS.466         	4.94           	0.922
MS.467         	4.93           	0.87
MS.468         	4.92           	0.71
MS.469         	4.91           	0.728
MS.470         	4.9            	0.837
MS.471         	4.89           	0.836
MS.472         	4.88           	0.779
MS.473         	4.87           	0.621
MS.474         	4.86           	0.599
MS.475         	4.85           	0.747
MS.476         	4.84           	0.678
MS.477         	4.83           	0.667
MS.478         	4.82           	0.623
MS.479         	4.81           	0.587
MS.480         	4.8            	0.621
MS.481         	4.79           	0.643
MS.482         	4.78           	0.56
MS.483         	4.775          	0.505
MS.484         	4.765          	0.503
MS.485         	4.755          	0.698
MS.486         	4.745          	0.67
MS.487         	4.735          	0.667
MS.488         	4.725          	0.502
MS.489         	4.715          	0.406
MS.490         	4.705          	0.388
MS.491         	4.695          	0.442
MS.492         	4.69           	0.463
MS.493         	4.68           	0.344
MS.494         	4.67           	0.388
MS.495         	4.66           	0.379
MS.496         	4.65           	0.344
MS.497         	4.64           	0.369
MS.498         	4.63           	0.276
MS.499         	4.62           	0.272
MS.500         	4.615          	0.359
MS.501         	4.605          	0.341
MS.502         	4.595          	0.357
MS.503         	4.585          	0.25
MS.504         	4.575          	0.252
MS.505         	4.565          	0.228
MS.506         	4.56           	0.248
MS.507         	4.55           	0.295
MS.508         	4.54           	0.334
MS.509         	4.53           	0.265
MS.510         	4.52           	0.196
MS.511         	4.515          	0.297
MS.512         	4.505          	0.24
MS.513         	4.495          	0.259
MS.514         	4.485          	0.232
MS.515         	4.475          	0.217
MS.516         	4.47           	0.188
MS.517         	4.46           	0.151
MS.518         	4.45           	0.127
MS.519         	4.44           	0.241
MS.520         	4.43           	0.21
MS.521         	4.425          	0.17
MS.522         	4.415          	0.177
MS.523         	4.405          	0.139
MS.524         	4.395          	0.062
MS.525         	4.39           	0.084
MS.526         	4.38           	0.139
MS.527         	4.37           	0.116
MS.528         	4.36           	0.136
MS.529         	4.355          	0.11
MS.530         	4.345          	0.079
MS.531         	4.335          	0.063
MS.532         	4.325          	0.052
MS.533         	4.32           	0.076
MS.534         	4.31           	0.082
MS.535         	4.3            	0.025
MS.536         	4.295          	0.037
MS.537         	4.285          	0.042
MS.538         	4.275          	0.051
MS.539         	4.265          	0.009
MS.540         	4.26           	0.005
MS.541         	4.25           	0.043
MS.542         	4.24           	0.055
MS.543         	4.235          	0.037
MS.544         	4.225          	0.027
MS.545         	4.215          	0.006
MS.546         	4.21           	0.018
MS.547         	4.2            	0.016
MS.548         	4.19           	0.039
MS.549         	4.18           	0.027
MS.550         	4.175          	0.072
MS.551         	4.165          	0.029
MS.552         	4.155          	0.044
MS.553         	4.15           	0.012
MS.554         	4.14           	0.038
MS.555         	4.135          	0.018
MS.556         	4.125          	0.032
MS.557         	4.115          	0.005
MS.558         	4.11           	-0.011
MS.559         	4.1            	0.021
MS.560         	4.09           	0.001
MS.561         	4.085          	0.009
MS.562         	4.075          	0.012
MS.563         	4.065          	-0.015
MS.564         	4.06           	0.005
MS.565         	4.05           	0.003
MS.566         	4.045          	0.004
MS.567         	4.035          	-0.013
MS.568         	4.025          	0.002
MS.569         	4.02           	-0.015
MS.570         	4.01           	-0.002
MS.571         	4              	-0.013
MS.572         	3.995          	0.002
MS.573         	3.985          	-0.009
MS.574         	3.98           	-0.009
MS.575         	3.97           	-0.016
MS.576         	3.965          	0.01
MS.577         	3.955          	0.006
MS.578         	3.945          	-0.019
MS.579         	3.94           	-0.016
MS.580         	3.93           	-0.014
MS.581         	3.925          	0.001
MS.582         	3.915          	-0.015
MS.583         	3.91           	-0.014
MS.584         	3.9            	0.005
MS.585         	3.89           	0.002
MS.586         	3.885          	-0.018
MS.587         	3.875          	-0.014
MS.588         	3.87           	-0.017
MS.589         	3.86           	-0.012
MS.590         	3.855          	-0.015
MS.591         	3.845          	-0.015
MS.592         	3.84           	-0.02
MS.593         	3.83           	-0.017
MS.594         	3.82           	-0.014
MS.595         	3.815          	-0.018
MS.596         	3.805          	-0.018
MS.597         	3.8            	-0.013
MS.598         	3.79           	-0.02
MS.599         	3.785          	-0.018
MS.600         	3.775          	-0.01
MS.601         	3.77           	-0.021
MS.602         	3.76           	-0.013
MS.603         	3.755          	-0.012
MS.604         	3.745          	-0.016
MS.605         	3.74           	-0.013
MS.606         	3.73           	-0.018
MS.607         	3.725          	-0.013
MS.608         	3.715          	-0.013
MS.609         	3.71           	-0.015
MS.610         	3.7            	-0.015
MS.611         	3.695          	-0.014
MS.612         	3.685          	-0.017
MS.613         	3.68           	-0.017
MS.614         	3.675          	-0.02
MS.615         	3.665          	-0.013
MS.616         	3.66           	-0.016
MS.617         	3.65           	-0.015
MS.618         	3.645          	-0.013
DERIVED EXCITABILITY VARIABLES
Program = QTracP 6/7/2018
Threshold method = 6 (optimised for CAP, using data for present condition only)
SR method = 1 (using actual data values)
6.                 	0.000               	Peak response\(mV)
9.                 	38.2                	Temperature ( C)
17.                	34                  	Age (years)
18.                	2                   	Sex (M=1, F=2)

EXTRA VARIABLES

MScPeak(mV) = 7.34
MScS5(mA) = 4.66
MScS50(mA) = 5.81
MScS95(mA) = 7.14
MScNSteps = 4
MScSteps(%) = 9.4
MScStepMax(%) = 3.1
MSFPeakAmp(mV) = 7.25
MSFNUnits = 73
MSFMeanUnitAmp(uV) = 99.4
MSFHuntTime(m) = 2.79
MSFError(%) = 2.8
MSFNLarge = 20.27
MSFMedianAmp(%) = 1.23
MSFMedianAmp(mV) = 0.0892
MSFHalfAmpAmp(%) = 1.7
MSFHalfAmpAmp(mV) = 0.123
MSFLargestAmp(%) = 3.91
MSFLargestAmp(mV) = 0.283
MSFMeanRS(%) = 2.01
MSFOpts = 10106121
MScDuration(min) = 5.7
MSFTraces = 482
MSFSizeLimit(uV) = 19.9
MSFLimitType = 3
MSFSmallestAmp(uV) = 20.4

EXTRA WAVEFORMS


!MScan Model
!73
	1	4.08	0.36	2
	2	4.27	0.52	2
	3	4.31	0.29	2
	4	4.34	0.35	2
	5	4.4	0.58	2
	6	4.42	0.37	2
	7	4.47	0.57	2
	8	4.53	0.69	2
	9	4.58	0.64	2
	10	4.63	0.8	2
	11	4.67	0.94	2
	12	4.71	0.7	2
	13	4.76	0.98	2
	14	4.83	1.8	2
	15	4.88	0.92	2
	16	4.91	0.82	2
	17	4.93	0.64	2
	18	4.95	0.74	2
	19	4.98	0.76	2
	20	5	0.74	2
	21	5.03	0.79	2
	22	5.05	0.86	2
	23	5.09	1.07	2
	24	5.13	1.1	2
	25	5.19	1.38	2
	26	5.24	1.13	2
	27	5.24	0.28	2
	28	5.27	1.09	2
	29	5.29	1.02	2
	30	5.32	1.14	2
	31	5.35	1.06	2
	32	5.38	1.48	2
	33	5.42	1.27	2
	34	5.47	3.13	2
	35	5.51	2.14	2
	36	5.54	1.7	2
	37	5.56	1.33	2
	38	5.58	1.71	2
	39	5.61	1.57	2
	40	5.63	1.53	2
	41	5.66	1.94	2
	42	5.69	1.93	2
	43	5.72	2.8	2
	44	5.76	2.25	2
	45	5.8	1.89	2
	46	5.82	1.48	2
	47	5.85	1.32	2
	48	5.88	1.5	2
	49	5.91	1.59	2
	50	5.93	1.33	2
	51	5.96	1.23	2
	52	5.98	1.31	2
	53	6.01	1.43	2
	54	6.04	1.35	2
	55	6.08	2.04	2
	56	6.13	2.2	2
	57	6.18	2.9	2
	58	6.25	2.94	2
	59	6.33	3.65	2
	60	6.43	3.91	2
	61	6.49	1.5	2
	62	6.69	2.99	2.4
	63	6.71	2.14	2
	64	6.73	2.59	2
	65	6.77	2.07	2
	66	6.87	2.52	2
	67	7.19	1.08	2
	68	7.3	0.44	2
	69	7.37	0.3	2
	70	7.52	0.51	2
	71	7.76	0.57	2
	72	8.1	0.91	2
	73	8.22	0.4	2

