File:              	C:\Qtrac\Data\CKMC01111E.QZD
Name:              	RHS08
Protocol:          	MSCAN-R2
Date:              	11/11/20
Start time:        	11:16:37
Age:               	65
Sex:               	F
Temperature:       	37.8
S/R sites:         	RMedian Wr-APB
NC/disease:        	NC
Operator:          	CK
Comments:          	CG 0.2%
M-SCAN DATA (8-1.4m)
Scanpts: 58, 66, 685, 705
Stim. (mA)     	Amp. (mV)
MS.1           	13             	4.669
MS.2           	13             	4.686
MS.3           	13             	4.668
MS.4           	13             	4.636
MS.5           	13             	4.588
MS.6           	13             	4.593
MS.7           	13             	4.621
MS.8           	13             	4.632
MS.9           	13             	4.647
MS.10          	13             	4.616
MS.11          	13             	4.611
MS.12          	13             	4.606
MS.13          	13             	4.613
MS.14          	13             	4.617
MS.15          	13             	4.634
MS.16          	13             	4.659
MS.17          	13             	4.681
MS.18          	13             	4.658
MS.19          	13             	4.66
MS.20          	13             	4.662
MS.21          	13             	4.631
MS.22          	13             	4.644
MS.23          	13             	4.64
MS.24          	12.95          	4.635
MS.25          	12.92          	4.632
MS.26          	12.895         	4.62
MS.27          	12.87          	4.619
MS.28          	12.845         	4.611
MS.29          	12.82          	4.638
MS.30          	12.795         	4.626
MS.31          	12.77          	4.625
MS.32          	12.745         	4.619
MS.33          	12.715         	4.622
MS.34          	12.69          	4.637
MS.35          	12.665         	4.628
MS.36          	12.64          	4.646
MS.37          	12.615         	4.63
MS.38          	12.59          	4.632
MS.39          	12.565         	4.657
MS.40          	12.54          	4.655
MS.41          	12.515         	4.659
MS.42          	12.49          	4.659
MS.43          	12.465         	4.679
MS.44          	12.44          	4.658
MS.45          	12.415         	4.669
MS.46          	12.39          	4.676
MS.47          	12.365         	4.689
MS.48          	12.34          	4.698
MS.49          	12.315         	4.7
MS.50          	12.29          	4.706
MS.51          	12.265         	4.7
MS.52          	12.245         	4.709
MS.53          	12.22          	4.7
MS.54          	12.195         	4.685
MS.55          	12.17          	4.684
MS.56          	12.145         	4.693
MS.57          	12.12          	4.692
MS.58          	12.095         	4.694
MS.59          	12.075         	4.716
MS.60          	12.05          	4.683
MS.61          	12.025         	4.702
MS.62          	12             	4.697
MS.63          	11.975         	4.686
MS.64          	11.955         	4.698
MS.65          	11.93          	4.704
MS.66          	11.905         	4.7
MS.67          	11.88          	4.684
MS.68          	11.855         	4.688
MS.69          	11.835         	4.684
MS.70          	11.81          	4.684
MS.71          	11.785         	4.689
MS.72          	11.765         	4.712
MS.73          	11.74          	4.687
MS.74          	11.715         	4.697
MS.75          	11.69          	4.69
MS.76          	11.67          	4.68
MS.77          	11.645         	4.688
MS.78          	11.625         	4.687
MS.79          	11.6           	4.704
MS.80          	11.575         	4.702
MS.81          	11.555         	4.725
MS.82          	11.53          	4.706
MS.83          	11.505         	4.678
MS.84          	11.485         	4.67
MS.85          	11.46          	4.672
MS.86          	11.44          	4.672
MS.87          	11.415         	4.668
MS.88          	11.39          	4.675
MS.89          	11.37          	4.68
MS.90          	11.345         	4.675
MS.91          	11.325         	4.648
MS.92          	11.3           	4.656
MS.93          	11.28          	4.636
MS.94          	11.255         	4.637
MS.95          	11.235         	4.647
MS.96          	11.21          	4.646
MS.97          	11.19          	4.645
MS.98          	11.165         	4.642
MS.99          	11.145         	4.627
MS.100         	11.12          	4.642
MS.101         	11.1           	4.639
MS.102         	11.08          	4.659
MS.103         	11.055         	4.673
MS.104         	11.035         	4.658
MS.105         	11.01          	4.642
MS.106         	10.99          	4.656
MS.107         	10.97          	4.654
MS.108         	10.945         	4.654
MS.109         	10.925         	4.668
MS.110         	10.9           	4.653
MS.111         	10.88          	4.669
MS.112         	10.86          	4.645
MS.113         	10.835         	4.653
MS.114         	10.815         	4.651
MS.115         	10.795         	4.656
MS.116         	10.77          	4.663
MS.117         	10.75          	4.645
MS.118         	10.73          	4.644
MS.119         	10.71          	4.644
MS.120         	10.685         	4.643
MS.121         	10.665         	4.65
MS.122         	10.645         	4.637
MS.123         	10.62          	4.63
MS.124         	10.6           	4.604
MS.125         	10.58          	4.609
MS.126         	10.56          	4.614
MS.127         	10.54          	4.63
MS.128         	10.515         	4.619
MS.129         	10.495         	4.622
MS.130         	10.475         	4.601
MS.131         	10.455         	4.623
MS.132         	10.435         	4.619
MS.133         	10.41          	4.615
MS.134         	10.39          	4.621
MS.135         	10.37          	4.601
MS.136         	10.35          	4.619
MS.137         	10.33          	4.601
MS.138         	10.31          	4.606
MS.139         	10.29          	4.616
MS.140         	10.265         	4.623
MS.141         	10.245         	4.614
MS.142         	10.225         	4.612
MS.143         	10.205         	4.62
MS.144         	10.185         	4.623
MS.145         	10.165         	4.615
MS.146         	10.145         	4.634
MS.147         	10.125         	4.605
MS.148         	10.105         	4.61
MS.149         	10.085         	4.608
MS.150         	10.065         	4.598
MS.151         	10.045         	4.609
MS.152         	10.025         	4.612
MS.153         	10.005         	4.617
MS.154         	9.985          	4.594
MS.155         	9.965          	4.604
MS.156         	9.945          	4.589
MS.157         	9.925          	4.619
MS.158         	9.905          	4.604
MS.159         	9.885          	4.597
MS.160         	9.865          	4.622
MS.161         	9.845          	4.608
MS.162         	9.825          	4.595
MS.163         	9.805          	4.601
MS.164         	9.785          	4.582
MS.165         	9.765          	4.591
MS.166         	9.745          	4.572
MS.167         	9.725          	4.603
MS.168         	9.71           	4.575
MS.169         	9.69           	4.59
MS.170         	9.67           	4.603
MS.171         	9.65           	4.588
MS.172         	9.63           	4.592
MS.173         	9.61           	4.376
MS.174         	9.59           	4.363
MS.175         	9.575          	4.38
MS.176         	9.555          	4.348
MS.177         	9.535          	4.358
MS.178         	9.515          	4.353
MS.179         	9.495          	4.369
MS.180         	9.48           	4.583
MS.181         	9.46           	4.369
MS.182         	9.44           	4.156
MS.183         	9.42           	4.383
MS.184         	9.4            	4.135
MS.185         	9.385          	4.151
MS.186         	9.365          	4.161
MS.187         	9.345          	4.158
MS.188         	9.325          	4.348
MS.189         	9.31           	4.163
MS.190         	9.29           	4.156
MS.191         	9.27           	4.363
MS.192         	9.255          	4.145
MS.193         	9.235          	4.139
MS.194         	9.215          	4.109
MS.195         	9.2            	4.132
MS.196         	9.18           	4.135
MS.197         	9.16           	4.128
MS.198         	9.145          	4.099
MS.199         	9.125          	4.117
MS.200         	9.105          	4.129
MS.201         	9.09           	4.116
MS.202         	9.07           	4.137
MS.203         	9.05           	4.125
MS.204         	9.035          	4.13
MS.205         	9.015          	4.116
MS.206         	8.995          	4.103
MS.207         	8.98           	4.105
MS.208         	8.96           	4.12
MS.209         	8.945          	4.083
MS.210         	8.925          	4.096
MS.211         	8.91           	4.065
MS.212         	8.89           	4.056
MS.213         	8.87           	4.031
MS.214         	8.855          	4.049
MS.215         	8.835          	3.981
MS.216         	8.82           	4.033
MS.217         	8.8            	4.041
MS.218         	8.785          	4.001
MS.219         	8.765          	3.975
MS.220         	8.75           	3.972
MS.221         	8.73           	3.967
MS.222         	8.715          	3.998
MS.223         	8.695          	4.012
MS.224         	8.68           	3.947
MS.225         	8.66           	3.998
MS.226         	8.645          	3.965
MS.227         	8.625          	3.751
MS.228         	8.61           	3.947
MS.229         	8.595          	3.95
MS.230         	8.575          	3.647
MS.231         	8.56           	3.688
MS.232         	8.54           	3.789
MS.233         	8.525          	3.735
MS.234         	8.505          	3.77
MS.235         	8.49           	3.709
MS.236         	8.475          	3.513
MS.237         	8.455          	3.63
MS.238         	8.44           	3.527
MS.239         	8.425          	3.507
MS.240         	8.405          	3.682
MS.241         	8.39           	3.725
MS.242         	8.37           	3.495
MS.243         	8.355          	3.477
MS.244         	8.34           	3.511
MS.245         	8.32           	3.467
MS.246         	8.305          	3.662
MS.247         	8.29           	3.486
MS.248         	8.275          	3.42
MS.249         	8.255          	3.398
MS.250         	8.24           	3.45
MS.251         	8.225          	3.481
MS.252         	8.205          	3.363
MS.253         	8.19           	3.412
MS.254         	8.175          	3.415
MS.255         	8.16           	3.414
MS.256         	8.14           	3.374
MS.257         	8.125          	3.433
MS.258         	8.11           	3.278
MS.259         	8.095          	3.415
MS.260         	8.075          	3.276
MS.261         	8.06           	3.167
MS.262         	8.045          	3.28
MS.263         	8.03           	3.311
MS.264         	8.01           	3.307
MS.265         	7.995          	2.966
MS.266         	7.98           	2.975
MS.267         	7.965          	2.98
MS.268         	7.95           	2.968
MS.269         	7.93           	3.02
MS.270         	7.915          	2.813
MS.271         	7.9            	2.634
MS.272         	7.885          	2.825
MS.273         	7.87           	2.769
MS.274         	7.855          	2.745
MS.275         	7.84           	2.88
MS.276         	7.82           	2.522
MS.277         	7.805          	2.775
MS.278         	7.79           	2.737
MS.279         	7.775          	2.435
MS.280         	7.76           	2.548
MS.281         	7.745          	2.36
MS.282         	7.73           	2.416
MS.283         	7.715          	2.542
MS.284         	7.7            	2.532
MS.285         	7.685          	2.274
MS.286         	7.665          	2.273
MS.287         	7.65           	2.216
MS.288         	7.635          	2.316
MS.289         	7.62           	2.14
MS.290         	7.605          	2.185
MS.291         	7.59           	2.104
MS.292         	7.575          	2.269
MS.293         	7.56           	2.2
MS.294         	7.545          	2.227
MS.295         	7.53           	2.112
MS.296         	7.515          	2.012
MS.297         	7.5            	1.991
MS.298         	7.485          	1.939
MS.299         	7.47           	2.1
MS.300         	7.455          	2.007
MS.301         	7.44           	1.925
MS.302         	7.425          	1.882
MS.303         	7.41           	2.097
MS.304         	7.395          	1.972
MS.305         	7.38           	1.907
MS.306         	7.365          	1.96
MS.307         	7.35           	1.88
MS.308         	7.335          	1.827
MS.309         	7.32           	1.935
MS.310         	7.31           	1.88
MS.311         	7.295          	1.882
MS.312         	7.28           	1.869
MS.313         	7.265          	1.636
MS.314         	7.25           	1.875
MS.315         	7.235          	1.72
MS.316         	7.22           	1.835
MS.317         	7.205          	1.807
MS.318         	7.19           	1.85
MS.319         	7.175          	1.703
MS.320         	7.165          	1.522
MS.321         	7.15           	1.61
MS.322         	7.135          	1.576
MS.323         	7.12           	1.613
MS.324         	7.105          	1.592
MS.325         	7.09           	1.384
MS.326         	7.08           	1.42
MS.327         	7.065          	1.319
MS.328         	7.05           	1.51
MS.329         	7.035          	1.203
MS.330         	7.02           	1.512
MS.331         	7.005          	1.424
MS.332         	6.995          	1.307
MS.333         	6.98           	1.09
MS.334         	6.965          	1.165
MS.335         	6.95           	1.298
MS.336         	6.94           	1.16
MS.337         	6.925          	1.138
MS.338         	6.91           	1.019
MS.339         	6.895          	1.033
MS.340         	6.88           	1.091
MS.341         	6.87           	1.037
MS.342         	6.855          	1.053
MS.343         	6.84           	1.029
MS.344         	6.825          	1.074
MS.345         	6.815          	1.03
MS.346         	6.8            	0.988
MS.347         	6.785          	1.015
MS.348         	6.775          	1.03
MS.349         	6.76           	1.03
MS.350         	6.745          	0.944
MS.351         	6.73           	0.966
MS.352         	6.72           	0.887
MS.353         	6.705          	0.949
MS.354         	6.69           	0.951
MS.355         	6.68           	0.934
MS.356         	6.665          	0.916
MS.357         	6.65           	0.888
MS.358         	6.64           	0.887
MS.359         	6.625          	0.931
MS.360         	6.61           	0.858
MS.361         	6.6            	0.904
MS.362         	6.585          	0.881
MS.363         	6.575          	0.806
MS.364         	6.56           	0.778
MS.365         	6.545          	0.829
MS.366         	6.535          	0.753
MS.367         	6.52           	0.814
MS.368         	6.505          	0.805
MS.369         	6.495          	0.818
MS.370         	6.48           	0.806
MS.371         	6.47           	0.765
MS.372         	6.455          	0.729
MS.373         	6.445          	0.731
MS.374         	6.43           	0.572
MS.375         	6.415          	0.574
MS.376         	6.405          	0.61
MS.377         	6.39           	0.571
MS.378         	6.38           	0.576
MS.379         	6.365          	0.571
MS.380         	6.355          	0.573
MS.381         	6.34           	0.555
MS.382         	6.33           	0.58
MS.383         	6.315          	0.576
MS.384         	6.3            	0.561
MS.385         	6.29           	0.559
MS.386         	6.275          	0.552
MS.387         	6.265          	0.557
MS.388         	6.25           	0.56
MS.389         	6.24           	0.582
MS.390         	6.225          	0.547
MS.391         	6.215          	0.566
MS.392         	6.2            	0.556
MS.393         	6.19           	0.557
MS.394         	6.18           	0.558
MS.395         	6.165          	0.561
MS.396         	6.155          	0.563
MS.397         	6.14           	0.566
MS.398         	6.13           	0.561
MS.399         	6.115          	0.526
MS.400         	6.105          	0.561
MS.401         	6.09           	0.56
MS.402         	6.08           	0.561
MS.403         	6.065          	0.563
MS.404         	6.055          	0.558
MS.405         	6.045          	0.533
MS.406         	6.03           	0.565
MS.407         	6.02           	0.559
MS.408         	6.005          	0.527
MS.409         	5.995          	0.555
MS.410         	5.985          	0.531
MS.411         	5.97           	0.558
MS.412         	5.96           	0.518
MS.413         	5.945          	0.524
MS.414         	5.935          	0.526
MS.415         	5.925          	0.525
MS.416         	5.91           	0.518
MS.417         	5.9            	0.52
MS.418         	5.89           	0.522
MS.419         	5.875          	0.521
MS.420         	5.865          	0.519
MS.421         	5.855          	0.527
MS.422         	5.84           	0.472
MS.423         	5.83           	0.525
MS.424         	5.82           	0.468
MS.425         	5.805          	0.467
MS.426         	5.795          	0.33
MS.427         	5.785          	0.522
MS.428         	5.77           	0.524
MS.429         	5.76           	0.278
MS.430         	5.75           	0.278
MS.431         	5.735          	0.279
MS.432         	5.725          	0.278
MS.433         	5.715          	0.465
MS.434         	5.705          	0.472
MS.435         	5.69           	0.278
MS.436         	5.68           	0.279
MS.437         	5.67           	0.475
MS.438         	5.655          	0.468
MS.439         	5.645          	0.28
MS.440         	5.635          	0.274
MS.441         	5.625          	0.281
MS.442         	5.61           	0.277
MS.443         	5.6            	0.275
MS.444         	5.59           	0.284
MS.445         	5.58           	0.277
MS.446         	5.565          	0.283
MS.447         	5.555          	0.278
MS.448         	5.545          	0.281
MS.449         	5.535          	0.263
MS.450         	5.525          	0.277
MS.451         	5.51           	0.279
MS.452         	5.5            	0.274
MS.453         	5.49           	0.28
MS.454         	5.48           	0.282
MS.455         	5.47           	0.282
MS.456         	5.455          	0.273
MS.457         	5.445          	0.282
MS.458         	5.435          	0.272
MS.459         	5.425          	0.276
MS.460         	5.415          	0.274
MS.461         	5.405          	0.284
MS.462         	5.39           	0.278
MS.463         	5.38           	0.281
MS.464         	5.37           	0.267
MS.465         	5.36           	0.27
MS.466         	5.35           	0.276
MS.467         	5.34           	0.273
MS.468         	5.33           	0.272
MS.469         	5.315          	0.267
MS.470         	5.305          	0.262
MS.471         	5.295          	0.267
MS.472         	5.285          	0.261
MS.473         	5.275          	0.269
MS.474         	5.265          	0.266
MS.475         	5.255          	0.263
MS.476         	5.245          	0.247
MS.477         	5.235          	0.242
MS.478         	5.22           	0.263
MS.479         	5.21           	0.168
MS.480         	5.2            	0.168
MS.481         	5.19           	0.247
MS.482         	5.18           	0.187
MS.483         	5.17           	0.186
MS.484         	5.16           	0.186
MS.485         	5.15           	0.165
MS.486         	5.14           	0.182
MS.487         	5.13           	0.167
MS.488         	5.12           	0.175
MS.489         	5.11           	0.168
MS.490         	5.1            	0.248
MS.491         	5.09           	0.169
MS.492         	5.08           	0.167
MS.493         	5.07           	0.17
MS.494         	5.06           	0.17
MS.495         	5.05           	0.172
MS.496         	5.04           	0.167
MS.497         	5.03           	0.161
MS.498         	5.02           	0.165
MS.499         	5.01           	0.172
MS.500         	5              	0.17
MS.501         	4.99           	0.165
MS.502         	4.98           	0.168
MS.503         	4.97           	0.17
MS.504         	4.96           	0.171
MS.505         	4.95           	0.168
MS.506         	4.94           	0.169
MS.507         	4.93           	0.168
MS.508         	4.92           	0.169
MS.509         	4.91           	0.169
MS.510         	4.9            	0.166
MS.511         	4.89           	0.165
MS.512         	4.88           	0.169
MS.513         	4.87           	0.162
MS.514         	4.86           	0.162
MS.515         	4.85           	0.172
MS.516         	4.84           	0.168
MS.517         	4.83           	0.172
MS.518         	4.82           	0.167
MS.519         	4.81           	0.169
MS.520         	4.8            	0.171
MS.521         	4.79           	0.17
MS.522         	4.78           	0.172
MS.523         	4.775          	0.169
MS.524         	4.765          	0.166
MS.525         	4.755          	0.168
MS.526         	4.745          	0.169
MS.527         	4.735          	0.169
MS.528         	4.725          	0.17
MS.529         	4.715          	0.171
MS.530         	4.705          	0.165
MS.531         	4.695          	0.171
MS.532         	4.69           	0.165
MS.533         	4.68           	0.17
MS.534         	4.67           	0.165
MS.535         	4.66           	0.175
MS.536         	4.65           	0.167
MS.537         	4.64           	0.171
MS.538         	4.63           	0.166
MS.539         	4.625          	0.165
MS.540         	4.615          	0.168
MS.541         	4.605          	0.168
MS.542         	4.595          	0.15
MS.543         	4.585          	0.167
MS.544         	4.575          	0.163
MS.545         	4.565          	0.148
MS.546         	4.56           	0.173
MS.547         	4.55           	0.168
MS.548         	4.54           	0.168
MS.549         	4.53           	0.164
MS.550         	4.52           	0.168
MS.551         	4.515          	0.144
MS.552         	4.505          	0.172
MS.553         	4.495          	0.17
MS.554         	4.485          	0.151
MS.555         	4.475          	0.148
MS.556         	4.47           	0.146
MS.557         	4.46           	0.152
MS.558         	4.45           	0.169
MS.559         	4.44           	0.143
MS.560         	4.43           	0.149
MS.561         	4.425          	0.148
MS.562         	4.415          	0.167
MS.563         	4.405          	0.15
MS.564         	4.395          	0.095
MS.565         	4.39           	0.089
MS.566         	4.38           	0.143
MS.567         	4.37           	0.14
MS.568         	4.36           	0.099
MS.569         	4.355          	0.15
MS.570         	4.345          	0.146
MS.571         	4.335          	0.096
MS.572         	4.325          	0.098
MS.573         	4.32           	0.096
MS.574         	4.31           	0.142
MS.575         	4.3            	0.094
MS.576         	4.295          	0.093
MS.577         	4.285          	0.091
MS.578         	4.275          	0.092
MS.579         	4.265          	0.101
MS.580         	4.26           	0.094
MS.581         	4.25           	0.092
MS.582         	4.24           	0.097
MS.583         	4.235          	0.065
MS.584         	4.225          	0.092
MS.585         	4.215          	0.094
MS.586         	4.21           	0.06
MS.587         	4.2            	0.09
MS.588         	4.19           	0.093
MS.589         	4.185          	0.064
MS.590         	4.175          	0.091
MS.591         	4.165          	0.067
MS.592         	4.16           	0.068
MS.593         	4.15           	0.067
MS.594         	4.14           	0.06
MS.595         	4.135          	0.092
MS.596         	4.125          	0.065
MS.597         	4.115          	0.065
MS.598         	4.11           	0.076
MS.599         	4.1            	0.067
MS.600         	4.09           	0.063
MS.601         	4.085          	0.07
MS.602         	4.075          	0.065
MS.603         	4.065          	0.064
MS.604         	4.06           	0.099
MS.605         	4.05           	0.067
MS.606         	4.045          	0.063
MS.607         	4.035          	0.068
MS.608         	4.025          	0.068
MS.609         	4.02           	0.018
MS.610         	4.01           	0.067
MS.611         	4.005          	0.069
MS.612         	3.995          	0.065
MS.613         	3.985          	0.067
MS.614         	3.98           	0.064
MS.615         	3.97           	0.067
MS.616         	3.965          	0.064
MS.617         	3.955          	0.066
MS.618         	3.945          	0.062
MS.619         	3.94           	0.072
MS.620         	3.93           	0.066
MS.621         	3.925          	0.021
MS.622         	3.915          	0.066
MS.623         	3.91           	0.067
MS.624         	3.9            	0.074
MS.625         	3.89           	0.065
MS.626         	3.885          	0.07
MS.627         	3.875          	0.026
MS.628         	3.87           	0.02
MS.629         	3.86           	0.067
MS.630         	3.855          	0.02
MS.631         	3.845          	0.021
MS.632         	3.84           	0.016
MS.633         	3.83           	0.021
MS.634         	3.825          	0.022
MS.635         	3.815          	0.023
MS.636         	3.805          	0.02
MS.637         	3.8            	0.025
MS.638         	3.79           	0.019
MS.639         	3.785          	0.023
MS.640         	3.775          	0.02
MS.641         	3.77           	0.023
MS.642         	3.76           	0.026
MS.643         	3.755          	0.016
MS.644         	3.745          	0.025
MS.645         	3.74           	0.018
MS.646         	3.73           	0.02
MS.647         	3.725          	0.023
MS.648         	3.715          	0.022
MS.649         	3.71           	0.023
MS.650         	3.7            	0.021
MS.651         	3.695          	0.021
MS.652         	3.685          	0.019
MS.653         	3.68           	0.023
MS.654         	3.675          	0.022
MS.655         	3.665          	0.023
MS.656         	3.66           	0.021
MS.657         	3.65           	0.02
MS.658         	3.645          	0.021
MS.659         	3.635          	0.024
MS.660         	3.63           	0.025
MS.661         	3.62           	0.022
MS.662         	3.615          	0.025
MS.663         	3.605          	0.019
MS.664         	3.6            	0.021
MS.665         	3.595          	0.018
MS.666         	3.585          	0.025
MS.667         	3.58           	0.021
MS.668         	3.57           	0.026
MS.669         	3.565          	0.019
MS.670         	3.555          	0.02
MS.671         	3.55           	0.019
MS.672         	3.545          	0.022
MS.673         	3.535          	0.021
MS.674         	3.53           	0.024
MS.675         	3.52           	0.022
MS.676         	3.515          	0.016
MS.677         	3.51           	0.022
MS.678         	3.5            	0.023
MS.679         	3.495          	0.022
MS.680         	3.485          	0.024
MS.681         	3.48           	0.026
MS.682         	3.475          	0.017
MS.683         	3.465          	0.018
MS.684         	3.46           	0.024
MS.685         	3.45           	0.016
MS.686         	3.445          	0.021
MS.687         	3.44           	0.018
MS.688         	3.43           	0.019
MS.689         	3.425          	0.02
MS.690         	3.42           	0.023
MS.691         	3.41           	0.021
MS.692         	3.405          	0.019
MS.693         	3.395          	0.02
MS.694         	3.39           	0.023
MS.695         	3.385          	0.024
MS.696         	3.375          	0.021
MS.697         	3.37           	0.019
MS.698         	3.365          	0.02
MS.699         	3.355          	0.018
MS.700         	3.35           	0.021
MS.701         	3.345          	0.026
MS.702         	3.335          	0.021
MS.703         	3.33           	0.02
MS.704         	3.325          	0.021
MS.705         	3.315          	0.018
DERIVED EXCITABILITY VARIABLES
Program = QTracP 20/9/2019
Threshold method = 6 (optimised for CAP, using data for present condition only)
SR method = 1 (using actual data values)
6.                 	0.000               	Peak response\(mV)
9.                 	37.8                	Temperature ( C)
17.                	65                  	Age (years)
18.                	2                   	Sex (M=1, F=2)

EXTRA VARIABLES

MScPeak(mV) = 4.62
MScS5(mA) = 5.16
MScS50(mA) = 7.65
MScS95(mA) = 9.52
MScNSteps = 7
MScSteps(%) = 21.3
MScStepMax(%) = 4.1
MScD50 = 25
Height = 159
MSFPeakAmp(mV) = 4.68
MSFNUnits = 99
MSFMeanUnitAmp(uV) = 47.2
MSFHuntTime(m) = 2.64
MSFError(%) = 3.09
MSFNLarge = 24.11
MSFMedianAmp(%) = 0.838
MSFMedianAmp(mV) = 0.0392
MSFHalfAmpAmp(%) = 1.36
MSFHalfAmpAmp(mV) = 0.0637
MSFLargestAmp(%) = 4.73
MSFLargestAmp(mV) = 0.221
MSFMeanRS(%) = 2
MSFOpts = 10106121
MScDuration(min) = 6.6
MSFTraces = 648
MSFSizeLimit(uV) = 11.7
MSFLimitType = 1
MSFSmallestAmp(uV) = 12.1

EXTRA WAVEFORMS


!MScan Model
!99
	1	3.86	0.96	2
	2	4.23	0.39	2
	3	4.41	1.05	2
	4	4.58	0.67	2
	5	5.18	0.54	2
	6	5.2	0.38	2
	7	5.25	0.52	2
	8	5.29	0.65	2
	9	5.63	0.9	2
	10	5.78	2.16	2
	11	5.82	0.93	2
	12	5.86	1.1	2
	13	5.9	0.5	2
	14	6.09	0.59	2
	15	6.32	0.27	2
	16	6.38	0.5	2
	17	6.39	0.26	2
	18	6.41	0.38	2
	19	6.41	0.26	2
	20	6.42	0.32	2
	21	6.43	0.32	2
	22	6.46	1.36	2
	23	6.5	0.92	2
	24	6.54	0.84	2
	25	6.57	0.65	2
	26	6.58	0.26	2
	27	6.61	0.39	2
	28	6.62	0.3	2
	29	6.64	0.3	2
	30	6.66	0.47	2
	31	6.69	0.43	2
	32	6.71	0.34	2
	33	6.74	0.31	2
	34	6.76	0.31	2
	35	6.83	1.11	2
	36	6.91	1.54	2
	37	6.94	0.74	2
	38	6.96	1.42	2
	39	6.99	1.82	2
	40	7.03	0.95	2
	41	7.05	1.47	2
	42	7.07	0.66	2
	43	7.09	0.36	2
	44	7.1	0.94	2
	45	7.17	3.8	2
	46	7.27	3.25	2
	47	7.31	0.8	2
	48	7.38	1.58	2
	49	7.44	1.2	2
	50	7.49	1.41	2
	51	7.53	1	2
	52	7.57	1.3	2
	53	7.62	1.77	2
	54	7.65	1.21	2
	55	7.67	0.65	2
	56	7.7	0.9	2
	57	7.74	2.1	2
	58	7.78	2.4	2
	59	7.82	1.98	2
	60	7.86	1.54	2
	61	7.87	0.63	2
	62	7.89	0.62	2
	63	7.9	0.56	2
	64	7.92	0.56	2
	65	7.93	0.97	2
	66	7.94	0.97	2
	67	7.96	1.29	2
	68	7.99	1.34	2
	69	8.01	1.21	2
	70	8.09	4.73	2
	71	8.23	1.68	2
	72	8.35	2.07	2
	73	8.42	1.45	2
	74	8.46	0.95	2
	75	8.51	1.19	2
	76	8.55	1.49	2
	77	8.58	0.83	2
	78	8.59	1.38	2
	79	8.68	2.69	2
	80	8.81	0.4	2
	81	8.84	0.34	2
	82	8.87	0.42	2
	83	8.9	0.31	2
	84	8.94	0.43	2
	85	9.15	0.9	2
	86	9.33	1.72	2
	87	9.49	2.79	2
	88	9.49	1.62	2
	89	9.53	0.6	2
	90	9.55	0.47	2
	91	9.57	0.52	2
	92	9.59	0.54	2
	93	9.63	1.11	2
	94	9.69	1.03	1.6
	95	10.6	0.35	2
	96	10.7	0.31	2
	97	11.28	0.26	2
	98	11.4	0.29	2
	99	11.87	0.56	2

