File:              	C:\Qtrac\Data\Daniel M Sørensen\MScan multicentre study\Data from centres\Copenhagen\Processed data\RHS01PER01.QZD
Name:              	DK.COP.NC.1.1
Protocol:          	MSCAN-R2
Date:              	22/9/20
Start time:        	14:49:15
Age:               	58
Sex:               	M
Temperature:       	38.2
S/R sites:         	TA
NC/disease:        	NC
Operator:          	CK
Comments:          	CK
M-SCAN DATA (6.4-1.3m)
Scanpts: 45, 53, 512, 518
Stim. (mA)     	Amp. (mV)
MS.1           	51             	4.956
MS.2           	51             	4.967
MS.3           	51             	4.958
MS.4           	51             	4.957
MS.5           	51             	4.944
MS.6           	51             	4.985
MS.7           	51             	4.957
MS.8           	51             	4.979
MS.9           	51             	5.001
MS.10          	51             	4.992
MS.11          	51             	5.017
MS.12          	51             	5.016
MS.13          	51             	5.043
MS.14          	51             	4.994
MS.15          	51             	5.054
MS.16          	51             	5.002
MS.17          	51             	5.035
MS.18          	51             	5.043
MS.19          	51             	5.06
MS.20          	51             	5.024
MS.21          	51             	5.098
MS.22          	51             	5.096
MS.23          	51             	4.97
MS.24          	50.795         	5.073
MS.25          	50.695         	5.071
MS.26          	50.595         	4.999
MS.27          	50.49          	5.009
MS.28          	50.39          	5.067
MS.29          	50.29          	4.967
MS.30          	50.19          	4.993
MS.31          	50.09          	4.976
MS.32          	49.99          	5.002
MS.33          	49.89          	4.99
MS.34          	49.79          	4.988
MS.35          	49.69          	4.957
MS.36          	49.59          	4.963
MS.37          	49.495         	4.941
MS.38          	49.395         	4.915
MS.39          	49.295         	4.952
MS.40          	49.195         	4.929
MS.41          	49.1           	4.896
MS.42          	49             	4.918
MS.43          	48.9           	4.943
MS.44          	48.805         	4.969
MS.45          	48.705         	4.96
MS.46          	48.61          	4.948
MS.47          	48.515         	4.924
MS.48          	48.415         	4.952
MS.49          	48.32          	4.974
MS.50          	48.22          	4.937
MS.51          	48.125         	4.953
MS.52          	48.03          	4.922
MS.53          	47.935         	4.885
MS.54          	47.84          	4.969
MS.55          	47.74          	4.933
MS.56          	47.645         	4.953
MS.57          	47.55          	4.899
MS.58          	47.455         	4.966
MS.59          	47.36          	4.882
MS.60          	47.265         	4.932
MS.61          	47.175         	4.937
MS.62          	47.08          	4.937
MS.63          	46.985         	4.865
MS.64          	46.89          	4.861
MS.65          	46.795         	4.896
MS.66          	46.705         	4.846
MS.67          	46.61          	4.899
MS.68          	46.515         	4.817
MS.69          	46.425         	4.811
MS.70          	46.33          	4.836
MS.71          	46.24          	4.866
MS.72          	46.145         	4.87
MS.73          	46.055         	4.796
MS.74          	45.96          	4.833
MS.75          	45.87          	4.846
MS.76          	45.78          	4.861
MS.77          	45.685         	4.816
MS.78          	45.595         	4.761
MS.79          	45.505         	4.664
MS.80          	45.415         	4.681
MS.81          	45.325         	4.777
MS.82          	45.235         	4.686
MS.83          	45.14          	4.758
MS.84          	45.05          	4.761
MS.85          	44.96          	4.669
MS.86          	44.87          	4.724
MS.87          	44.785         	4.622
MS.88          	44.695         	4.617
MS.89          	44.605         	4.718
MS.90          	44.515         	4.591
MS.91          	44.425         	4.631
MS.92          	44.335         	4.633
MS.93          	44.25          	4.587
MS.94          	44.16          	4.651
MS.95          	44.07          	4.568
MS.96          	43.985         	4.589
MS.97          	43.895         	4.399
MS.98          	43.81          	4.553
MS.99          	43.72          	4.354
MS.100         	43.635         	4.49
MS.101         	43.545         	4.519
MS.102         	43.46          	4.604
MS.103         	43.37          	4.674
MS.104         	43.285         	4.501
MS.105         	43.2           	4.496
MS.106         	43.115         	4.46
MS.107         	43.025         	4.421
MS.108         	42.94          	4.418
MS.109         	42.855         	4.614
MS.110         	42.77          	4.276
MS.111         	42.685         	4.395
MS.112         	42.6           	4.247
MS.113         	42.515         	4.23
MS.114         	42.43          	4.468
MS.115         	42.345         	4.282
MS.116         	42.26          	4.194
MS.117         	42.175         	4.298
MS.118         	42.09          	4.35
MS.119         	42.005         	4.249
MS.120         	41.92          	4.064
MS.121         	41.84          	4.281
MS.122         	41.755         	4.18
MS.123         	41.67          	4.102
MS.124         	41.59          	4.211
MS.125         	41.505         	4.094
MS.126         	41.42          	4.152
MS.127         	41.34          	4.217
MS.128         	41.255         	4.089
MS.129         	41.175         	4.189
MS.130         	41.09          	3.996
MS.131         	41.01          	4.081
MS.132         	40.93          	3.953
MS.133         	40.845         	4.089
MS.134         	40.765         	3.997
MS.135         	40.685         	3.933
MS.136         	40.6           	3.925
MS.137         	40.52          	3.868
MS.138         	40.44          	3.881
MS.139         	40.36          	3.927
MS.140         	40.28          	3.831
MS.141         	40.2           	3.86
MS.142         	40.12          	3.766
MS.143         	40.04          	3.735
MS.144         	39.96          	3.785
MS.145         	39.88          	3.77
MS.146         	39.8           	3.899
MS.147         	39.72          	3.824
MS.148         	39.64          	3.793
MS.149         	39.56          	3.773
MS.150         	39.48          	3.741
MS.151         	39.4           	3.806
MS.152         	39.325         	3.761
MS.153         	39.245         	3.734
MS.154         	39.165         	3.595
MS.155         	39.09          	3.719
MS.156         	39.01          	3.631
MS.157         	38.93          	3.563
MS.158         	38.855         	3.499
MS.159         	38.775         	3.477
MS.160         	38.7           	3.565
MS.161         	38.62          	3.611
MS.162         	38.545         	3.416
MS.163         	38.47          	3.457
MS.164         	38.39          	3.408
MS.165         	38.315         	3.333
MS.166         	38.24          	3.329
MS.167         	38.16          	3.287
MS.168         	38.085         	3.322
MS.169         	38.01          	3.337
MS.170         	37.935         	3.319
MS.171         	37.855         	3.254
MS.172         	37.78          	3.326
MS.173         	37.705         	3.242
MS.174         	37.63          	3.271
MS.175         	37.555         	3.239
MS.176         	37.48          	3.283
MS.177         	37.405         	3.257
MS.178         	37.33          	3.297
MS.179         	37.255         	3.166
MS.180         	37.18          	3.254
MS.181         	37.11          	3.132
MS.182         	37.035         	3.144
MS.183         	36.96          	3.186
MS.184         	36.885         	3.123
MS.185         	36.81          	3.083
MS.186         	36.74          	3.104
MS.187         	36.665         	3.046
MS.188         	36.59          	2.965
MS.189         	36.52          	3.138
MS.190         	36.445         	3.094
MS.191         	36.375         	2.988
MS.192         	36.3           	2.972
MS.193         	36.23          	2.991
MS.194         	36.155         	2.985
MS.195         	36.085         	2.96
MS.196         	36.01          	2.934
MS.197         	35.94          	3
MS.198         	35.865         	2.92
MS.199         	35.795         	2.894
MS.200         	35.725         	2.903
MS.201         	35.655         	2.905
MS.202         	35.58          	2.916
MS.203         	35.51          	2.892
MS.204         	35.44          	2.952
MS.205         	35.37          	2.749
MS.206         	35.3           	2.825
MS.207         	35.225         	2.865
MS.208         	35.155         	2.777
MS.209         	35.085         	2.807
MS.210         	35.015         	2.771
MS.211         	34.945         	2.783
MS.212         	34.875         	2.874
MS.213         	34.805         	2.786
MS.214         	34.74          	2.758
MS.215         	34.67          	2.763
MS.216         	34.6           	2.695
MS.217         	34.53          	2.645
MS.218         	34.46          	2.708
MS.219         	34.39          	2.664
MS.220         	34.325         	2.657
MS.221         	34.255         	2.62
MS.222         	34.185         	2.637
MS.223         	34.12          	2.634
MS.224         	34.05          	2.586
MS.225         	33.98          	2.617
MS.226         	33.915         	2.512
MS.227         	33.845         	2.57
MS.228         	33.78          	2.568
MS.229         	33.71          	2.509
MS.230         	33.645         	2.58
MS.231         	33.575         	2.493
MS.232         	33.51          	2.541
MS.233         	33.44          	2.547
MS.234         	33.375         	2.495
MS.235         	33.31          	2.443
MS.236         	33.24          	2.428
MS.237         	33.175         	2.439
MS.238         	33.11          	2.417
MS.239         	33.045         	2.411
MS.240         	32.975         	2.407
MS.241         	32.91          	2.362
MS.242         	32.845         	2.363
MS.243         	32.78          	2.396
MS.244         	32.715         	2.274
MS.245         	32.65          	2.327
MS.246         	32.585         	2.233
MS.247         	32.52          	2.281
MS.248         	32.455         	2.238
MS.249         	32.39          	2.144
MS.250         	32.325         	2.092
MS.251         	32.26          	2.184
MS.252         	32.195         	2.115
MS.253         	32.13          	2.109
MS.254         	32.065         	2.152
MS.255         	32.005         	2.133
MS.256         	31.94          	2.043
MS.257         	31.875         	2.148
MS.258         	31.81          	2.029
MS.259         	31.75          	2.038
MS.260         	31.685         	2.029
MS.261         	31.62          	2.01
MS.262         	31.56          	2.003
MS.263         	31.495         	1.934
MS.264         	31.43          	1.969
MS.265         	31.37          	1.964
MS.266         	31.305         	1.993
MS.267         	31.245         	1.955
MS.268         	31.18          	1.967
MS.269         	31.12          	1.88
MS.270         	31.055         	1.928
MS.271         	30.995         	1.851
MS.272         	30.935         	1.837
MS.273         	30.87          	1.947
MS.274         	30.81          	1.829
MS.275         	30.75          	1.89
MS.276         	30.685         	1.841
MS.277         	30.625         	1.838
MS.278         	30.565         	1.872
MS.279         	30.505         	1.767
MS.280         	30.44          	1.752
MS.281         	30.38          	1.795
MS.282         	30.32          	1.684
MS.283         	30.26          	1.649
MS.284         	30.2           	1.693
MS.285         	30.14          	1.708
MS.286         	30.08          	1.674
MS.287         	30.02          	1.571
MS.288         	29.96          	1.432
MS.289         	29.9           	1.667
MS.290         	29.84          	1.592
MS.291         	29.78          	1.516
MS.292         	29.72          	1.474
MS.293         	29.66          	1.481
MS.294         	29.6           	1.49
MS.295         	29.54          	1.455
MS.296         	29.485         	1.381
MS.297         	29.425         	1.45
MS.298         	29.365         	1.472
MS.299         	29.305         	1.351
MS.300         	29.25          	1.36
MS.301         	29.19          	1.369
MS.302         	29.13          	1.368
MS.303         	29.075         	1.354
MS.304         	29.015         	1.356
MS.305         	28.955         	1.274
MS.306         	28.9           	1.271
MS.307         	28.84          	1.228
MS.308         	28.785         	1.255
MS.309         	28.725         	1.213
MS.310         	28.67          	1.155
MS.311         	28.61          	1.21
MS.312         	28.555         	1.23
MS.313         	28.5           	1.169
MS.314         	28.44          	1.199
MS.315         	28.385         	1.134
MS.316         	28.325         	1.152
MS.317         	28.27          	1.147
MS.318         	28.215         	1.063
MS.319         	28.16          	1.146
MS.320         	28.1           	1.176
MS.321         	28.045         	1.096
MS.322         	27.99          	1.094
MS.323         	27.935         	1.086
MS.324         	27.88          	1.013
MS.325         	27.82          	1.079
MS.326         	27.765         	1.063
MS.327         	27.71          	0.994
MS.328         	27.655         	0.975
MS.329         	27.6           	0.994
MS.330         	27.545         	0.992
MS.331         	27.49          	0.97
MS.332         	27.435         	0.981
MS.333         	27.38          	0.972
MS.334         	27.325         	0.947
MS.335         	27.27          	0.963
MS.336         	27.215         	0.94
MS.337         	27.16          	0.925
MS.338         	27.11          	0.923
MS.339         	27.055         	0.896
MS.340         	27             	0.903
MS.341         	26.945         	0.896
MS.342         	26.89          	0.782
MS.343         	26.84          	0.717
MS.344         	26.785         	0.783
MS.345         	26.73          	0.744
MS.346         	26.68          	0.76
MS.347         	26.625         	0.863
MS.348         	26.57          	0.743
MS.349         	26.52          	0.814
MS.350         	26.465         	0.782
MS.351         	26.41          	0.716
MS.352         	26.36          	0.607
MS.353         	26.305         	0.63
MS.354         	26.255         	0.706
MS.355         	26.2           	0.687
MS.356         	26.15          	0.645
MS.357         	26.095         	0.554
MS.358         	26.045         	0.662
MS.359         	25.995         	0.598
MS.360         	25.94          	0.48
MS.361         	25.89          	0.495
MS.362         	25.835         	0.599
MS.363         	25.785         	0.533
MS.364         	25.735         	0.428
MS.365         	25.685         	0.443
MS.366         	25.63          	0.441
MS.367         	25.58          	0.405
MS.368         	25.53          	0.436
MS.369         	25.48          	0.496
MS.370         	25.425         	0.461
MS.371         	25.375         	0.381
MS.372         	25.325         	0.438
MS.373         	25.275         	0.386
MS.374         	25.225         	0.411
MS.375         	25.175         	0.361
MS.376         	25.125         	0.33
MS.377         	25.075         	0.35
MS.378         	25.025         	0.374
MS.379         	24.975         	0.331
MS.380         	24.925         	0.33
MS.381         	24.875         	0.291
MS.382         	24.825         	0.33
MS.383         	24.775         	0.315
MS.384         	24.725         	0.297
MS.385         	24.675         	0.261
MS.386         	24.625         	0.242
MS.387         	24.575         	0.239
MS.388         	24.53          	0.18
MS.389         	24.48          	0.206
MS.390         	24.43          	0.215
MS.391         	24.38          	0.273
MS.392         	24.335         	0.194
MS.393         	24.285         	0.172
MS.394         	24.235         	0.191
MS.395         	24.185         	0.181
MS.396         	24.14          	0.22
MS.397         	24.09          	0.165
MS.398         	24.04          	0.145
MS.399         	23.995         	0.169
MS.400         	23.945         	0.152
MS.401         	23.9           	0.222
MS.402         	23.85          	0.153
MS.403         	23.805         	0.161
MS.404         	23.755         	0.153
MS.405         	23.71          	0.165
MS.406         	23.66          	0.128
MS.407         	23.615         	0.134
MS.408         	23.565         	0.129
MS.409         	23.52          	0.127
MS.410         	23.47          	0.112
MS.411         	23.425         	0.136
MS.412         	23.38          	0.127
MS.413         	23.33          	0.131
MS.414         	23.285         	0.117
MS.415         	23.24          	0.111
MS.416         	23.19          	0.106
MS.417         	23.145         	0.098
MS.418         	23.1           	0.112
MS.419         	23.055         	0.097
MS.420         	23.01          	0.093
MS.421         	22.96          	0.103
MS.422         	22.915         	0.098
MS.423         	22.87          	0.096
MS.424         	22.825         	0.095
MS.425         	22.78          	0.103
MS.426         	22.735         	0.093
MS.427         	22.69          	0.093
MS.428         	22.64          	0.093
MS.429         	22.595         	0.088
MS.430         	22.55          	0.086
MS.431         	22.505         	0.092
MS.432         	22.46          	0.085
MS.433         	22.415         	0.078
MS.434         	22.37          	0.085
MS.435         	22.33          	0.082
MS.436         	22.285         	0.081
MS.437         	22.24          	0.082
MS.438         	22.195         	0.078
MS.439         	22.15          	0.085
MS.440         	22.105         	0.087
MS.441         	22.06          	0.077
MS.442         	22.015         	0.082
MS.443         	21.975         	0.076
MS.444         	21.93          	0.084
MS.445         	21.885         	0.079
MS.446         	21.84          	0.083
MS.447         	21.8           	0.077
MS.448         	21.755         	0.084
MS.449         	21.71          	0.087
MS.450         	21.67          	0.08
MS.451         	21.625         	0.078
MS.452         	21.58          	0.087
MS.453         	21.54          	0.079
MS.454         	21.495         	0.077
MS.455         	21.45          	0.084
MS.456         	21.41          	0.082
MS.457         	21.365         	0.084
MS.458         	21.325         	0.076
MS.459         	21.28          	0.078
MS.460         	21.24          	0.08
MS.461         	21.195         	0.082
MS.462         	21.155         	0.08
MS.463         	21.11          	0.076
MS.464         	21.07          	0.078
MS.465         	21.025         	0.079
MS.466         	20.985         	0.082
MS.467         	20.945         	0.077
MS.468         	20.9           	0.078
MS.469         	20.86          	0.083
MS.470         	20.82          	0.071
MS.471         	20.775         	0.079
MS.472         	20.735         	0.073
MS.473         	20.695         	0.079
MS.474         	20.65          	0.078
MS.475         	20.61          	0.076
MS.476         	20.57          	0.085
MS.477         	20.53          	0.074
MS.478         	20.49          	0.077
MS.479         	20.445         	0.05
MS.480         	20.405         	0.052
MS.481         	20.365         	0.069
MS.482         	20.325         	0.07
MS.483         	20.285         	0.043
MS.484         	20.245         	0.078
MS.485         	20.205         	0.08
MS.486         	20.16          	0.08
MS.487         	20.12          	0.036
MS.488         	20.08          	0.051
MS.489         	20.04          	0.054
MS.490         	20             	0.043
MS.491         	19.96          	0.048
MS.492         	19.92          	0.049
MS.493         	19.88          	0.054
MS.494         	19.84          	0.052
MS.495         	19.805         	0.05
MS.496         	19.765         	0.054
MS.497         	19.725         	0.064
MS.498         	19.685         	0.042
MS.499         	19.645         	0.044
MS.500         	19.605         	0.049
MS.501         	19.565         	0.044
MS.502         	19.525         	0.043
MS.503         	19.49          	0.045
MS.504         	19.45          	0.046
MS.505         	19.41          	0.048
MS.506         	19.37          	0.067
MS.507         	19.335         	0.051
MS.508         	19.295         	0.043
MS.509         	19.255         	0.048
MS.510         	19.215         	0.046
MS.511         	19.18          	0.043
MS.512         	19.14          	0.049
MS.513         	19.105         	0.044
MS.514         	19.065         	0.046
MS.515         	19.025         	0.045
MS.516         	18.99          	0.046
MS.517         	18.95          	0.041
MS.518         	18.91          	0.046
MS.519         	18.875         	0.043
MS.520         	18.835         	0.045
MS.521         	18.8           	0.039
MS.522         	18.76          	0.043
MS.523         	18.725         	0.041
MS.524         	18.685         	0.045
MS.525         	18.65          	0.047
MS.526         	18.61          	0.051
MS.527         	18.575         	0.046
MS.528         	18.54          	0.046
MS.529         	18.5           	0.044
MS.530         	18.465         	0.043
MS.531         	18.425         	0.044
MS.532         	18.39          	0.04
MS.533         	18.355         	0.04
MS.534         	18.315         	0.044
MS.535         	18.28          	0.044
MS.536         	18.245         	0.041
MS.537         	18.205         	0.045
MS.538         	18.17          	0.049
MS.539         	18.135         	0.046
MS.540         	18.1           	0.04
MS.541         	18.06          	0.04
MS.542         	18.025         	0.038
MS.543         	17.99          	0.043
MS.544         	17.955         	0.04
MS.545         	17.92          	0.043
MS.546         	17.88          	0.048
MS.547         	17.845         	0.044
MS.548         	17.81          	0.046
MS.549         	17.775         	0.04
MS.550         	17.74          	0.042
DERIVED EXCITABILITY VARIABLES
Program = QTracP 3/4/2020
Threshold method = 6 (optimised for CAP, using data for present condition only)
SR method = 1 (using actual data values)
6.                 	0.000               	Peak response\(mV)
9.                 	38.2                	Temperature ( C)
17.                	58                  	Age (years)
18.                	1                   	Sex (M=1, F=2)

EXTRA VARIABLES

MScPeak(mV) = 4.97
MScS5(mA) = 24.47
MScS50(mA) = 33.36
MScS95(mA) = 45.04
MScNSteps = 0
MScSteps(%) = 0.0
MScStepMax(%) = 0.0
MScD50 = 68
MScSlope = 3.2
Height = 196
MSFPeakAmp(mV) = 4.89
MSFNUnits = 173
MSFMeanUnitAmp(uV) = 28.3
MSFHuntTime(m) = 2.43
MSFError(%) = 1.5
MSFNLarge = 53.87
MSFMedianAmp(%) = 0.496
MSFMedianAmp(mV) = 0.0243
MSFHalfAmpAmp(%) = 0.595
MSFHalfAmpAmp(mV) = 0.0291
MSFLargestAmp(%) = 2.72
MSFLargestAmp(mV) = 0.133
MSFMeanRS(%) = 2
MSFOpts = 10106121
MScDuration(min) = 5.1
MSFTraces = 474
MSFSizeLimit(uV) = 12.2
MSFLimitType = 1
MSFSmallestAmp(uV) = 12.4

EXTRA WAVEFORMS


!MScan Model
!173
	1	20.1	0.56	2
	2	22.84	0.62	2
	3	23.36	0.46	2
	4	23.55	0.25	2
	5	23.79	0.4	2
	6	24.1	0.55	2
	7	24.27	0.49	2
	8	24.47	0.55	2
	9	24.55	0.31	2
	10	24.63	0.29	2
	11	24.76	0.5	2
	12	24.83	0.3	2
	13	24.91	0.34	2
	14	24.99	0.33	2
	15	25.07	0.35	2
	16	25.21	0.65	2
	17	25.35	0.59	2
	18	25.48	0.6	2
	19	25.61	0.66	2
	20	25.73	0.6	2
	21	25.84	0.66	2
	22	25.93	0.45	2
	23	26.02	0.52	2
	24	26.11	0.66	2
	25	26.27	1.05	2
	26	26.42	0.81	2
	27	26.56	0.96	2
	28	26.68	0.71	2
	29	26.79	0.53	2
	30	26.89	0.59	2
	31	27	0.56	2
	32	27.1	0.44	2
	33	27.2	0.49	2
	34	27.29	0.44	2
	35	27.37	0.42	2
	36	27.46	0.41	2
	37	27.55	0.46	2
	38	27.63	0.44	2
	39	27.72	0.35	2
	40	27.79	0.28	2
	41	27.86	0.26	2
	42	27.93	0.28	2
	43	28	0.32	2
	44	28.11	0.42	2
	45	28.21	0.37	2
	46	28.3	0.37	2
	47	28.38	0.36	2
	48	28.45	0.42	2
	49	28.53	0.4	2
	50	28.59	0.3	2
	51	28.71	0.44	2
	52	28.77	0.26	2
	53	28.83	0.31	2
	54	28.88	0.3	2
	55	28.93	0.27	2
	56	28.99	0.27	2
	57	29.04	0.27	2
	58	29.09	0.28	2
	59	29.16	0.36	2
	60	29.26	0.64	2
	61	29.37	0.68	2
	62	29.47	0.58	2
	63	29.57	0.62	2
	64	29.67	0.68	2
	65	29.76	0.57	2
	66	29.84	0.53	2
	67	29.92	0.59	2
	68	30.01	0.6	2
	69	30.11	0.71	2
	70	30.21	0.59	2
	71	30.31	0.59	2
	72	30.41	0.62	2
	73	30.49	0.55	2
	74	30.57	0.51	2
	75	30.65	0.43	2
	76	30.75	0.54	2
	77	30.87	0.66	2
	78	30.99	0.5	2
	79	31.11	0.5	2
	80	31.22	0.54	2
	81	31.34	0.46	2
	82	31.44	0.37	2
	83	31.55	0.38	2
	84	31.65	0.44	2
	85	31.74	0.42	2
	86	31.83	0.48	2
	87	31.92	0.46	2
	88	31.99	0.35	2
	89	32.06	0.33	2
	90	32.13	0.38	2
	91	32.2	0.43	2
	92	32.26	0.38	2
	93	32.33	0.39	2
	94	32.4	0.36	2
	95	32.46	0.36	2
	96	32.53	0.36	2
	97	32.59	0.38	2
	98	32.65	0.34	2
	99	32.71	0.28	2
	100	32.76	0.3	2
	101	32.82	0.31	2
	102	32.87	0.34	2
	103	32.94	0.39	2
	104	33.01	0.47	2
	105	33.09	0.45	2
	106	33.16	0.34	2
	107	33.23	0.34	2
	108	33.3	0.3	2
	109	33.37	0.32	2
	110	33.43	0.3	2
	111	33.5	0.27	2
	112	33.57	0.26	2
	113	33.65	0.32	2
	114	33.73	0.35	2
	115	33.81	0.34	2
	116	33.9	0.32	2
	117	33.99	0.34	2
	118	34.08	0.39	2
	119	34.17	0.43	2
	120	34.27	0.41	2
	121	34.4	0.51	2
	122	34.54	0.4	2
	123	34.68	0.56	2
	124	34.83	0.66	2
	125	34.98	0.62	2
	126	35.17	0.73	2
	127	35.38	0.69	2
	128	35.6	0.8	2
	129	35.83	0.74	2
	130	36.04	0.71	2
	131	36.17	0.46	2
	132	36.3	0.56	2
	133	36.43	0.51	2
	134	36.56	0.54	2
	135	36.7	0.59	2
	136	36.85	0.62	2
	137	37	0.52	2
	138	37.18	0.72	2
	139	37.41	0.78	2
	140	37.61	0.72	2
	141	37.8	0.99	2
	142	37.94	0.56	2
	143	38.06	0.6	2
	144	38.18	0.56	2
	145	38.28	0.45	2
	146	38.38	0.42	2
	147	38.47	0.47	2
	148	38.57	0.59	2
	149	38.66	0.64	2
	150	38.76	0.57	2
	151	38.86	0.51	2
	152	38.97	0.58	2
	153	39.15	1.21	2
	154	39.4	1.03	2
	155	39.75	1.64	2
	156	40.09	1.43	2
	157	40.32	0.8	2
	158	40.51	0.8	2
	159	40.7	0.93	2
	160	40.92	0.73	2
	161	41.17	1.2	2
	162	41.49	1.38	2
	163	42.03	2.16	2
	164	42.49	1.99	2
	165	43.2	2.37	2
	166	44.11	2.72	2
	167	44.56	1.09	2
	168	44.9	0.98	2
	169	45.19	0.85	2
	170	45.54	0.85	2
	171	45.93	0.77	2
	172	46.39	0.93	2
	173	47.13	1.02	2

