File:              	C:\Qtrac\Data\Daniel M Sørensen\MScan multicentre study\Data from centres\Ankara\Processed data\BAC10104D.QZD
Name:              	TR.ANK.NC.1.1
Protocol:          	MSCAN-R2
Date:              	4/1/21
Start time:        	17:30:07
Age:               	28
Sex:               	F
Temperature:
S/R sites:         	TA
NC/disease:        	NC
Operator:          	HA
Comments:
M-SCAN DATA (6.8-2m)
Scanpts: 30, 34, 499, 520
Stim. (mA)     	Amp. (mV)
MS.1           	34.5           	7.144
MS.2           	34.5           	7.166
MS.3           	34.5           	7.164
MS.4           	34.5           	7.291
MS.5           	34.5           	7.1
MS.6           	34.5           	7.076
MS.7           	34.5           	7.128
MS.8           	34.5           	7.064
MS.9           	34.5           	7.215
MS.10          	34.5           	7.124
MS.11          	34.5           	7.213
MS.12          	34.5           	7.134
MS.13          	34.5           	7.154
MS.14          	34.5           	7.08
MS.15          	34.5           	7.112
MS.16          	34.5           	7.116
MS.17          	34.5           	7.233
MS.18          	34.5           	7.241
MS.19          	34.5           	7.144
MS.20          	34.5           	7.122
MS.21          	34.5           	7.174
MS.22          	34.5           	7.148
MS.23          	34.5           	7.269
MS.24          	34.43          	7.076
MS.25          	34.362         	7.102
MS.26          	34.292         	7.239
MS.27          	34.225         	7.048
MS.28          	34.157         	7.05
MS.29          	34.087         	7.086
MS.30          	34.02          	7.023
MS.31          	33.952         	7.011
MS.32          	33.885         	7.033
MS.33          	33.818         	7.058
MS.34          	33.75          	7.003
MS.35          	33.682         	7.044
MS.36          	33.615         	7.035
MS.37          	33.548         	6.999
MS.38          	33.48          	6.993
MS.39          	33.412         	6.965
MS.40          	33.347         	6.981
MS.41          	33.28          	6.913
MS.42          	33.212         	6.973
MS.43          	33.147         	6.83
MS.44          	33.08          	7.009
MS.45          	33.015         	6.959
MS.46          	32.95          	6.898
MS.47          	32.882         	6.905
MS.48          	32.818         	6.933
MS.49          	32.752         	6.979
MS.50          	32.688         	6.886
MS.51          	32.62          	6.872
MS.52          	32.555         	6.776
MS.53          	32.49          	6.848
MS.54          	32.425         	6.764
MS.55          	32.36          	6.778
MS.56          	32.298         	6.741
MS.57          	32.232         	6.731
MS.58          	32.167         	6.768
MS.59          	32.103         	6.709
MS.60          	32.04          	6.774
MS.61          	31.975         	6.653
MS.62          	31.912         	6.687
MS.63          	31.847         	6.623
MS.64          	31.785         	6.633
MS.65          	31.72          	6.56
MS.66          	31.657         	6.586
MS.67          	31.592         	6.588
MS.68          	31.53          	6.528
MS.69          	31.467         	6.51
MS.70          	31.405         	6.504
MS.71          	31.342         	6.532
MS.72          	31.28          	6.486
MS.73          	31.217         	6.514
MS.74          	31.155         	6.478
MS.75          	31.092         	6.397
MS.76          	31.03          	6.455
MS.77          	30.967         	6.476
MS.78          	30.907         	6.431
MS.79          	30.845         	6.391
MS.80          	30.782         	6.433
MS.81          	30.722         	6.32
MS.82          	30.66          	6.341
MS.83          	30.597         	6.347
MS.84          	30.537         	6.345
MS.85          	30.477         	6.407
MS.86          	30.415         	6.314
MS.87          	30.355         	6.248
MS.88          	30.295         	6.367
MS.89          	30.235         	6.28
MS.90          	30.172         	6.218
MS.91          	30.112         	6.198
MS.92          	30.052         	6.159
MS.93          	29.992         	6.224
MS.94          	29.932         	6.115
MS.95          	29.872         	6.119
MS.96          	29.812         	6.014
MS.97          	29.755         	5.978
MS.98          	29.695         	5.982
MS.99          	29.635         	6.095
MS.100         	29.575         	5.976
MS.101         	29.517         	6.121
MS.102         	29.457         	6.089
MS.103         	29.4           	5.908
MS.104         	29.34          	5.897
MS.105         	29.282         	6.044
MS.106         	29.222         	5.92
MS.107         	29.165         	5.964
MS.108         	29.108         	5.879
MS.109         	29.047         	5.958
MS.110         	28.99          	5.785
MS.111         	28.932         	5.918
MS.112         	28.875         	5.893
MS.113         	28.817         	5.982
MS.114         	28.76          	5.98
MS.115         	28.702         	5.855
MS.116         	28.645         	5.829
MS.117         	28.587         	5.668
MS.118         	28.53          	5.76
MS.119         	28.472         	5.746
MS.120         	28.415         	5.72
MS.121         	28.36          	5.587
MS.122         	28.302         	5.601
MS.123         	28.245         	5.537
MS.124         	28.19          	5.507
MS.125         	28.132         	5.565
MS.126         	28.077         	5.559
MS.127         	28.02          	5.448
MS.128         	27.965         	5.533
MS.129         	27.91          	5.505
MS.130         	27.852         	5.47
MS.131         	27.797         	5.287
MS.132         	27.743         	5.414
MS.133         	27.688         	5.398
MS.134         	27.632         	5.329
MS.135         	27.577         	5.325
MS.136         	27.522         	5.263
MS.137         	27.467         	5.229
MS.138         	27.412         	5.106
MS.139         	27.358         	5.116
MS.140         	27.302         	5.104
MS.141         	27.247         	5.221
MS.142         	27.192         	5.058
MS.143         	27.137         	5.138
MS.144         	27.085         	4.878
MS.145         	27.03          	4.961
MS.146         	26.977         	4.8
MS.147         	26.922         	4.842
MS.148         	26.868         	4.868
MS.149         	26.815         	4.884
MS.150         	26.762         	4.798
MS.151         	26.707         	4.836
MS.152         	26.655         	4.683
MS.153         	26.602         	4.667
MS.154         	26.547         	4.457
MS.155         	26.495         	4.431
MS.156         	26.442         	4.494
MS.157         	26.39          	4.618
MS.158         	26.337         	4.336
MS.159         	26.285         	4.532
MS.160         	26.233         	4.447
MS.161         	26.18          	4.254
MS.162         	26.127         	4.129
MS.163         	26.075         	4.353
MS.164         	26.022         	4.014
MS.165         	25.97          	4.232
MS.166         	25.917         	4.155
MS.167         	25.868         	4.222
MS.168         	25.815         	3.96
MS.169         	25.762         	3.966
MS.170         	25.712         	3.944
MS.171         	25.66          	3.881
MS.172         	25.61          	4.026
MS.173         	25.557         	3.871
MS.174         	25.507         	3.926
MS.175         	25.455         	3.964
MS.176         	25.405         	3.706
MS.177         	25.355         	3.857
MS.178         	25.305         	3.611
MS.179         	25.252         	3.609
MS.180         	25.202         	3.601
MS.181         	25.153         	3.605
MS.182         	25.102         	3.559
MS.183         	25.052         	3.537
MS.184         	25.002         	3.464
MS.185         	24.952         	3.44
MS.186         	24.903         	3.36
MS.187         	24.852         	3.37
MS.188         	24.802         	3.339
MS.189         	24.752         	3.267
MS.190         	24.705         	3.207
MS.191         	24.655         	3.221
MS.192         	24.605         	3.168
MS.193         	24.555         	3.231
MS.194         	24.507         	3.253
MS.195         	24.457         	3.114
MS.196         	24.41          	3.074
MS.197         	24.36          	3.064
MS.198         	24.312         	3.055
MS.199         	24.262         	3.086
MS.200         	24.215         	3.126
MS.201         	24.167         	2.923
MS.202         	24.118         	2.88
MS.203         	24.07          	3.011
MS.204         	24.022         	2.997
MS.205         	23.972         	2.896
MS.206         	23.925         	2.947
MS.207         	23.877         	2.747
MS.208         	23.83          	2.745
MS.209         	23.782         	2.719
MS.210         	23.735         	2.731
MS.211         	23.688         	2.693
MS.212         	23.64          	2.649
MS.213         	23.592         	2.723
MS.214         	23.545         	2.649
MS.215         	23.5           	2.588
MS.216         	23.452         	2.532
MS.217         	23.405         	2.641
MS.218         	23.358         	2.498
MS.219         	23.312         	2.423
MS.220         	23.265         	2.405
MS.221         	23.217         	2.566
MS.222         	23.172         	2.51
MS.223         	23.125         	2.439
MS.224         	23.08          	2.242
MS.225         	23.032         	2.371
MS.226         	22.987         	2.308
MS.227         	22.942         	2.163
MS.228         	22.895         	2.111
MS.229         	22.85          	2.189
MS.230         	22.805         	2.131
MS.231         	22.76          	2.212
MS.232         	22.712         	2.06
MS.233         	22.667         	2.014
MS.234         	22.622         	2.012
MS.235         	22.577         	2.002
MS.236         	22.532         	1.94
MS.237         	22.487         	1.881
MS.238         	22.442         	1.76
MS.239         	22.397         	1.73
MS.240         	22.352         	1.752
MS.241         	22.307         	1.756
MS.242         	22.262         	1.764
MS.243         	22.22          	1.521
MS.244         	22.175         	1.67
MS.245         	22.13          	1.492
MS.246         	22.087         	1.549
MS.247         	22.042         	1.456
MS.248         	21.997         	1.567
MS.249         	21.955         	1.434
MS.250         	21.91          	1.356
MS.251         	21.868         	1.452
MS.252         	21.823         	1.347
MS.253         	21.78          	1.374
MS.254         	21.735         	1.269
MS.255         	21.692         	1.374
MS.256         	21.65          	1.339
MS.257         	21.605         	1.364
MS.258         	21.562         	1.301
MS.259         	21.52          	1.38
MS.260         	21.477         	1.331
MS.261         	21.432         	1.295
MS.262         	21.39          	1.279
MS.263         	21.347         	1.305
MS.264         	21.305         	1.283
MS.265         	21.262         	1.281
MS.266         	21.22          	1.152
MS.267         	21.177         	1.186
MS.268         	21.135         	1.211
MS.269         	21.092         	1.235
MS.270         	21.05          	1.269
MS.271         	21.01          	1.221
MS.272         	20.967         	1.255
MS.273         	20.925         	1.247
MS.274         	20.882         	1.188
MS.275         	20.842         	1.188
MS.276         	20.8           	1.202
MS.277         	20.757         	1.2
MS.278         	20.717         	1.178
MS.279         	20.675         	1.18
MS.280         	20.635         	1.128
MS.281         	20.592         	1.132
MS.282         	20.552         	1.102
MS.283         	20.51          	1.148
MS.284         	20.47          	1.116
MS.285         	20.43          	1.134
MS.286         	20.387         	1.148
MS.287         	20.347         	1.156
MS.288         	20.307         	1.132
MS.289         	20.267         	1.09
MS.290         	20.225         	1.033
MS.291         	20.185         	1.152
MS.292         	20.145         	1.086
MS.293         	20.105         	1.013
MS.294         	20.065         	1.07
MS.295         	20.025         	1.011
MS.296         	19.985         	1.041
MS.297         	19.945         	1.07
MS.298         	19.905         	0.949
MS.299         	19.865         	1.059
MS.300         	19.825         	1.047
MS.301         	19.785         	0.931
MS.302         	19.745         	0.971
MS.303         	19.708         	0.971
MS.304         	19.667         	0.922
MS.305         	19.627         	0.953
MS.306         	19.59          	0.955
MS.307         	19.55          	0.955
MS.308         	19.51          	0.902
MS.309         	19.472         	0.935
MS.310         	19.432         	0.828
MS.311         	19.395         	0.888
MS.312         	19.355         	0.858
MS.313         	19.317         	0.876
MS.314         	19.278         	0.862
MS.315         	19.24          	0.866
MS.316         	19.2           	0.792
MS.317         	19.163         	0.89
MS.318         	19.125         	0.814
MS.319         	19.085         	0.751
MS.320         	19.047         	0.751
MS.321         	19.01          	0.737
MS.322         	18.972         	0.749
MS.323         	18.935         	0.741
MS.324         	18.895         	0.719
MS.325         	18.858         	0.705
MS.326         	18.82          	0.677
MS.327         	18.782         	0.657
MS.328         	18.745         	0.677
MS.329         	18.708         	0.705
MS.330         	18.67          	0.608
MS.331         	18.632         	0.655
MS.332         	18.595         	0.659
MS.333         	18.56          	0.659
MS.334         	18.522         	0.645
MS.335         	18.485         	0.614
MS.336         	18.448         	0.649
MS.337         	18.41          	0.667
MS.338         	18.375         	0.645
MS.339         	18.337         	0.592
MS.340         	18.3           	0.578
MS.341         	18.265         	0.598
MS.342         	18.227         	0.56
MS.343         	18.192         	0.554
MS.344         	18.155         	0.556
MS.345         	18.12          	0.572
MS.346         	18.083         	0.524
MS.347         	18.047         	0.532
MS.348         	18.01          	0.53
MS.349         	17.975         	0.493
MS.350         	17.938         	0.512
MS.351         	17.903         	0.502
MS.352         	17.868         	0.473
MS.353         	17.833         	0.512
MS.354         	17.795         	0.493
MS.355         	17.76          	0.475
MS.356         	17.725         	0.473
MS.357         	17.69          	0.487
MS.358         	17.655         	0.469
MS.359         	17.618         	0.491
MS.360         	17.583         	0.479
MS.361         	17.547         	0.467
MS.362         	17.512         	0.449
MS.363         	17.477         	0.437
MS.364         	17.442         	0.445
MS.365         	17.407         	0.411
MS.366         	17.372         	0.373
MS.367         	17.34          	0.415
MS.368         	17.305         	0.405
MS.369         	17.27          	0.395
MS.370         	17.235         	0.383
MS.371         	17.2           	0.385
MS.372         	17.167         	0.344
MS.373         	17.132         	0.338
MS.374         	17.097         	0.365
MS.375         	17.065         	0.326
MS.376         	17.03          	0.32
MS.377         	16.995         	0.312
MS.378         	16.962         	0.294
MS.379         	16.927         	0.308
MS.380         	16.895         	0.282
MS.381         	16.86          	0.282
MS.382         	16.827         	0.272
MS.383         	16.792         	0.268
MS.384         	16.76          	0.276
MS.385         	16.725         	0.304
MS.386         	16.692         	0.254
MS.387         	16.66          	0.254
MS.388         	16.625         	0.246
MS.389         	16.592         	0.27
MS.390         	16.56          	0.222
MS.391         	16.528         	0.193
MS.392         	16.493         	0.228
MS.393         	16.46          	0.238
MS.394         	16.427         	0.199
MS.395         	16.395         	0.216
MS.396         	16.362         	0.22
MS.397         	16.33          	0.187
MS.398         	16.297         	0.197
MS.399         	16.265         	0.181
MS.400         	16.233         	0.177
MS.401         	16.2           	0.171
MS.402         	16.167         	0.147
MS.403         	16.135         	0.161
MS.404         	16.102         	0.159
MS.405         	16.07          	0.143
MS.406         	16.038         	0.139
MS.407         	16.005         	0.137
MS.408         	15.975         	0.149
MS.409         	15.943         	0.117
MS.410         	15.91          	0.095
MS.411         	15.877         	0.131
MS.412         	15.847         	0.133
MS.413         	15.815         	0.121
MS.414         	15.782         	0.113
MS.415         	15.752         	0.101
MS.416         	15.72          	0.111
MS.417         	15.69          	0.099
MS.418         	15.657         	0.077
MS.419         	15.627         	0.113
MS.420         	15.595         	0.103
MS.421         	15.565         	0.097
MS.422         	15.532         	0.091
MS.423         	15.502         	0.077
MS.424         	15.47          	0.085
MS.425         	15.44          	0.081
MS.426         	15.41          	0.054
MS.427         	15.377         	0.085
MS.428         	15.347         	0.056
MS.429         	15.318         	0.087
MS.430         	15.287         	0.06
MS.431         	15.255         	0.07
MS.432         	15.225         	0.079
MS.433         	15.195         	0.081
MS.434         	15.165         	0.075
MS.435         	15.135         	0.064
MS.436         	15.105         	0.046
MS.437         	15.075         	0.042
MS.438         	15.042         	0.044
MS.439         	15.012         	0.038
MS.440         	14.983         	0.034
MS.441         	14.952         	0.04
MS.442         	14.925         	0.044
MS.443         	14.895         	0.048
MS.444         	14.865         	0.028
MS.445         	14.835         	0.044
MS.446         	14.805         	0.038
MS.447         	14.775         	0.032
MS.448         	14.745         	0.04
MS.449         	14.717         	0.04
MS.450         	14.688         	0.03
MS.451         	14.657         	0.03
MS.452         	14.627         	0.03
MS.453         	14.6           	0.028
MS.454         	14.57          	0.022
MS.455         	14.54          	0.014
MS.456         	14.512         	0.034
MS.457         	14.483         	0.02
MS.458         	14.455         	0.026
MS.459         	14.425         	0.024
MS.460         	14.395         	0.024
MS.461         	14.367         	0.006
MS.462         	14.337         	0.022
MS.463         	14.31          	0.02
MS.464         	14.282         	0.018
MS.465         	14.252         	0.012
MS.466         	14.225         	0.03
MS.467         	14.195         	0.006
MS.468         	14.167         	0.008
MS.469         	14.14          	0.01
MS.470         	14.11          	0.01
MS.471         	14.082         	0.004
MS.472         	14.055         	0.012
MS.473         	14.028         	0.008
MS.474         	13.997         	0.006
MS.475         	13.97          	0.01
MS.476         	13.943         	-0.006
MS.477         	13.915         	-0.008
MS.478         	13.887         	0.006
MS.479         	13.86          	0.006
MS.480         	13.832         	0.01
MS.481         	13.805         	0.002
MS.482         	13.778         	0.000
MS.483         	13.75          	0.012
MS.484         	13.722         	0.01
MS.485         	13.695         	0.000
MS.486         	13.667         	0.006
MS.487         	13.64          	-0.002
MS.488         	13.612         	-0.008
MS.489         	13.585         	0.004
MS.490         	13.557         	-0.008
MS.491         	13.53          	-0.002
MS.492         	13.502         	-0.006
MS.493         	13.477         	-0.006
MS.494         	13.45          	-0.01
MS.495         	13.422         	-0.008
MS.496         	13.395         	-0.012
MS.497         	13.37          	-0.012
MS.498         	13.342         	-0.006
MS.499         	13.315         	-0.01
MS.500         	13.29          	-0.01
MS.501         	13.262         	-0.006
MS.502         	13.237         	-0.01
MS.503         	13.21          	-0.008
MS.504         	13.182         	-0.01
MS.505         	13.157         	-0.01
MS.506         	13.13          	-0.01
MS.507         	13.105         	-0.008
MS.508         	13.077         	-0.012
MS.509         	13.052         	-0.01
MS.510         	13.025         	-0.01
MS.511         	13             	-0.01
MS.512         	12.975         	-0.008
MS.513         	12.947         	-0.008
MS.514         	12.922         	-0.012
MS.515         	12.898         	-0.008
MS.516         	12.87          	-0.006
MS.517         	12.845         	-0.012
MS.518         	12.82          	-0.004
MS.519         	12.795         	-0.01
MS.520         	12.767         	-0.008
DERIVED EXCITABILITY VARIABLES
Program = QTracP 3/4/2020
Threshold method = 6 (optimised for CAP, using data for present condition only)
SR method = 1 (using actual data values)
6.                 	0.000               	Peak response\(mV)
17.                	28                  	Age (years)
18.                	2                   	Sex (M=1, F=2)

EXTRA VARIABLES

MScPeak(mV) = 7.16
MScS5(mA) = 17.13
MScS50(mA) = 25.13
MScS95(mA) = 32.52
MScNSteps = 1
MScSteps(%) = 2.1
MScStepMax(%) = 2.1
MScD50 = 63
MScSlope = 4.74
MSFPeakAmp(mV) = 7.03
MSFNUnits = 159
MSFMeanUnitAmp(uV) = 44.2
MSFHuntTime(m) = 3.63
MSFError(%) = 1.97
MSFNLarge = 48.43
MSFMedianAmp(%) = 0.5
MSFMedianAmp(mV) = 0.0352
MSFHalfAmpAmp(%) = 0.759
MSFHalfAmpAmp(mV) = 0.0534
MSFLargestAmp(%) = 1.87
MSFLargestAmp(mV) = 0.132
MSFMeanRS(%) = 2
MSFOpts = 10106121
MScDuration(min) = 4.8
MSFTraces = 491
MSFSizeLimit(uV) = 17.6
MSFLimitType = 1
MSFSmallestAmp(uV) = 18.2

EXTRA WAVEFORMS


!MScan Model
!159
	1	14.22	0.33	2
	2	14.96	0.55	2
	3	15.73	0.84	2
	4	15.97	0.36	2
	5	16.14	0.36	2
	6	16.29	0.51	2
	7	16.48	0.39	2
	8	16.59	0.3	2
	9	16.7	0.27	2
	10	16.86	0.53	2
	11	17.06	0.5	2
	12	17.18	0.44	2
	13	17.29	0.45	2
	14	17.38	0.33	2
	15	17.47	0.32	2
	16	17.57	0.42	2
	17	17.85	0.45	2
	18	18	0.38	2
	19	18.09	0.28	2
	20	18.18	0.36	2
	21	18.33	0.5	2
	22	18.51	0.53	2
	23	18.72	0.51	2
	24	18.87	0.53	2
	25	18.94	0.34	2
	26	18.99	0.27	2
	27	19.05	0.27	2
	28	19.1	0.27	2
	29	19.18	0.42	2
	30	19.29	0.48	2
	31	19.45	0.66	2
	32	19.62	0.58	2
	33	19.79	0.71	2
	34	20.03	0.96	2
	35	20.35	0.81	2
	36	20.52	0.47	2
	37	20.7	0.43	2
	38	21.22	1.24	2
	39	21.37	0.36	2
	40	21.72	1.18	2
	41	21.88	0.69	2
	42	21.99	0.72	2
	43	22.05	0.6	2
	44	22.1	0.5	2
	45	22.15	0.48	2
	46	22.2	0.51	2
	47	22.24	0.57	2
	48	22.28	0.48	2
	49	22.32	0.43	2
	50	22.36	0.43	2
	51	22.39	0.47	2
	52	22.43	0.47	2
	53	22.46	0.47	2
	54	22.5	0.47	2
	55	22.53	0.46	2
	56	22.57	0.35	2
	57	22.61	0.35	2
	58	22.64	0.4	2
	59	22.68	0.44	2
	60	22.71	0.46	2
	61	22.79	0.87	2
	62	22.86	0.86	2
	63	22.93	0.83	2
	64	23.01	0.9	2
	65	23.1	0.76	2
	66	23.2	0.98	2
	67	23.32	1.14	2
	68	23.42	0.91	2
	69	23.48	0.45	2
	70	23.54	0.41	2
	71	23.6	0.52	2
	72	23.67	0.59	2
	73	23.75	0.74	2
	74	23.84	0.81	2
	75	23.93	0.83	2
	76	24.03	0.72	2
	77	24.14	0.86	2
	78	24.29	1.34	2
	79	24.38	0.63	2
	80	24.43	0.3	2
	81	24.47	0.33	2
	82	24.52	0.32	2
	83	24.56	0.34	2
	84	24.6	0.34	2
	85	24.65	0.38	2
	86	24.7	0.38	2
	87	24.73	0.27	2
	88	24.75	0.28	2
	89	24.78	0.26	2
	90	24.8	0.26	2
	91	24.85	0.46	2
	92	24.89	0.39	2
	93	24.93	0.4	2
	94	24.98	0.4	2
	95	25.02	0.43	2
	96	25.06	0.5	2
	97	25.1	0.5	2
	98	25.17	0.79	2
	99	25.24	0.76	2
	100	25.3	0.69	2
	101	25.38	0.82	2
	102	25.48	1.04	2
	103	25.58	1.04	2
	104	25.72	1.48	2
	105	25.88	1.33	2
	106	26.03	1.55	2
	107	26.17	1.47	2
	108	26.28	1.14	2
	109	26.39	1.24	2
	110	26.51	1.4	2
	111	26.62	1.25	2
	112	26.71	0.96	2
	113	26.8	0.9	2
	114	26.88	0.94	2
	115	26.97	0.93	2
	116	27.05	0.78	2
	117	27.14	0.78	2
	118	27.23	0.85	2
	119	27.34	0.92	2
	120	27.44	0.91	2
	121	27.51	0.58	2
	122	27.56	0.41	2
	123	27.62	0.39	2
	124	27.67	0.44	2
	125	27.73	0.46	2
	126	27.84	0.91	2
	127	27.97	0.93	2
	128	28.07	0.57	2
	129	28.15	0.62	2
	130	28.24	0.45	2
	131	28.33	0.71	2
	132	28.45	0.78	2
	133	28.57	0.81	2
	134	29.13	1.86	2
	135	29.64	1.27	2
	136	29.81	0.76	2
	137	29.9	0.4	2
	138	29.99	0.54	2
	139	30.11	0.74	2
	140	30.25	0.76	2
	141	30.46	0.93	2
	142	30.71	0.84	2
	143	30.83	0.3	2
	144	30.94	0.33	2
	145	31.06	0.4	2
	146	31.19	0.48	2
	147	31.44	0.78	2
	148	31.51	0.33	2
	149	31.58	0.41	2
	150	31.76	0.6	2
	151	31.88	0.37	2
	152	31.96	0.34	2
	153	32.06	0.41	2
	154	32.15	0.39	2
	155	32.24	0.36	2
	156	32.34	0.38	2
	157	32.44	0.39	2
	158	32.54	0.4	2
	159	33.22	1.87	2

