File:              	C:\Qtrac\Data\Daniel M Sørensen\MScan multicentre study\Data from centres\Ankara\Processed data\BCC00821A.QZD
Name:              	TR.ANK.NC.2.2
Protocol:          	MSCAN-R2
Date:              	21/8/20
Start time:        	16:22:37
Age:               	54
Sex:               	m
Temperature:
S/R sites:         	APB
NC/disease:        	NC
Operator:          	nt
Comments:
M-SCAN DATA (11.7-5.3m)
Scanpts: 14, 20, 633, 648
Stim. (mA)     	Amp. (mV)
MS.1           	22.5           	9.897
MS.2           	22.5           	9.928
MS.3           	22.5           	9.786
MS.4           	22.5           	9.868
MS.5           	22.5           	9.972
MS.6           	22.5           	9.929
MS.7           	22.5           	10.009
MS.8           	22.5           	10.038
MS.9           	22.5           	9.996
MS.10          	22.5           	10.016
MS.11          	22.5           	10.034
MS.12          	22.5           	10.037
MS.13          	22.5           	10.018
MS.14          	22.5           	10.112
MS.15          	22.5           	10.045
MS.16          	22.5           	10.099
MS.17          	22.5           	10.062
MS.18          	22.5           	10.085
MS.19          	22.5           	10
MS.20          	22.5           	10.056
MS.21          	22.5           	10.049
MS.22          	22.5           	10.094
MS.23          	22.5           	10.029
MS.24          	22.41          	10.013
MS.25          	22.365         	10.024
MS.26          	22.32          	9.866
MS.27          	22.275         	10.01
MS.28          	22.233         	9.95
MS.29          	22.188         	9.862
MS.30          	22.142         	9.858
MS.31          	22.097         	10.01
MS.32          	22.055         	10
MS.33          	22.01          	10.011
MS.34          	21.967         	9.895
MS.35          	21.922         	9.928
MS.36          	21.877         	9.821
MS.37          	21.835         	10.007
MS.38          	21.792         	9.843
MS.39          	21.747         	9.988
MS.40          	21.705         	9.855
MS.41          	21.66          	10.018
MS.42          	21.618         	9.884
MS.43          	21.575         	10.042
MS.44          	21.532         	9.81
MS.45          	21.487         	9.767
MS.46          	21.445         	9.882
MS.47          	21.403         	9.727
MS.48          	21.36          	10.039
MS.49          	21.317         	9.807
MS.50          	21.275         	9.736
MS.51          	21.233         	9.758
MS.52          	21.19          	9.655
MS.53          	21.147         	9.453
MS.54          	21.105         	9.7
MS.55          	21.062         	9.595
MS.56          	21.02          	9.888
MS.57          	20.98          	9.404
MS.58          	20.938         	9.622
MS.59          	20.895         	9.352
MS.60          	20.852         	9.635
MS.61          	20.812         	9.589
MS.62          	20.77          	9.343
MS.63          	20.727         	9.569
MS.64          	20.688         	9.276
MS.65          	20.645         	9.297
MS.66          	20.605         	9.275
MS.67          	20.562         	9.46
MS.68          	20.522         	9.252
MS.69          	20.483         	9.376
MS.70          	20.44          	9.275
MS.71          	20.4           	9.138
MS.72          	20.36          	9.183
MS.73          	20.317         	9.091
MS.74          	20.278         	9.053
MS.75          	20.237         	9.211
MS.76          	20.198         	9.281
MS.77          	20.155         	9.038
MS.78          	20.115         	8.912
MS.79          	20.075         	9.305
MS.80          	20.035         	9.185
MS.81          	19.995         	9.146
MS.82          	19.955         	9.24
MS.83          	19.915         	8.947
MS.84          	19.875         	9.18
MS.85          	19.837         	8.966
MS.86          	19.797         	8.942
MS.87          	19.757         	8.986
MS.88          	19.717         	8.998
MS.89          	19.677         	8.882
MS.90          	19.64          	8.848
MS.91          	19.6           	8.877
MS.92          	19.56          	8.851
MS.93          	19.522         	8.896
MS.94          	19.483         	8.644
MS.95          	19.442         	8.967
MS.96          	19.405         	8.778
MS.97          	19.365         	8.95
MS.98          	19.327         	8.646
MS.99          	19.288         	8.474
MS.100         	19.25          	8.47
MS.101         	19.212         	8.567
MS.102         	19.172         	8.475
MS.103         	19.135         	8.506
MS.104         	19.097         	8.403
MS.105         	19.057         	8.759
MS.106         	19.02          	8.502
MS.107         	18.983         	8.16
MS.108         	18.945         	7.985
MS.109         	18.907         	8.505
MS.110         	18.87          	8.132
MS.111         	18.83          	8.237
MS.112         	18.792         	7.969
MS.113         	18.755         	7.986
MS.114         	18.717         	8.21
MS.115         	18.68          	7.528
MS.116         	18.645         	7.694
MS.117         	18.608         	7.939
MS.118         	18.57          	7.19
MS.119         	18.532         	8.174
MS.120         	18.495         	7.632
MS.121         	18.458         	7.513
MS.122         	18.422         	7.754
MS.123         	18.385         	7.124
MS.124         	18.347         	7.33
MS.125         	18.31          	6.912
MS.126         	18.275         	7.361
MS.127         	18.237         	7.312
MS.128         	18.202         	6.816
MS.129         	18.165         	6.92
MS.130         	18.13          	6.711
MS.131         	18.092         	6.841
MS.132         	18.057         	6.697
MS.133         	18.02          	6.683
MS.134         	17.985         	6.624
MS.135         	17.948         	6.752
MS.136         	17.913         	6.606
MS.137         	17.878         	6.577
MS.138         	17.84          	6.593
MS.139         	17.805         	6.34
MS.140         	17.77          	6.655
MS.141         	17.735         	6.501
MS.142         	17.7           	6.046
MS.143         	17.663         	6.265
MS.144         	17.628         	6.169
MS.145         	17.592         	6.377
MS.146         	17.557         	6.299
MS.147         	17.522         	6.298
MS.148         	17.487         	5.905
MS.149         	17.452         	6.265
MS.150         	17.417         	5.978
MS.151         	17.382         	5.935
MS.152         	17.347         	5.818
MS.153         	17.315         	6.158
MS.154         	17.28          	5.981
MS.155         	17.245         	5.784
MS.156         	17.21          	5.873
MS.157         	17.175         	5.868
MS.158         	17.142         	5.466
MS.159         	17.108         	5.87
MS.160         	17.073         	5.632
MS.161         	17.04          	5.521
MS.162         	17.005         	5.223
MS.163         	16.97          	5.58
MS.164         	16.938         	5.314
MS.165         	16.903         	5.46
MS.166         	16.87          	5.686
MS.167         	16.835         	5.031
MS.168         	16.802         	5.367
MS.169         	16.767         	5.188
MS.170         	16.735         	5.215
MS.171         	16.702         	5.151
MS.172         	16.667         	5.201
MS.173         	16.635         	5.045
MS.174         	16.602         	4.802
MS.175         	16.567         	4.785
MS.176         	16.535         	4.701
MS.177         	16.503         	4.843
MS.178         	16.47          	4.553
MS.179         	16.438         	4.858
MS.180         	16.405         	4.554
MS.181         	16.37          	4.355
MS.182         	16.337         	4.791
MS.183         	16.305         	4.152
MS.184         	16.272         	4.29
MS.185         	16.24          	3.958
MS.186         	16.208         	4.408
MS.187         	16.175         	4.015
MS.188         	16.142         	4.337
MS.189         	16.11          	3.82
MS.190         	16.08          	4.073
MS.191         	16.047         	3.494
MS.192         	16.015         	3.475
MS.193         	15.983         	3.839
MS.194         	15.95          	3.547
MS.195         	15.92          	3.397
MS.196         	15.887         	3.719
MS.197         	15.855         	3.8
MS.198         	15.822         	3.695
MS.199         	15.792         	3.699
MS.200         	15.76          	3.328
MS.201         	15.73          	3.613
MS.202         	15.697         	3.484
MS.203         	15.667         	3.429
MS.204         	15.635         	3.381
MS.205         	15.602         	3.221
MS.206         	15.572         	3.342
MS.207         	15.542         	2.792
MS.208         	15.51          	3.169
MS.209         	15.48          	3.286
MS.210         	15.447         	2.809
MS.211         	15.417         	2.921
MS.212         	15.387         	3.004
MS.213         	15.355         	2.71
MS.214         	15.325         	2.683
MS.215         	15.295         	2.706
MS.216         	15.265         	2.976
MS.217         	15.233         	2.799
MS.218         	15.202         	2.676
MS.219         	15.172         	2.742
MS.220         	15.142         	2.605
MS.221         	15.112         	2.542
MS.222         	15.082         	2.657
MS.223         	15.052         	2.506
MS.224         	15.023         	2.405
MS.225         	14.992         	2.429
MS.226         	14.962         	2.445
MS.227         	14.932         	2.341
MS.228         	14.902         	2.543
MS.229         	14.872         	2.24
MS.230         	14.842         	2.147
MS.231         	14.812         	2.113
MS.232         	14.782         	1.853
MS.233         	14.755         	1.812
MS.234         	14.725         	2.156
MS.235         	14.695         	1.832
MS.236         	14.665         	1.621
MS.237         	14.637         	1.956
MS.238         	14.608         	1.807
MS.239         	14.577         	1.67
MS.240         	14.55          	1.888
MS.241         	14.52          	1.945
MS.242         	14.49          	1.744
MS.243         	14.462         	1.558
MS.244         	14.432         	1.588
MS.245         	14.405         	1.732
MS.246         	14.375         	1.621
MS.247         	14.347         	1.919
MS.248         	14.318         	1.572
MS.249         	14.29          	1.73
MS.250         	14.26          	1.571
MS.251         	14.233         	1.592
MS.252         	14.205         	1.555
MS.253         	14.175         	1.55
MS.254         	14.148         	1.438
MS.255         	14.12          	1.488
MS.256         	14.09          	1.409
MS.257         	14.062         	1.448
MS.258         	14.035         	1.523
MS.259         	14.007         	1.412
MS.260         	13.977         	1.376
MS.261         	13.95          	1.44
MS.262         	13.922         	1.287
MS.263         	13.895         	1.267
MS.264         	13.867         	1.276
MS.265         	13.84          	1.276
MS.266         	13.812         	1.316
MS.267         	13.785         	1.306
MS.268         	13.757         	1.292
MS.269         	13.73          	1.317
MS.270         	13.702         	1.304
MS.271         	13.675         	1.329
MS.272         	13.648         	1.266
MS.273         	13.62          	1.298
MS.274         	13.592         	1.266
MS.275         	13.565         	1.299
MS.276         	13.537         	1.24
MS.277         	13.51          	1.285
MS.278         	13.485         	1.324
MS.279         	13.457         	1.31
MS.280         	13.43          	1.263
MS.281         	13.403         	1.289
MS.282         	13.377         	1.234
MS.283         	13.35          	1.205
MS.284         	13.322         	1.23
MS.285         	13.297         	1.272
MS.286         	13.27          	1.228
MS.287         	13.242         	1.243
MS.288         	13.217         	1.199
MS.289         	13.19          	1.174
MS.290         	13.165         	1.172
MS.291         	13.137         	1.206
MS.292         	13.112         	1.062
MS.293         	13.085         	1.143
MS.294         	13.06          	1.127
MS.295         	13.032         	1.167
MS.296         	13.007         	1.187
MS.297         	12.983         	1.08
MS.298         	12.955         	1.171
MS.299         	12.93          	1.139
MS.300         	12.903         	1.018
MS.301         	12.877         	1.079
MS.302         	12.852         	0.819
MS.303         	12.827         	0.909
MS.304         	12.8           	0.992
MS.305         	12.775         	0.779
MS.306         	12.75          	0.801
MS.307         	12.725         	0.813
MS.308         	12.7           	0.819
MS.309         	12.672         	0.839
MS.310         	12.648         	0.815
MS.311         	12.622         	0.811
MS.312         	12.597         	0.994
MS.313         	12.572         	0.789
MS.314         	12.547         	0.983
MS.315         	12.523         	0.775
MS.316         	12.497         	0.784
MS.317         	12.472         	0.779
MS.318         	12.447         	0.969
MS.319         	12.422         	0.759
MS.320         	12.398         	0.734
MS.321         	12.372         	0.747
MS.322         	12.347         	0.779
MS.323         	12.322         	0.778
MS.324         	12.3           	0.72
MS.325         	12.275         	0.699
MS.326         	12.25          	0.651
MS.327         	12.225         	0.718
MS.328         	12.2           	0.786
MS.329         	12.177         	0.763
MS.330         	12.153         	0.828
MS.331         	12.127         	0.734
MS.332         	12.102         	0.708
MS.333         	12.08          	0.735
MS.334         	12.055         	0.715
MS.335         	12.032         	0.703
MS.336         	12.007         	0.741
MS.337         	11.983         	0.753
MS.338         	11.96          	0.734
MS.339         	11.935         	0.685
MS.340         	11.912         	0.688
MS.341         	11.887         	0.485
MS.342         	11.865         	0.668
MS.343         	11.84          	0.519
MS.344         	11.818         	0.668
MS.345         	11.792         	0.657
MS.346         	11.77          	0.669
MS.347         	11.745         	0.681
MS.348         	11.722         	0.634
MS.349         	11.7           	0.695
MS.350         	11.675         	0.532
MS.351         	11.653         	0.496
MS.352         	11.63          	0.49
MS.353         	11.605         	0.538
MS.354         	11.582         	0.519
MS.355         	11.56          	0.654
MS.356         	11.537         	0.632
MS.357         	11.512         	0.498
MS.358         	11.49          	0.643
MS.359         	11.467         	0.653
MS.360         	11.445         	0.662
MS.361         	11.422         	0.54
MS.362         	11.4           	0.488
MS.363         	11.375         	0.503
MS.364         	11.352         	0.524
MS.365         	11.33          	0.537
MS.366         	11.307         	0.579
MS.367         	11.285         	0.553
MS.368         	11.262         	0.519
MS.369         	11.24          	0.508
MS.370         	11.217         	0.527
MS.371         	11.195         	0.521
MS.372         	11.172         	0.529
MS.373         	11.15          	0.508
MS.374         	11.127         	0.507
MS.375         	11.108         	0.519
MS.376         	11.085         	0.531
MS.377         	11.062         	0.54
MS.378         	11.04          	0.546
MS.379         	11.017         	0.543
MS.380         	10.995         	0.525
MS.381         	10.975         	0.529
MS.382         	10.952         	0.531
MS.383         	10.93          	0.532
MS.384         	10.907         	0.526
MS.385         	10.887         	0.525
MS.386         	10.865         	0.538
MS.387         	10.842         	0.537
MS.388         	10.82          	0.522
MS.389         	10.8           	0.511
MS.390         	10.778         	0.482
MS.391         	10.757         	0.492
MS.392         	10.735         	0.49
MS.393         	10.712         	0.51
MS.394         	10.693         	0.521
MS.395         	10.67          	0.519
MS.396         	10.65          	0.507
MS.397         	10.627         	0.521
MS.398         	10.608         	0.516
MS.399         	10.585         	0.499
MS.400         	10.565         	0.503
MS.401         	10.542         	0.5
MS.402         	10.523         	0.518
MS.403         	10.502         	0.524
MS.404         	10.48          	0.493
MS.405         	10.46          	0.465
MS.406         	10.438         	0.408
MS.407         	10.417         	0.468
MS.408         	10.398         	0.47
MS.409         	10.375         	0.469
MS.410         	10.355         	0.464
MS.411         	10.335         	0.452
MS.412         	10.315         	0.388
MS.413         	10.292         	0.405
MS.414         	10.273         	0.442
MS.415         	10.252         	0.443
MS.416         	10.233         	0.48
MS.417         	10.212         	0.441
MS.418         	10.19          	0.431
MS.419         	10.17          	0.428
MS.420         	10.15          	0.394
MS.421         	10.13          	0.383
MS.422         	10.11          	0.364
MS.423         	10.09          	0.387
MS.424         	10.07          	0.405
MS.425         	10.05          	0.385
MS.426         	10.03          	0.377
MS.427         	10.01          	0.386
MS.428         	9.99           	0.382
MS.429         	9.97           	0.363
MS.430         	9.95           	0.371
MS.431         	9.93           	0.369
MS.432         	9.91           	0.366
MS.433         	9.89           	0.366
MS.434         	9.87           	0.369
MS.435         	9.85           	0.374
MS.436         	9.83           	0.356
MS.437         	9.81           	0.365
MS.438         	9.792          	0.367
MS.439         	9.773          	0.37
MS.440         	9.752          	0.371
MS.441         	9.733          	0.372
MS.442         	9.712          	0.367
MS.443         	9.695          	0.372
MS.444         	9.675          	0.361
MS.445         	9.655          	0.374
MS.446         	9.635          	0.36
MS.447         	9.617          	0.367
MS.448         	9.597          	0.364
MS.449         	9.577          	0.35
MS.450         	9.56           	0.35
MS.451         	9.54           	0.337
MS.452         	9.52           	0.333
MS.453         	9.502          	0.325
MS.454         	9.483          	0.322
MS.455         	9.465          	0.312
MS.456         	9.445          	0.312
MS.457         	9.427          	0.315
MS.458         	9.407          	0.309
MS.459         	9.387          	0.304
MS.460         	9.37           	0.305
MS.461         	9.352          	0.3
MS.462         	9.332          	0.297
MS.463         	9.315          	0.297
MS.464         	9.295          	0.286
MS.465         	9.278          	0.287
MS.466         	9.257          	0.287
MS.467         	9.24           	0.294
MS.468         	9.222          	0.295
MS.469         	9.202          	0.292
MS.470         	9.185          	0.273
MS.471         	9.165          	0.266
MS.472         	9.148          	0.269
MS.473         	9.13           	0.267
MS.474         	9.113          	0.264
MS.475         	9.092          	0.262
MS.476         	9.075          	0.273
MS.477         	9.057          	0.275
MS.478         	9.037          	0.281
MS.479         	9.02           	0.272
MS.480         	9.002          	0.267
MS.481         	8.985          	0.27
MS.482         	8.967          	0.266
MS.483         	8.948          	0.262
MS.484         	8.93           	0.265
MS.485         	8.912          	0.264
MS.486         	8.895          	0.27
MS.487         	8.877          	0.271
MS.488         	8.86           	0.273
MS.489         	8.842          	0.273
MS.490         	8.825          	0.269
MS.491         	8.807          	0.27
MS.492         	8.79           	0.272
MS.493         	8.773          	0.262
MS.494         	8.755          	0.265
MS.495         	8.738          	0.248
MS.496         	8.72           	0.253
MS.497         	8.702          	0.255
MS.498         	8.685          	0.253
MS.499         	8.667          	0.25
MS.500         	8.65           	0.249
MS.501         	8.632          	0.248
MS.502         	8.615          	0.244
MS.503         	8.597          	0.24
MS.504         	8.58           	0.233
MS.505         	8.562          	0.233
MS.506         	8.547          	0.237
MS.507         	8.53           	0.247
MS.508         	8.512          	0.238
MS.509         	8.495          	0.233
MS.510         	8.477          	0.236
MS.511         	8.462          	0.239
MS.512         	8.445          	0.237
MS.513         	8.427          	0.243
MS.514         	8.41           	0.243
MS.515         	8.395          	0.24
MS.516         	8.377          	0.239
MS.517         	8.36           	0.233
MS.518         	8.342          	0.231
MS.519         	8.327          	0.228
MS.520         	8.31           	0.232
MS.521         	8.295          	0.228
MS.522         	8.278          	0.227
MS.523         	8.26           	0.227
MS.524         	8.245          	0.228
MS.525         	8.227          	0.225
MS.526         	8.212          	0.225
MS.527         	8.195          	0.223
MS.528         	8.177          	0.22
MS.529         	8.162          	0.215
MS.530         	8.145          	0.215
MS.531         	8.13           	0.22
MS.532         	8.113          	0.219
MS.533         	8.097          	0.216
MS.534         	8.08           	0.214
MS.535         	8.065          	0.212
MS.536         	8.047          	0.211
MS.537         	8.033          	0.219
MS.538         	8.017          	0.215
MS.539         	8              	0.22
MS.540         	7.985          	0.215
MS.541         	7.967          	0.219
MS.542         	7.952          	0.217
MS.543         	7.938          	0.219
MS.544         	7.92           	0.21
MS.545         	7.905          	0.214
MS.546         	7.89           	0.221
MS.547         	7.872          	0.215
MS.548         	7.857          	0.215
MS.549         	7.842          	0.216
MS.550         	7.827          	0.219
MS.551         	7.81           	0.215
MS.552         	7.795          	0.205
MS.553         	7.78           	0.201
MS.554         	7.765          	0.206
MS.555         	7.747          	0.216
MS.556         	7.732          	0.209
MS.557         	7.717          	0.211
MS.558         	7.702          	0.21
MS.559         	7.688          	0.21
MS.560         	7.672          	0.204
MS.561         	7.655          	0.201
MS.562         	7.64           	0.205
MS.563         	7.625          	0.208
MS.564         	7.61           	0.212
MS.565         	7.595          	0.21
MS.566         	7.58           	0.205
MS.567         	7.565          	0.2
MS.568         	7.55           	0.204
MS.569         	7.535          	0.21
MS.570         	7.52           	0.212
MS.571         	7.505          	0.214
MS.572         	7.49           	0.216
MS.573         	7.475          	0.215
MS.574         	7.46           	0.214
MS.575         	7.445          	0.208
MS.576         	7.43           	0.203
MS.577         	7.415          	0.21
MS.578         	7.4            	0.212
MS.579         	7.385          	0.21
MS.580         	7.37           	0.209
MS.581         	7.355          	0.205
MS.582         	7.342          	0.203
MS.583         	7.327          	0.203
MS.584         	7.312          	0.204
MS.585         	7.297          	0.203
MS.586         	7.282          	0.205
MS.587         	7.267          	0.205
MS.588         	7.253          	0.205
MS.589         	7.24           	0.145
MS.590         	7.225          	0.204
MS.591         	7.21           	0.203
MS.592         	7.195          	0.143
MS.593         	7.182          	0.132
MS.594         	7.168          	0.203
MS.595         	7.152          	0.138
MS.596         	7.137          	0.143
MS.597         	7.125          	0.149
MS.598         	7.11           	0.211
MS.599         	7.095          	0.156
MS.600         	7.082          	0.148
MS.601         	7.067          	0.148
MS.602         	7.052          	0.206
MS.603         	7.04           	0.146
MS.604         	7.025          	0.143
MS.605         	7.01           	0.149
MS.606         	6.997          	0.148
MS.607         	6.983          	0.144
MS.608         	6.97           	0.14
MS.609         	6.955          	0.144
MS.610         	6.942          	0.143
MS.611         	6.927          	0.143
MS.612         	6.912          	0.14
MS.613         	6.9            	0.143
MS.614         	6.885          	0.14
MS.615         	6.872          	0.137
MS.616         	6.858          	0.132
MS.617         	6.845          	0.14
MS.618         	6.832          	0.137
MS.619         	6.817          	0.138
MS.620         	6.805          	0.142
MS.621         	6.79           	0.134
MS.622         	6.777          	0.135
MS.623         	6.762          	0.131
MS.624         	6.75           	0.132
MS.625         	6.737          	0.134
MS.626         	6.722          	0.132
MS.627         	6.71           	0.131
MS.628         	6.695          	0.129
MS.629         	6.682          	0.138
MS.630         	6.67           	0.133
MS.631         	6.655          	0.127
MS.632         	6.642          	0.131
MS.633         	6.63           	0.132
MS.634         	6.615          	0.128
MS.635         	6.602          	0.128
MS.636         	6.59           	0.129
MS.637         	6.577          	0.128
MS.638         	6.562          	0.125
MS.639         	6.55           	0.126
MS.640         	6.537          	0.127
MS.641         	6.525          	0.125
MS.642         	6.51           	0.125
MS.643         	6.497          	0.128
MS.644         	6.485          	0.125
MS.645         	6.472          	0.122
MS.646         	6.46           	0.118
MS.647         	6.447          	0.118
MS.648         	6.432          	0.118
MS.649         	6.42           	0.121
MS.650         	6.407          	0.117
MS.651         	6.395          	0.121
MS.652         	6.382          	0.117
MS.653         	6.37           	0.117
MS.654         	6.358          	0.118
MS.655         	6.345          	0.118
MS.656         	6.332          	0.121
MS.657         	6.317          	0.116
MS.658         	6.305          	0.117
MS.659         	6.293          	0.115
MS.660         	6.28           	0.115
MS.661         	6.267          	0.112
MS.662         	6.255          	0.112
MS.663         	6.242          	0.11
MS.664         	6.23           	0.112
MS.665         	6.217          	0.114
MS.666         	6.205          	0.114
MS.667         	6.192          	0.111
MS.668         	6.18           	0.114
MS.669         	6.17           	0.114
MS.670         	6.157          	0.114
MS.671         	6.145          	0.114
MS.672         	6.132          	0.112
MS.673         	6.12           	0.109
MS.674         	6.108          	0.11
MS.675         	6.095          	0.114
MS.676         	6.082          	0.109
MS.677         	6.07           	0.111
MS.678         	6.06           	0.111
MS.679         	6.047          	0.107
MS.680         	6.035          	0.103
DERIVED EXCITABILITY VARIABLES
Program = QTracP 3/4/2020
Threshold method = 6 (optimised for CAP, using data for present condition only)
SR method = 1 (using actual data values)
6.                 	0.000               	Peak response\(mV)
17.                	54                  	Age (years)
18.                	1                   	Sex (M=1, F=2)

EXTRA VARIABLES

MScPeak(mV) = 9.89
MScS5(mA) = 11.32
MScS50(mA) = 16.62
MScS95(mA) = 20.74
MScNSteps = 1
MScSteps(%) = 2.1
MScStepMax(%) = 2.1
MScD50 = 51
MScSlope = 4.66
MSFPeakAmp(mV) = 9.94
MSFNUnits = 94
MSFMeanUnitAmp(uV) = 105.7
MSFHuntTime(m) = 3.08
MSFError(%) = 3.29
MSFNLarge = 30.84
MSFMedianAmp(%) = 1.01
MSFMedianAmp(mV) = 0.1
MSFHalfAmpAmp(%) = 1.15
MSFHalfAmpAmp(mV) = 0.115
MSFLargestAmp(%) = 2.56
MSFLargestAmp(mV) = 0.255
MSFMeanRS(%) = 2
MSFOpts = 10106121
MScDuration(min) = 6.4
MSFTraces = 635
MSFSizeLimit(uV) = 24.9
MSFLimitType = 1
MSFSmallestAmp(uV) = 28.7

EXTRA WAVEFORMS


!MScan Model
!94
	1	7.11	0.36	2
	2	7.31	0.49	2
	3	8.51	0.56	2
	4	9.34	0.48	2
	5	9.5	0.33	2
	6	9.81	0.46	2
	7	10.24	0.49	2
	8	10.39	0.38	2
	9	10.77	0.54	2
	10	11.57	0.73	2
	11	11.92	1.39	2.4
	12	12.46	0.8	2
	13	12.75	1.04	2
	14	12.86	1.01	2
	15	13.02	1.09	2
	16	13.15	0.65	2
	17	13.33	0.68	2
	18	13.64	0.45	2
	19	13.95	0.5	2
	20	13.99	0.29	2
	21	14.07	0.52	2
	22	14.15	0.58	2
	23	14.3	1.07	2
	24	14.38	0.45	2
	25	14.54	1.76	2
	26	14.63	0.76	2
	27	14.69	0.93	2
	28	14.76	0.92	2
	29	14.8	0.54	2
	30	14.84	0.44	2
	31	14.88	0.72	2
	32	14.92	0.77	2
	33	14.96	0.64	2
	34	15	0.54	2
	35	15.05	0.7	2
	36	15.13	1.47	2
	37	15.22	1.02	2
	38	15.3	1.08	2
	39	15.38	0.98	2
	40	15.44	0.93	1.6
	41	15.51	1.18	2
	42	15.6	1.15	2
	43	15.73	1.92	2
	44	15.91	2.56	2
	45	16.03	1.69	2
	46	16.11	1.54	2
	47	16.18	1.25	2
	48	16.24	0.79	2
	49	16.31	1.34	2
	50	16.36	1.15	2
	51	16.41	1.32	2
	52	16.46	0.95	2
	53	16.52	1.03	2
	54	16.57	0.97	2
	55	16.63	1	2
	56	16.68	0.92	2
	57	16.73	0.67	2
	58	16.8	1.13	2
	59	16.89	1.57	2
	60	16.98	1.2	2
	61	17.08	1.19	2
	62	17.16	1.14	2
	63	17.24	0.87	2
	64	17.32	1.03	2
	65	17.43	1.27	2
	66	17.53	1.15	2
	67	17.62	1.22	2
	68	17.71	1.02	2
	69	17.8	0.88	2
	70	17.87	0.81	2
	71	17.94	1	2
	72	18.02	0.79	2
	73	18.07	1.34	2
	74	18.13	0.99	2
	75	18.21	1.43	2
	76	18.3	1.05	2
	77	18.4	1.83	2
	78	18.51	2.13	2
	79	18.64	2.45	2
	80	18.78	2.19	2
	81	18.9	1.01	2
	82	19.02	1.88	2
	83	19.14	1.51	2
	84	19.26	1.06	2
	85	19.35	0.95	2
	86	19.44	0.74	2
	87	19.55	0.8	2
	88	19.75	1.69	2
	89	20.14	1.47	2
	90	20.51	1.98	2
	91	20.73	1.01	2
	92	20.96	1.31	2
	93	21.26	2.27	2
	94	22.11	1.68	2

