File:              	C:\Qtrac\Data\Daniel M Sørensen\MScan multicentre study\Data from centres\Ankara\Processed data\ÇCC10114B.QZD
Name:              	TR.ANK.NC.3.1
Protocol:          	MSCAN-R2
Date:              	14/1/21
Start time:        	19:53:12
Age:               	28
Sex:               	M
Temperature:
S/R sites:         	ADM
NC/disease:        	NC
Operator:          	HA
Comments:
M-SCAN DATA (4.6-1m)
Scanpts: 3, 6, 378, 384
Stim. (mA)     	Amp. (mV)
MS.1           	32             	8.401
MS.2           	32             	8.401
MS.3           	32             	8.314
MS.4           	32             	8.314
MS.5           	32             	8.399
MS.6           	32             	8.365
MS.7           	32             	8.361
MS.8           	32             	8.421
MS.9           	32             	8.449
MS.10          	32             	8.417
MS.11          	32             	8.337
MS.12          	32             	8.419
MS.13          	32             	8.296
MS.14          	32             	8.397
MS.15          	32             	8.466
MS.16          	32             	8.286
MS.17          	32             	8.369
MS.18          	32             	8.353
MS.19          	32             	8.248
MS.20          	32             	8.329
MS.21          	32             	8.057
MS.22          	32             	8.25
MS.23          	32             	8.226
MS.24          	31.935         	8.329
MS.25          	31.872         	8.343
MS.26          	31.807         	8.206
MS.27          	31.745         	8.206
MS.28          	31.682         	8.335
MS.29          	31.617         	8.266
MS.30          	31.555         	8.206
MS.31          	31.492         	8.099
MS.32          	31.43          	8.163
MS.33          	31.367         	8.131
MS.34          	31.302         	8.163
MS.35          	31.24          	8.067
MS.36          	31.177         	8.073
MS.37          	31.117         	8.083
MS.38          	31.055         	8.055
MS.39          	30.992         	8.143
MS.40          	30.93          	8.216
MS.41          	30.867         	8.24
MS.42          	30.807         	8.041
MS.43          	30.745         	8.081
MS.44          	30.685         	7.869
MS.45          	30.622         	7.984
MS.46          	30.562         	8.111
MS.47          	30.5           	7.998
MS.48          	30.44          	8.032
MS.49          	30.377         	7.936
MS.50          	30.317         	7.992
MS.51          	30.257         	7.946
MS.52          	30.198         	7.883
MS.53          	30.137         	7.791
MS.54          	30.077         	7.801
MS.55          	30.015         	7.817
MS.56          	29.955         	7.815
MS.57          	29.897         	7.642
MS.58          	29.837         	7.612
MS.59          	29.778         	7.712
MS.60          	29.717         	7.662
MS.61          	29.657         	7.626
MS.62          	29.6           	7.515
MS.63          	29.54          	7.293
MS.64          	29.48          	7.718
MS.65          	29.422         	7.487
MS.66          	29.362         	7.386
MS.67          	29.305         	7.539
MS.68          	29.245         	7.434
MS.69          	29.188         	7.239
MS.70          	29.13          	7.203
MS.71          	29.07          	7.201
MS.72          	29.012         	7.156
MS.73          	28.955         	7.015
MS.74          	28.897         	7.114
MS.75          	28.84          	7.094
MS.76          	28.782         	6.862
MS.77          	28.725         	7.064
MS.78          	28.667         	6.818
MS.79          	28.61          	6.709
MS.80          	28.552         	6.927
MS.81          	28.495         	6.868
MS.82          	28.438         	6.836
MS.83          	28.382         	6.772
MS.84          	28.325         	6.649
MS.85          	28.267         	6.786
MS.86          	28.212         	6.56
MS.87          	28.155         	6.804
MS.88          	28.1           	6.647
MS.89          	28.042         	6.469
MS.90          	27.987         	6.341
MS.91          	27.93          	6.564
MS.92          	27.875         	6.324
MS.93          	27.82          	6.55
MS.94          	27.765         	6.504
MS.95          	27.707         	6.449
MS.96          	27.653         	6.381
MS.97          	27.597         	6.339
MS.98          	27.542         	6.316
MS.99          	27.487         	6.401
MS.100         	27.432         	6.065
MS.101         	27.377         	6.322
MS.102         	27.323         	5.899
MS.103         	27.267         	6.093
MS.104         	27.215         	6.014
MS.105         	27.16          	5.797
MS.106         	27.105         	5.67
MS.107         	27.052         	5.748
MS.108         	26.997         	5.853
MS.109         	26.942         	5.517
MS.110         	26.89          	5.676
MS.111         	26.835         	5.348
MS.112         	26.782         	5.752
MS.113         	26.727         	5.569
MS.114         	26.675         	5.479
MS.115         	26.622         	5.481
MS.116         	26.57          	5.36
MS.117         	26.515         	5.472
MS.118         	26.462         	5.41
MS.119         	26.41          	5.315
MS.120         	26.358         	5.34
MS.121         	26.305         	5.325
MS.122         	26.252         	5.142
MS.123         	26.2           	5.122
MS.124         	26.147         	5.112
MS.125         	26.095         	4.83
MS.126         	26.042         	4.864
MS.127         	25.99          	4.896
MS.128         	25.938         	4.88
MS.129         	25.887         	4.941
MS.130         	25.835         	4.959
MS.131         	25.782         	4.804
MS.132         	25.733         	4.792
MS.133         	25.68          	4.906
MS.134         	25.63          	4.818
MS.135         	25.577         	4.727
MS.136         	25.528         	4.707
MS.137         	25.475         	4.77
MS.138         	25.425         	4.747
MS.139         	25.375         	4.721
MS.140         	25.323         	4.618
MS.141         	25.272         	4.685
MS.142         	25.222         	4.433
MS.143         	25.172         	4.56
MS.144         	25.122         	4.594
MS.145         	25.073         	4.447
MS.146         	25.022         	4.469
MS.147         	24.972         	4.54
MS.148         	24.922         	4.451
MS.149         	24.872         	4.576
MS.150         	24.823         	4.465
MS.151         	24.772         	4.377
MS.152         	24.722         	4.419
MS.153         	24.672         	4.435
MS.154         	24.625         	4.411
MS.155         	24.575         	4.473
MS.156         	24.525         	4.322
MS.157         	24.477         	4.276
MS.158         	24.427         	4.326
MS.159         	24.38          	4.21
MS.160         	24.33          	4.143
MS.161         	24.282         	4.143
MS.162         	24.233         	4.073
MS.163         	24.185         	3.944
MS.164         	24.137         	3.946
MS.165         	24.087         	3.883
MS.166         	24.04          	3.956
MS.167         	23.993         	4.145
MS.168         	23.945         	3.972
MS.169         	23.897         	3.938
MS.170         	23.85          	3.795
MS.171         	23.8           	3.742
MS.172         	23.752         	3.754
MS.173         	23.705         	3.823
MS.174         	23.66          	3.535
MS.175         	23.612         	3.76
MS.176         	23.565         	3.684
MS.177         	23.517         	3.625
MS.178         	23.47          	3.368
MS.179         	23.422         	3.426
MS.180         	23.377         	3.489
MS.181         	23.33          	3.458
MS.182         	23.282         	3.319
MS.183         	23.237         	3.253
MS.184         	23.19          	3.158
MS.185         	23.145         	3.074
MS.186         	23.097         	3.331
MS.187         	23.052         	3.154
MS.188         	23.005         	3.019
MS.189         	22.96          	3.023
MS.190         	22.913         	3.118
MS.191         	22.868         	2.806
MS.192         	22.823         	2.933
MS.193         	22.778         	2.637
MS.194         	22.73          	2.618
MS.195         	22.685         	2.397
MS.196         	22.64          	2.224
MS.197         	22.595         	2.467
MS.198         	22.55          	2.175
MS.199         	22.505         	2.01
MS.200         	22.46          	2.395
MS.201         	22.415         	2.139
MS.202         	22.37          	2.173
MS.203         	22.325         	2.425
MS.204         	22.28          	2.316
MS.205         	22.237         	1.877
MS.206         	22.192         	1.909
MS.207         	22.147         	2.218
MS.208         	22.102         	2.044
MS.209         	22.06          	1.795
MS.210         	22.015         	1.875
MS.211         	21.972         	1.879
MS.212         	21.927         	1.813
MS.213         	21.882         	1.797
MS.214         	21.84          	1.754
MS.215         	21.795         	1.787
MS.216         	21.752         	1.7
MS.217         	21.71          	1.819
MS.218         	21.665         	1.607
MS.219         	21.622         	1.511
MS.220         	21.58          	1.49
MS.221         	21.535         	1.607
MS.222         	21.493         	1.722
MS.223         	21.45          	1.575
MS.224         	21.407         	1.495
MS.225         	21.365         	1.561
MS.226         	21.323         	1.456
MS.227         	21.28          	1.633
MS.228         	21.237         	1.541
MS.229         	21.195         	1.41
MS.230         	21.153         	1.627
MS.231         	21.11          	1.317
MS.232         	21.067         	1.345
MS.233         	21.025         	1.486
MS.234         	20.983         	1.412
MS.235         	20.942         	1.486
MS.236         	20.9           	1.15
MS.237         	20.858         	1.44
MS.238         	20.817         	1.108
MS.239         	20.775         	1.251
MS.240         	20.733         	1.231
MS.241         	20.692         	1.297
MS.242         	20.65          	1.12
MS.243         	20.61          	1.188
MS.244         	20.567         	1.327
MS.245         	20.528         	1.13
MS.246         	20.485         	1.118
MS.247         	20.445         	1.061
MS.248         	20.405         	1.027
MS.249         	20.362         	1.17
MS.250         	20.323         	1.16
MS.251         	20.282         	1.11
MS.252         	20.243         	1.076
MS.253         	20.2           	1.033
MS.254         	20.16          	0.993
MS.255         	20.12          	1.031
MS.256         	20.08          	1.09
MS.257         	20.04          	0.977
MS.258         	20             	0.933
MS.259         	19.96          	0.971
MS.260         	19.92          	0.838
MS.261         	19.88          	0.955
MS.262         	19.84          	0.935
MS.263         	19.8           	0.792
MS.264         	19.762         	0.918
MS.265         	19.722         	0.804
MS.266         	19.682         	0.806
MS.267         	19.642         	0.842
MS.268         	19.605         	0.781
MS.269         	19.565         	0.703
MS.270         	19.525         	0.842
MS.271         	19.487         	0.636
MS.272         	19.448         	0.735
MS.273         	19.41          	0.562
MS.274         	19.37          	0.854
MS.275         	19.333         	0.802
MS.276         	19.292         	0.683
MS.277         	19.255         	0.749
MS.278         	19.215         	0.677
MS.279         	19.177         	0.645
MS.280         	19.14          	0.683
MS.281         	19.1           	0.691
MS.282         	19.062         	0.618
MS.283         	19.025         	0.661
MS.284         	18.987         	0.548
MS.285         	18.948         	0.594
MS.286         	18.91          	0.606
MS.287         	18.872         	0.534
MS.288         	18.835         	0.592
MS.289         	18.797         	0.56
MS.290         	18.76          	0.459
MS.291         	18.722         	0.558
MS.292         	18.685         	0.568
MS.293         	18.647         	0.475
MS.294         	18.61          	0.491
MS.295         	18.573         	0.435
MS.296         	18.538         	0.497
MS.297         	18.5           	0.516
MS.298         	18.462         	0.497
MS.299         	18.425         	0.459
MS.300         	18.387         	0.502
MS.301         	18.352         	0.471
MS.302         	18.315         	0.393
MS.303         	18.278         	0.381
MS.304         	18.243         	0.354
MS.305         	18.205         	0.399
MS.306         	18.17          	0.425
MS.307         	18.132         	0.304
MS.308         	18.097         	0.342
MS.309         	18.06          	0.302
MS.310         	18.025         	0.459
MS.311         	17.987         	0.318
MS.312         	17.952         	0.25
MS.313         	17.917         	0.322
MS.314         	17.88          	0.328
MS.315         	17.845         	0.254
MS.316         	17.81          	0.334
MS.317         	17.775         	0.33
MS.318         	17.737         	0.34
MS.319         	17.702         	0.286
MS.320         	17.667         	0.232
MS.321         	17.632         	0.218
MS.322         	17.597         	0.171
MS.323         	17.562         	0.294
MS.324         	17.528         	0.254
MS.325         	17.493         	0.175
MS.326         	17.458         	0.201
MS.327         	17.422         	0.24
MS.328         	17.387         	0.195
MS.329         	17.352         	0.163
MS.330         	17.317         	0.264
MS.331         	17.282         	0.169
MS.332         	17.247         	0.23
MS.333         	17.215         	0.113
MS.334         	17.18          	0.214
MS.335         	17.145         	0.209
MS.336         	17.11          	0.135
MS.337         	17.077         	0.191
MS.338         	17.042         	0.169
MS.339         	17.01          	0.151
MS.340         	16.975         	0.093
MS.341         	16.94          	0.077
MS.342         	16.907         	0.058
MS.343         	16.872         	0.077
MS.344         	16.84          	0.064
MS.345         	16.805         	0.155
MS.346         	16.772         	0.06
MS.347         	16.74          	0.079
MS.348         	16.705         	0.087
MS.349         	16.672         	0.066
MS.350         	16.64          	0.081
MS.351         	16.605         	0.089
MS.352         	16.573         	0.068
MS.353         	16.54          	0.068
MS.354         	16.505         	0.099
MS.355         	16.472         	0.083
MS.356         	16.44          	0.068
MS.357         	16.407         	0.066
MS.358         	16.375         	0.073
MS.359         	16.342         	0.066
MS.360         	16.31          	0.07
MS.361         	16.278         	0.046
MS.362         	16.245         	0.064
MS.363         	16.212         	0.05
MS.364         	16.18          	0.091
MS.365         	16.147         	0.068
MS.366         	16.115         	0.044
MS.367         	16.083         	0.079
MS.368         	16.05          	0.048
MS.369         	16.017         	0.064
MS.370         	15.987         	0.036
MS.371         	15.955         	0.028
MS.372         	15.922         	0.054
MS.373         	15.89          	0.05
MS.374         	15.86          	0.028
MS.375         	15.827         	0.056
MS.376         	15.795         	0.026
MS.377         	15.765         	0.034
MS.378         	15.733         	0.03
MS.379         	15.7           	0.038
MS.380         	15.67          	0.036
MS.381         	15.637         	0.038
MS.382         	15.608         	0.032
MS.383         	15.575         	0.036
MS.384         	15.545         	0.038
MS.385         	15.515         	0.032
MS.386         	15.483         	0.034
MS.387         	15.452         	0.03
MS.388         	15.42          	0.036
MS.389         	15.39          	0.044
MS.390         	15.36          	0.034
MS.391         	15.33          	0.042
MS.392         	15.297         	0.038
MS.393         	15.267         	0.036
MS.394         	15.237         	0.04
MS.395         	15.207         	0.048
MS.396         	15.177         	0.038
MS.397         	15.145         	0.036
MS.398         	15.115         	0.04
MS.399         	15.085         	0.038
MS.400         	15.055         	0.038
MS.401         	15.025         	0.042
MS.402         	14.995         	0.038
MS.403         	14.965         	0.032
MS.404         	14.935         	0.038
MS.405         	14.905         	0.026
MS.406         	14.875         	0.02
MS.407         	14.845         	0.016
MS.408         	14.818         	0.014
MS.409         	14.787         	0.016
MS.410         	14.757         	0.02
DERIVED EXCITABILITY VARIABLES
Program = QTracP 3/4/2020
Threshold method = 6 (optimised for CAP, using data for present condition only)
SR method = 1 (using actual data values)
6.                 	0.000               	Peak response\(mV)
17.                	28                  	Age (years)
18.                	1                   	Sex (M=1, F=2)

EXTRA VARIABLES

MScPeak(mV) = 8.31
MScS5(mA) = 18.14
MScS50(mA) = 24.34
MScS95(mA) = 30.52
MScNSteps = 2
MScSteps(%) = 4.8
MScStepMax(%) = 2.7
MScD50 = 53
MScSlope = 4.78
MSFPeakAmp(mV) = 8.31
MSFNUnits = 128
MSFMeanUnitAmp(uV) = 64.9
MSFHuntTime(m) = 1.81
MSFError(%) = 3.89
MSFNLarge = 47.93
MSFMedianAmp(%) = 0.727
MSFMedianAmp(mV) = 0.0605
MSFHalfAmpAmp(%) = 0.832
MSFHalfAmpAmp(mV) = 0.0691
MSFLargestAmp(%) = 1.42
MSFLargestAmp(mV) = 0.118
MSFMeanRS(%) = 2
MSFOpts = 10106121
MScDuration(min) = 3.6
MSFTraces = 382
MSFSizeLimit(uV) = 20.8
MSFLimitType = 1
MSFSmallestAmp(uV) = 28.1

EXTRA WAVEFORMS


!MScan Model
!128
	1	16.14	0.38	2
	2	16.77	0.45	2
	3	17.03	0.45	2
	4	17.27	0.51	2
	5	17.64	0.91	2
	6	17.87	0.59	2
	7	18.06	0.66	2
	8	18.23	0.53	2
	9	18.38	0.41	2
	10	18.49	0.34	2
	11	18.6	0.37	2
	12	18.69	0.36	2
	13	18.84	0.57	2
	14	19.05	0.7	2
	15	19.29	0.86	2
	16	19.5	0.83	2
	17	19.65	0.65	2
	18	19.79	0.63	2
	19	19.92	0.59	2
	20	20.03	0.54	2
	21	20.15	0.62	2
	22	20.34	0.93	2
	23	20.54	1.05	2
	24	20.73	1.03	2
	25	20.91	0.9	2
	26	21.16	1.3	2
	27	21.38	1.22	2
	28	21.54	1.1	2
	29	21.67	0.85	2
	30	21.81	1.05	2
	31	21.98	1.24	2
	32	22.13	1.29	2
	33	22.26	1.41	2
	34	22.36	1.21	2
	35	22.45	1.3	2
	36	22.53	1.04	2
	37	22.61	1.1	2
	38	22.69	1.12	2
	39	22.76	1.01	2
	40	22.83	1.02	2
	41	22.9	0.88	2
	42	22.96	0.84	2
	43	23.02	0.85	2
	44	23.08	0.83	2
	45	23.13	0.84	2
	46	23.18	0.82	2
	47	23.23	0.74	2
	48	23.28	0.67	2
	49	23.33	0.68	2
	50	23.41	1.08	2
	51	23.49	0.91	2
	52	23.55	0.59	2
	53	23.6	0.47	2
	54	23.65	0.46	2
	55	23.7	0.46	2
	56	23.74	0.46	2
	57	23.79	0.48	2
	58	23.85	0.66	2
	59	23.92	0.67	2
	60	23.98	0.64	2
	61	24.05	0.67	2
	62	24.13	0.65	2
	63	24.2	0.6	2
	64	24.27	0.58	2
	65	24.36	0.66	2
	66	24.44	0.59	2
	67	24.53	0.57	2
	68	24.63	0.56	2
	69	24.72	0.52	2
	70	24.82	0.71	2
	71	24.93	0.8	2
	72	25.06	0.73	2
	73	25.2	0.73	2
	74	25.35	0.7	2
	75	25.5	0.71	2
	76	25.59	0.51	2
	77	25.68	0.63	2
	78	25.77	0.71	2
	79	25.84	0.38	2
	80	25.93	1.2	2
	81	26.04	0.61	2
	82	26.13	0.5	2
	83	26.21	0.67	2
	84	26.3	0.73	2
	85	26.39	0.73	2
	86	26.48	0.77	2
	87	26.57	0.82	2
	88	26.65	0.89	2
	89	26.74	0.94	2
	90	26.83	0.95	2
	91	26.91	0.84	2
	92	26.99	0.85	2
	93	27.07	0.89	2
	94	27.17	0.91	2
	95	27.26	0.81	2
	96	27.36	0.83	2
	97	27.55	0.91	2
	98	27.68	1.17	2.1
	99	27.82	1.32	2
	100	27.97	1.12	2
	101	28.11	1.16	2
	102	28.23	0.79	2
	103	28.32	0.7	2
	104	28.42	0.74	2
	105	28.52	0.7	2
	106	28.55	0.96	2
	107	28.62	0.7	2
	108	28.72	0.79	2
	109	28.8	0.67	2
	110	28.88	0.64	2
	111	28.96	0.63	2
	112	29.04	0.63	2
	113	29.12	0.61	2
	114	29.2	0.58	2
	115	29.28	0.58	2
	116	29.36	0.61	2
	117	29.43	0.67	2
	118	29.51	0.64	2
	119	29.59	0.6	2
	120	29.68	0.65	2
	121	29.81	0.87	2
	122	29.95	0.82	2
	123	30.12	1	2
	124	30.29	0.91	2
	125	30.49	0.76	2
	126	30.82	1.24	2
	127	31.44	1.42	2
	128	32.08	1.33	2

