File:              	C:\Qtrac\Data\Daniel M Sørensen\MScan multicentre study\Data from centres\Ankara\Processed data\FBC10122A.QZD
Name:              	TR.ANK.NC.5.2
Protocol:          	MSCAN-R2
Date:              	22/1/21
Start time:        	15:17:36
Age:               	33
Sex:               	f
Temperature:
S/R sites:         	APB
NC/disease:        	NC
Operator:          	eb
Comments:
M-SCAN DATA (5.9-0.8m)
Scanpts: 2, 7, 533, 554
Stim. (mA)     	Amp. (mV)
MS.1           	21             	8.234
MS.2           	21             	8.19
MS.3           	21             	8.164
MS.4           	21             	8.218
MS.5           	21             	8.22
MS.6           	21             	8.179
MS.7           	21             	8.225
MS.8           	21             	8.158
MS.9           	21             	8.185
MS.10          	21             	8.134
MS.11          	21             	8.14
MS.12          	21             	8.147
MS.13          	21             	8.148
MS.14          	21             	8.163
MS.15          	21             	8.147
MS.16          	21             	8.235
MS.17          	21             	8.224
MS.18          	21             	8.142
MS.19          	21             	8.147
MS.20          	21             	8.152
MS.21          	21             	8.129
MS.22          	21             	8.157
MS.23          	21             	8.148
MS.24          	20.915         	8.146
MS.25          	20.875         	8.177
MS.26          	20.833         	8.168
MS.27          	20.79          	8.17
MS.28          	20.75          	8.22
MS.29          	20.708         	8.223
MS.30          	20.667         	8.208
MS.31          	20.625         	8.214
MS.32          	20.585         	8.192
MS.33          	20.542         	8.18
MS.34          	20.502         	7.688
MS.35          	20.46          	7.699
MS.36          	20.42          	8.204
MS.37          	20.38          	8.225
MS.38          	20.337         	8.215
MS.39          	20.297         	8.235
MS.40          	20.257         	8.221
MS.41          	20.217         	7.736
MS.42          	20.177         	8.242
MS.43          	20.135         	8.245
MS.44          	20.095         	7.754
MS.45          	20.055         	8.267
MS.46          	20.015         	7.738
MS.47          	19.975         	8.219
MS.48          	19.935         	7.737
MS.49          	19.895         	8.253
MS.50          	19.855         	7.737
MS.51          	19.817         	7.751
MS.52          	19.778         	7.755
MS.53          	19.737         	7.767
MS.54          	19.698         	8.285
MS.55          	19.657         	7.75
MS.56          	19.62          	7.714
MS.57          	19.58          	7.714
MS.58          	19.54          	7.722
MS.59          	19.502         	7.743
MS.60          	19.462         	7.739
MS.61          	19.425         	7.733
MS.62          	19.385         	7.74
MS.63          	19.347         	7.747
MS.64          	19.307         	7.56
MS.65          	19.27          	7.539
MS.66          	19.23          	7.739
MS.67          	19.192         	7.701
MS.68          	19.155         	7.758
MS.69          	19.115         	7.717
MS.70          	19.077         	7.747
MS.71          	19.04          	7.559
MS.72          	19.002         	7.557
MS.73          	18.962         	7.341
MS.74          	18.925         	7.529
MS.75          	18.887         	7.572
MS.76          	18.85          	7.527
MS.77          	18.812         	7.52
MS.78          	18.775         	7.363
MS.79          	18.737         	7.52
MS.80          	18.7           	7.527
MS.81          	18.663         	7.373
MS.82          	18.625         	7.578
MS.83          	18.587         	7.361
MS.84          	18.55          	7.566
MS.85          	18.515         	7.386
MS.86          	18.477         	7.361
MS.87          	18.44          	7.345
MS.88          	18.403         	7.335
MS.89          	18.368         	7.33
MS.90          	18.33          	7.328
MS.91          	18.292         	7.318
MS.92          	18.257         	7.334
MS.93          	18.22          	7.372
MS.94          	18.182         	7.324
MS.95          	18.147         	7.236
MS.96          	18.11          	7.177
MS.97          	18.075         	7.324
MS.98          	18.038         	7.316
MS.99          	18.003         	7.113
MS.100         	17.967         	7.098
MS.101         	17.93          	7.068
MS.102         	17.895         	7.273
MS.103         	17.86          	7.029
MS.104         	17.823         	7.02
MS.105         	17.788         	7.131
MS.106         	17.753         	7.131
MS.107         	17.717         	7.119
MS.108         	17.682         	7.114
MS.109         	17.645         	7.161
MS.110         	17.61          	7.238
MS.111         	17.575         	7.129
MS.112         	17.54          	7.069
MS.113         	17.505         	6.996
MS.114         	17.47          	7.114
MS.115         	17.435         	6.873
MS.116         	17.4           	6.949
MS.117         	17.365         	7.09
MS.118         	17.333         	7.006
MS.119         	17.297         	6.974
MS.120         	17.262         	6.936
MS.121         	17.227         	6.934
MS.122         	17.192         	6.871
MS.123         	17.16          	6.94
MS.124         	17.125         	6.803
MS.125         	17.09          	6.854
MS.126         	17.057         	6.829
MS.127         	17.022         	6.903
MS.128         	16.987         	6.837
MS.129         	16.955         	6.818
MS.130         	16.92          	6.851
MS.131         	16.887         	6.472
MS.132         	16.852         	6.68
MS.133         	16.82          	6.731
MS.134         	16.785         	6.851
MS.135         	16.753         	6.713
MS.136         	16.717         	6.742
MS.137         	16.685         	6.814
MS.138         	16.653         	6.272
MS.139         	16.618         	6.691
MS.140         	16.585         	6.412
MS.141         	16.552         	6.332
MS.142         	16.52          	6.316
MS.143         	16.485         	6.738
MS.144         	16.452         	6.332
MS.145         	16.42          	6.655
MS.146         	16.387         	6.693
MS.147         	16.355         	6.182
MS.148         	16.323         	6.233
MS.149         	16.29          	6.77
MS.150         	16.257         	6.229
MS.151         	16.225         	6.305
MS.152         	16.192         	6.237
MS.153         	16.16          	6.205
MS.154         	16.128         	5.99
MS.155         	16.095         	6.172
MS.156         	16.062         	6.191
MS.157         	16.03          	6.195
MS.158         	16             	6.179
MS.159         	15.967         	5.909
MS.160         	15.935         	5.957
MS.161         	15.902         	6.202
MS.162         	15.872         	6.437
MS.163         	15.84          	5.831
MS.164         	15.807         	5.957
MS.165         	15.777         	5.824
MS.166         	15.745         	5.698
MS.167         	15.712         	5.948
MS.168         	15.682         	6.128
MS.169         	15.65          	5.908
MS.170         	15.62          	5.828
MS.171         	15.587         	5.87
MS.172         	15.557         	5.503
MS.173         	15.525         	5.443
MS.174         	15.495         	5.686
MS.175         	15.465         	5.813
MS.176         	15.432         	5.438
MS.177         	15.402         	5.594
MS.178         	15.372         	5.621
MS.179         	15.34          	5.553
MS.180         	15.31          	5.608
MS.181         	15.28          	5.488
MS.182         	15.25          	5.387
MS.183         	15.217         	5.365
MS.184         	15.188         	5.35
MS.185         	15.157         	5.282
MS.186         	15.127         	5.293
MS.187         	15.097         	4.67
MS.188         	15.068         	5.251
MS.189         	15.037         	5.09
MS.190         	15.007         	4.744
MS.191         	14.977         	4.667
MS.192         	14.947         	5.178
MS.193         	14.917         	4.879
MS.194         	14.887         	5.167
MS.195         	14.858         	4.69
MS.196         	14.827         	4.651
MS.197         	14.797         	4.425
MS.198         	14.77          	4.844
MS.199         	14.74          	4.962
MS.200         	14.71          	4.581
MS.201         	14.68          	4.344
MS.202         	14.65          	4.788
MS.203         	14.622         	4.332
MS.204         	14.592         	4.268
MS.205         	14.562         	4.449
MS.206         	14.535         	4.384
MS.207         	14.505         	4.55
MS.208         	14.477         	4.714
MS.209         	14.447         	4.178
MS.210         	14.417         	4.23
MS.211         	14.39          	4.154
MS.212         	14.36          	4.161
MS.213         	14.332         	4.197
MS.214         	14.302         	4.071
MS.215         	14.275         	4.064
MS.216         	14.247         	4.039
MS.217         	14.217         	4.055
MS.218         	14.19          	4.093
MS.219         	14.162         	3.973
MS.220         	14.132         	3.954
MS.221         	14.105         	3.7
MS.222         	14.077         	3.951
MS.223         	14.047         	3.854
MS.224         	14.02          	4.117
MS.225         	13.992         	3.895
MS.226         	13.965         	3.76
MS.227         	13.938         	3.892
MS.228         	13.91          	3.582
MS.229         	13.88          	3.624
MS.230         	13.852         	3.539
MS.231         	13.825         	3.549
MS.232         	13.797         	3.601
MS.233         	13.77          	3.735
MS.234         	13.742         	3.469
MS.235         	13.715         	3.32
MS.236         	13.688         	3.47
MS.237         	13.66          	3.428
MS.238         	13.632         	3.032
MS.239         	13.605         	3.32
MS.240         	13.58          	3.48
MS.241         	13.552         	3.411
MS.242         	13.525         	3.295
MS.243         	13.497         	3.125
MS.244         	13.47          	3.204
MS.245         	13.445         	3.331
MS.246         	13.417         	3.374
MS.247         	13.39          	3.328
MS.248         	13.362         	3.013
MS.249         	13.337         	3.029
MS.250         	13.31          	2.455
MS.251         	13.282         	2.501
MS.252         	13.257         	2.947
MS.253         	13.23          	3.021
MS.254         	13.205         	2.999
MS.255         	13.177         	2.379
MS.256         	13.153         	2.952
MS.257         	13.125         	2.551
MS.258         	13.1           	2.469
MS.259         	13.072         	2.844
MS.260         	13.047         	2.183
MS.261         	13.02          	2.654
MS.262         	12.995         	2.69
MS.263         	12.967         	2.205
MS.264         	12.943         	2.24
MS.265         	12.917         	2.388
MS.266         	12.89          	2.146
MS.267         	12.865         	2.112
MS.268         	12.84          	1.991
MS.269         	12.812         	2.006
MS.270         	12.787         	1.807
MS.271         	12.762         	1.937
MS.272         	12.738         	2.041
MS.273         	12.712         	2.019
MS.274         	12.685         	1.958
MS.275         	12.66          	1.72
MS.276         	12.635         	1.947
MS.277         	12.61          	1.912
MS.278         	12.585         	1.749
MS.279         	12.56          	1.857
MS.280         	12.535         	1.786
MS.281         	12.51          	1.661
MS.282         	12.485         	1.665
MS.283         	12.46          	1.615
MS.284         	12.435         	1.986
MS.285         	12.41          	1.621
MS.286         	12.385         	1.625
MS.287         	12.36          	1.462
MS.288         	12.335         	1.702
MS.289         	12.312         	1.587
MS.290         	12.287         	1.273
MS.291         	12.262         	1.534
MS.292         	12.238         	1.539
MS.293         	12.212         	1.501
MS.294         	12.19          	1.49
MS.295         	12.165         	1.462
MS.296         	12.14          	1.511
MS.297         	12.115         	1.428
MS.298         	12.092         	1.39
MS.299         	12.068         	1.512
MS.300         	12.042         	1.343
MS.301         	12.02          	1.37
MS.302         	11.995         	1.377
MS.303         	11.972         	1.422
MS.304         	11.947         	1.332
MS.305         	11.922         	1.195
MS.306         	11.9           	1.174
MS.307         	11.875         	1.418
MS.308         	11.852         	1.042
MS.309         	11.827         	1.041
MS.310         	11.805         	1.168
MS.311         	11.782         	0.963
MS.312         	11.757         	0.837
MS.313         	11.735         	1.051
MS.314         	11.71          	1
MS.315         	11.688         	0.924
MS.316         	11.665         	1.035
MS.317         	11.64          	0.829
MS.318         	11.617         	0.665
MS.319         	11.595         	0.77
MS.320         	11.57          	0.688
MS.321         	11.547         	0.8
MS.322         	11.525         	0.804
MS.323         	11.502         	0.653
MS.324         	11.48          	0.809
MS.325         	11.455         	0.699
MS.326         	11.432         	0.723
MS.327         	11.41          	0.814
MS.328         	11.387         	0.704
MS.329         	11.365         	0.706
MS.330         	11.342         	0.712
MS.331         	11.32          	0.736
MS.332         	11.297         	0.586
MS.333         	11.275         	0.557
MS.334         	11.252         	0.635
MS.335         	11.23          	0.673
MS.336         	11.207         	0.646
MS.337         	11.185         	0.577
MS.338         	11.162         	0.649
MS.339         	11.14          	0.51
MS.340         	11.117         	0.582
MS.341         	11.095         	0.52
MS.342         	11.073         	0.513
MS.343         	11.05          	0.516
MS.344         	11.03          	0.634
MS.345         	11.007         	0.516
MS.346         	10.985         	0.509
MS.347         	10.962         	0.645
MS.348         	10.94          	0.509
MS.349         	10.92          	0.511
MS.350         	10.898         	0.51
MS.351         	10.875         	0.631
MS.352         	10.855         	0.476
MS.353         	10.832         	0.504
MS.354         	10.81          	0.472
MS.355         	10.79          	0.634
MS.356         	10.767         	0.437
MS.357         	10.745         	0.508
MS.358         	10.725         	0.471
MS.359         	10.702         	0.476
MS.360         	10.682         	0.476
MS.361         	10.66          	0.508
MS.362         	10.64          	0.481
MS.363         	10.617         	0.51
MS.364         	10.597         	0.477
MS.365         	10.575         	0.435
MS.366         	10.555         	0.436
MS.367         	10.532         	0.443
MS.368         	10.512         	0.441
MS.369         	10.49          	0.438
MS.370         	10.47          	0.472
MS.371         	10.45          	0.438
MS.372         	10.427         	0.436
MS.373         	10.407         	0.475
MS.374         	10.387         	0.476
MS.375         	10.365         	0.479
MS.376         	10.345         	0.441
MS.377         	10.325         	0.437
MS.378         	10.305         	0.442
MS.379         	10.282         	0.436
MS.380         	10.262         	0.443
MS.381         	10.242         	0.439
MS.382         	10.222         	0.439
MS.383         	10.202         	0.479
MS.384         	10.18          	0.441
MS.385         	10.16          	0.439
MS.386         	10.14          	0.438
MS.387         	10.12          	0.438
MS.388         	10.1           	0.356
MS.389         	10.08          	0.439
MS.390         	10.06          	0.477
MS.391         	10.04          	0.439
MS.392         	10.02          	0.442
MS.393         	10             	0.356
MS.394         	9.98           	0.45
MS.395         	9.96           	0.356
MS.396         	9.94           	0.441
MS.397         	9.92           	0.363
MS.398         	9.9            	0.447
MS.399         	9.88           	0.447
MS.400         	9.86           	0.327
MS.401         	9.84           	0.358
MS.402         	9.82           	0.364
MS.403         	9.802          	0.333
MS.404         	9.782          	0.356
MS.405         	9.762          	0.359
MS.406         	9.742          	0.359
MS.407         	9.722          	0.359
MS.408         	9.705          	0.356
MS.409         	9.685          	0.327
MS.410         	9.665          	0.195
MS.411         	9.645          	0.217
MS.412         	9.627          	0.363
MS.413         	9.608          	0.333
MS.414         	9.587          	0.332
MS.415         	9.57           	0.332
MS.416         	9.55           	0.334
MS.417         	9.53           	0.26
MS.418         	9.512          	0.333
MS.419         	9.492          	0.332
MS.420         	9.472          	0.112
MS.421         	9.455          	0.264
MS.422         	9.435          	0.111
MS.423         	9.417          	0.11
MS.424         	9.398          	0.195
MS.425         	9.38           	0.341
MS.426         	9.36           	0.343
MS.427         	9.342          	0.11
MS.428         	9.323          	0.111
MS.429         	9.305          	0.107
MS.430         	9.285          	0.112
MS.431         	9.267          	0.112
MS.432         	9.25           	0.112
MS.433         	9.23           	0.256
MS.434         	9.212          	0.111
MS.435         	9.193          	0.112
MS.436         	9.175          	0.115
MS.437         	9.158          	0.115
MS.438         	9.137          	0.259
MS.439         	9.12           	0.111
MS.440         	9.102          	0.111
MS.441         	9.085          	0.259
MS.442         	9.065          	0.11
MS.443         	9.047          	0.111
MS.444         	9.03           	0.11
MS.445         	9.012          	0.11
MS.446         	8.992          	0.111
MS.447         	8.975          	0.109
MS.448         	8.957          	0.11
MS.449         	8.94           	0.112
MS.450         	8.922          	0.115
MS.451         	8.905          	0.11
MS.452         	8.887          	0.11
MS.453         	8.867          	0.106
MS.454         	8.85           	0.11
MS.455         	8.832          	0.111
MS.456         	8.815          	0.112
MS.457         	8.797          	0.112
MS.458         	8.78           	0.111
MS.459         	8.762          	0.111
MS.460         	8.745          	0.112
MS.461         	8.727          	0.115
MS.462         	8.71           	0.115
MS.463         	8.693          	0.118
MS.464         	8.675          	0.114
MS.465         	8.658          	0.115
MS.466         	8.64           	0.115
MS.467         	8.622          	0.115
MS.468         	8.608          	0.116
MS.469         	8.59           	0.112
MS.470         	8.573          	0.111
MS.471         	8.555          	0.116
MS.472         	8.537          	0.114
MS.473         	8.52           	0.116
MS.474         	8.505          	0.117
MS.475         	8.488          	0.112
MS.476         	8.47           	0.115
MS.477         	8.452          	0.118
MS.478         	8.435          	0.116
MS.479         	8.42           	0.115
MS.480         	8.403          	0.117
MS.481         	8.385          	0.116
MS.482         	8.37           	0.117
MS.483         	8.352          	0.117
MS.484         	8.335          	0.123
MS.485         	8.32           	0.122
MS.486         	8.302          	0.12
MS.487         	8.285          	0.115
MS.488         	8.27           	0.126
MS.489         	8.252          	0.123
MS.490         	8.235          	0.125
MS.491         	8.22           	0.126
MS.492         	8.202          	0.122
MS.493         	8.188          	0.126
MS.494         	8.17           	0.007
MS.495         	8.155          	0.123
MS.496         	8.137          	0.123
MS.497         	8.122          	0.125
MS.498         	8.105          	0.125
MS.499         	8.09           	0.125
MS.500         	8.073          	0.01
MS.501         	8.057          	0.006
MS.502         	8.04           	0.125
MS.503         	8.025          	0.123
MS.504         	8.007          	0.006
MS.505         	7.992          	0.006
MS.506         	7.977          	0.009
MS.507         	7.96           	0.123
MS.508         	7.945          	0.127
MS.509         	7.93           	0.121
MS.510         	7.912          	0.127
MS.511         	7.898          	0.126
MS.512         	7.882          	0.007
MS.513         	7.865          	0.007
MS.514         	7.85           	0.126
MS.515         	7.835          	0.01
MS.516         	7.817          	0.006
MS.517         	7.802          	0.01
MS.518         	7.787          	0.009
MS.519         	7.773          	0.006
MS.520         	7.757          	0.007
MS.521         	7.74           	0.006
MS.522         	7.725          	0.009
MS.523         	7.71           	0.009
MS.524         	7.695          	0.009
MS.525         	7.68           	0.007
MS.526         	7.665          	0.007
MS.527         	7.648          	0.009
MS.528         	7.632          	0.006
MS.529         	7.617          	0.01
MS.530         	7.602          	0.009
MS.531         	7.587          	0.007
MS.532         	7.572          	0.009
MS.533         	7.557          	0.009
MS.534         	7.543          	0.009
MS.535         	7.527          	0.009
MS.536         	7.512          	0.007
MS.537         	7.497          	0.006
MS.538         	7.482          	0.001
MS.539         	7.467          	0.000
MS.540         	7.452          	0.009
MS.541         	7.438          	0.007
MS.542         	7.422          	0.006
MS.543         	7.407          	-0.001
MS.544         	7.392          	-0.001
MS.545         	7.378          	0.007
MS.546         	7.362          	0.000
MS.547         	7.347          	-0.001
MS.548         	7.335          	0.01
MS.549         	7.32           	0.01
MS.550         	7.305          	0.01
MS.551         	7.29           	0.000
MS.552         	7.275          	0.000
MS.553         	7.26           	0.001
MS.554         	7.247          	0.000
DERIVED EXCITABILITY VARIABLES
Program = QTracP 3/4/2020
Threshold method = 6 (optimised for CAP, using data for present condition only)
SR method = 1 (using actual data values)
6.                 	0.000               	Peak response\(mV)
17.                	33                  	Age (years)
18.                	2                   	Sex (M=1, F=2)

EXTRA VARIABLES

MScPeak(mV) = 8.17
MScS5(mA) = 9.98
MScS50(mA) = 14.15
MScS95(mA) = 20.06
MScNSteps = 2
MScSteps(%) = 6.7
MScStepMax(%) = 4.4
MScD50 = 46
MScSlope = 4.62
MSFPeakAmp(mV) = 8.19
MSFNUnits = 68
MSFMeanUnitAmp(uV) = 120.5
MSFHuntTime(m) = 3.03
MSFError(%) = 3.83
MSFNLarge = 18.53
MSFMedianAmp(%) = 1.21
MSFMedianAmp(mV) = 0.0988
MSFHalfAmpAmp(%) = 1.65
MSFHalfAmpAmp(mV) = 0.135
MSFLargestAmp(%) = 5.37
MSFLargestAmp(mV) = 0.44
MSFMeanRS(%) = 2.01
MSFOpts = 10106121
MScDuration(min) = 5.1
MSFTraces = 553
MSFSizeLimit(uV) = 24.1
MSFLimitType = 3
MSFSmallestAmp(uV) = 26.5

EXTRA WAVEFORMS


!MScan Model
!68
	1	8	1.36	2
	2	9.38	0.9	2
	3	9.55	1.36	1.6
	4	9.85	0.95	2
	5	9.85	0.63	2
	6	10.5	0.63	2
	7	11.01	1.08	2
	8	11.17	0.67	2
	9	11.27	0.63	2
	10	11.49	1.07	2
	11	11.59	1.11	2
	12	11.65	0.73	2
	13	11.68	0.86	2
	14	11.71	0.48	2
	15	11.71	0.32	2
	16	11.75	0.54	2
	17	11.79	0.75	2
	18	11.83	0.89	2
	19	11.88	0.45	2
	20	11.98	0.93	2
	21	12.15	1.72	2
	22	12.33	1.59	2
	23	12.44	1.2	2
	24	12.58	1.72	2
	25	12.7	1.19	2
	26	12.76	1.24	2
	27	12.83	1.15	2
	28	12.9	1.28	2
	29	12.96	1.5	2
	30	13.04	1.88	2
	31	13.22	4.36	2
	32	13.41	2.44	2
	33	13.41	1.2	2
	34	13.58	2.37	2
	35	13.67	0.8	2
	36	13.74	1.06	2
	37	13.8	0.69	2
	38	13.86	1.3	2
	39	13.94	1.1	2
	40	14.03	1.26	2
	41	14.12	1.09	2
	42	14.21	1.55	2
	43	14.31	1.24	2
	44	14.41	1.21	2
	45	14.56	2.06	2
	46	14.75	3.43	2
	47	14.96	2.93	2
	48	15.08	2.16	2
	49	15.2	2.27	2
	50	15.33	1.45	2
	51	15.42	2.27	2
	52	15.56	1.45	2
	53	15.74	1.91	2
	54	16.13	3.82	2
	55	16.54	4.64	2
	56	16.83	1.65	2
	57	17.02	1.29	2
	58	17.16	0.91	2
	59	17.28	0.56	2
	60	17.38	0.68	2
	61	17.77	1.66	2
	62	17.98	0.85	2
	63	18.13	0.44	2
	64	18.31	1.17	2
	65	18.69	1.4	2
	66	18.99	2.12	2
	67	19.46	1.03	2
	68	20	5.37	2.3

