File:              	C:\Qtrac\Data\Daniel M Sørensen\MScan multicentre study\Data from centres\Ankara\Processed data\FBC10113A.QZD
Name:              	TR.ANK.NC.5.1
Protocol:          	MSCAN-R2
Date:              	13/1/21
Start time:        	16:15:40
Age:               	33
Sex:               	F
Temperature:
S/R sites:         	APB
NC/disease:        	NC
Operator:          	EB
Comments:
M-SCAN DATA (7.3-2.1m)
Scanpts: 26, 29, 540, 545
Stim. (mA)     	Amp. (mV)
MS.1           	24.5           	8.893
MS.2           	24.5           	8.911
MS.3           	24.5           	8.856
MS.4           	24.5           	8.848
MS.5           	24.5           	8.812
MS.6           	24.5           	8.858
MS.7           	24.5           	8.808
MS.8           	24.5           	8.852
MS.9           	24.5           	8.897
MS.10          	24.5           	8.925
MS.11          	24.5           	8.931
MS.12          	24.5           	8.945
MS.13          	24.5           	8.945
MS.14          	24.5           	8.971
MS.15          	24.5           	8.969
MS.16          	24.5           	8.947
MS.17          	24.5           	8.947
MS.18          	24.5           	8.961
MS.19          	24.5           	8.981
MS.20          	24.5           	8.979
MS.21          	24.5           	8.965
MS.22          	24.5           	9.029
MS.23          	24.5           	9.021
MS.24          	24.45          	8.991
MS.25          	24.403         	9.003
MS.26          	24.352         	9.003
MS.27          	24.305         	8.999
MS.28          	24.255         	9.058
MS.29          	24.207         	9.019
MS.30          	24.16          	9.056
MS.31          	24.11          	9.011
MS.32          	24.062         	9.009
MS.33          	24.015         	9.005
MS.34          	23.967         	8.971
MS.35          	23.92          	9.015
MS.36          	23.87          	8.931
MS.37          	23.823         	8.959
MS.38          	23.775         	9.001
MS.39          	23.727         	8.971
MS.40          	23.68          	8.971
MS.41          	23.632         	8.971
MS.42          	23.587         	8.951
MS.43          	23.54          	8.983
MS.44          	23.493         	8.985
MS.45          	23.445         	9.015
MS.46          	23.397         	9.007
MS.47          	23.352         	9.009
MS.48          	23.305         	8.971
MS.49          	23.257         	8.923
MS.50          	23.212         	8.923
MS.51          	23.165         	8.852
MS.52          	23.12          	9.046
MS.53          	23.073         	9.05
MS.54          	23.028         	9.036
MS.55          	22.98          	9.052
MS.56          	22.935         	8.981
MS.57          	22.89          	8.888
MS.58          	22.842         	8.963
MS.59          	22.797         	8.973
MS.60          	22.752         	8.971
MS.61          	22.707         	8.796
MS.62          	22.663         	8.786
MS.63          	22.618         	8.786
MS.64          	22.57          	8.776
MS.65          	22.525         	8.79
MS.66          	22.48          	8.798
MS.67          	22.435         	8.806
MS.68          	22.392         	8.814
MS.69          	22.347         	8.834
MS.70          	22.302         	8.808
MS.71          	22.257         	8.814
MS.72          	22.212         	8.822
MS.73          	22.167         	8.83
MS.74          	22.125         	8.828
MS.75          	22.08          	8.842
MS.76          	22.035         	8.818
MS.77          	21.993         	8.828
MS.78          	21.948         	8.84
MS.79          	21.905         	8.838
MS.80          	21.86          	8.818
MS.81          	21.817         	8.836
MS.82          	21.772         	8.826
MS.83          	21.73          	8.834
MS.84          	21.685         	8.852
MS.85          	21.642         	8.838
MS.86          	21.6           	8.834
MS.87          	21.557         	8.846
MS.88          	21.512         	8.842
MS.89          	21.47          	8.844
MS.90          	21.427         	8.844
MS.91          	21.385         	8.84
MS.92          	21.342         	8.818
MS.93          	21.3           	8.552
MS.94          	21.257         	8.848
MS.95          	21.215         	8.82
MS.96          	21.172         	8.586
MS.97          	21.13          	8.611
MS.98          	21.087         	8.602
MS.99          	21.045         	8.83
MS.100         	21.002         	8.572
MS.101         	20.96          	8.609
MS.102         	20.92          	8.596
MS.103         	20.877         	8.794
MS.104         	20.835         	8.578
MS.105         	20.795         	8.776
MS.106         	20.752         	8.77
MS.107         	20.71          	8.528
MS.108         	20.67          	8.548
MS.109         	20.627         	8.546
MS.110         	20.587         	8.516
MS.111         	20.545         	8.568
MS.112         	20.505         	8.562
MS.113         	20.465         	8.488
MS.114         	20.422         	8.518
MS.115         	20.382         	8.51
MS.116         	20.342         	8.439
MS.117         	20.3           	8.53
MS.118         	20.26          	8.468
MS.119         	20.22          	8.522
MS.120         	20.18          	8.496
MS.121         	20.14          	8.522
MS.122         	20.1           	8.542
MS.123         	20.06          	8.393
MS.124         	20.02          	8.528
MS.125         	19.98          	8.091
MS.126         	19.94          	8.411
MS.127         	19.9           	8.425
MS.128         	19.86          	8.101
MS.129         	19.82          	8.504
MS.130         	19.78          	8.387
MS.131         	19.74          	8.502
MS.132         	19.7           	8.409
MS.133         	19.663         	8.385
MS.134         	19.622         	8.395
MS.135         	19.583         	8.123
MS.136         	19.545         	8.403
MS.137         	19.505         	8.244
MS.138         	19.465         	7.567
MS.139         	19.427         	7.309
MS.140         	19.387         	8.131
MS.141         	19.35          	8.208
MS.142         	19.31          	7.328
MS.143         	19.272         	7.585
MS.144         	19.235         	7.438
MS.145         	19.195         	7.865
MS.146         	19.157         	7.861
MS.147         	19.12          	7.634
MS.148         	19.08          	7.91
MS.149         	19.042         	7.563
MS.150         	19.005         	7.321
MS.151         	18.967         	7.634
MS.152         	18.927         	7.569
MS.153         	18.89          	7.374
MS.154         	18.852         	7.835
MS.155         	18.815         	7.279
MS.156         	18.778         	7.531
MS.157         	18.74          	7.259
MS.158         	18.702         	7.374
MS.159         	18.665         	7.301
MS.160         	18.628         	7.269
MS.161         	18.59          	7.291
MS.162         	18.555         	7.227
MS.163         	18.517         	7.295
MS.164         	18.48          	7.348
MS.165         	18.442         	7.295
MS.166         	18.405         	7.271
MS.167         	18.37          	7.199
MS.168         	18.333         	7.064
MS.169         	18.295         	7.029
MS.170         	18.26          	7.033
MS.171         	18.222         	7.221
MS.172         	18.188         	7.1
MS.173         	18.15          	6.699
MS.174         	18.115         	7.114
MS.175         	18.077         	7.201
MS.176         	18.042         	6.494
MS.177         	18.005         	6.322
MS.178         	17.97          	6.242
MS.179         	17.932         	6.59
MS.180         	17.897         	6.196
MS.181         	17.862         	6.991
MS.182         	17.827         	6.385
MS.183         	17.79          	5.932
MS.184         	17.755         	6.093
MS.185         	17.72          	6.824
MS.186         	17.685         	6.141
MS.187         	17.65          	6.302
MS.188         	17.612         	6.387
MS.189         	17.577         	6.492
MS.190         	17.542         	5.714
MS.191         	17.507         	6.427
MS.192         	17.472         	5.682
MS.193         	17.438         	6.697
MS.194         	17.403         	5.793
MS.195         	17.37          	5.978
MS.196         	17.335         	5.66
MS.197         	17.3           	5.569
MS.198         	17.265         	5.692
MS.199         	17.23          	5.575
MS.200         	17.195         	5.591
MS.201         	17.163         	5.652
MS.202         	17.128         	5.906
MS.203         	17.092         	5.569
MS.204         	17.06          	5.356
MS.205         	17.025         	5.362
MS.206         	16.99          	5.283
MS.207         	16.958         	5.505
MS.208         	16.922         	5.378
MS.209         	16.89          	5.015
MS.210         	16.855         	4.854
MS.211         	16.823         	4.602
MS.212         	16.788         	4.977
MS.213         	16.755         	5.19
MS.214         	16.72          	4.59
MS.215         	16.688         	4.332
MS.216         	16.655         	4.312
MS.217         	16.62          	5.096
MS.218         	16.587         	4.419
MS.219         	16.555         	4.919
MS.220         	16.522         	4.167
MS.221         	16.487         	4.536
MS.222         	16.455         	4.042
MS.223         	16.422         	4.411
MS.224         	16.39          	3.766
MS.225         	16.358         	4.328
MS.226         	16.325         	3.619
MS.227         	16.292         	3.676
MS.228         	16.26          	3.926
MS.229         	16.227         	3.625
MS.230         	16.195         	3.253
MS.231         	16.163         	3.146
MS.232         	16.13          	3.728
MS.233         	16.097         	3.265
MS.234         	16.065         	3.152
MS.235         	16.032         	3.42
MS.236         	16.003         	3.275
MS.237         	15.97          	3.231
MS.238         	15.938         	3.084
MS.239         	15.905         	2.977
MS.240         	15.875         	3.223
MS.241         	15.842         	3.227
MS.242         	15.81          	3.35
MS.243         	15.78          	3.098
MS.244         	15.747         	2.89
MS.245         	15.715         	2.86
MS.246         	15.685         	2.933
MS.247         	15.652         	2.83
MS.248         	15.622         	2.921
MS.249         	15.59          	2.635
MS.250         	15.56          	2.858
MS.251         	15.527         	2.933
MS.252         	15.497         	2.8
MS.253         	15.467         	2.824
MS.254         	15.435         	2.703
MS.255         	15.405         	2.874
MS.256         	15.375         	2.643
MS.257         	15.342         	2.679
MS.258         	15.312         	2.701
MS.259         	15.282         	2.612
MS.260         	15.252         	2.443
MS.261         	15.22          	2.562
MS.262         	15.19          	2.592
MS.263         	15.16          	2.421
MS.264         	15.13          	2.344
MS.265         	15.1           	2.415
MS.266         	15.07          	2.284
MS.267         	15.04          	2.296
MS.268         	15.01          	2.018
MS.269         	14.98          	2.143
MS.270         	14.95          	2.246
MS.271         	14.92          	1.893
MS.272         	14.89          	2.04
MS.273         	14.86          	1.934
MS.274         	14.83          	1.791
MS.275         	14.8           	2.109
MS.276         	14.77          	1.976
MS.277         	14.742         	1.668
MS.278         	14.712         	1.311
MS.279         	14.682         	1.662
MS.280         	14.652         	1.75
MS.281         	14.625         	1.76
MS.282         	14.595         	1.416
MS.283         	14.565         	1.738
MS.284         	14.537         	1.533
MS.285         	14.507         	1.414
MS.286         	14.477         	1.835
MS.287         	14.45          	1.378
MS.288         	14.42          	1.414
MS.289         	14.392         	1.418
MS.290         	14.362         	1.446
MS.291         	14.335         	1.392
MS.292         	14.305         	1.309
MS.293         	14.278         	0.87
MS.294         	14.25          	1.128
MS.295         	14.22          	1.275
MS.296         	14.193         	1.007
MS.297         	14.162         	0.88
MS.298         	14.135         	1.277
MS.299         	14.108         	1.068
MS.300         	14.08          	1.174
MS.301         	14.05          	0.902
MS.302         	14.023         	1.08
MS.303         	13.995         	1.074
MS.304         	13.967         	1.148
MS.305         	13.94          	0.912
MS.306         	13.91          	0.933
MS.307         	13.882         	1.118
MS.308         	13.855         	0.864
MS.309         	13.827         	1.031
MS.310         	13.8           	0.804
MS.311         	13.773         	0.824
MS.312         	13.745         	0.808
MS.313         	13.717         	0.87
MS.314         	13.69          	0.685
MS.315         	13.662         	0.836
MS.316         	13.635         	0.86
MS.317         	13.608         	0.816
MS.318         	13.58          	0.834
MS.319         	13.555         	0.771
MS.320         	13.528         	0.735
MS.321         	13.5           	0.796
MS.322         	13.472         	0.834
MS.323         	13.445         	0.804
MS.324         	13.42          	0.757
MS.325         	13.392         	0.655
MS.326         	13.365         	0.747
MS.327         	13.337         	0.707
MS.328         	13.312         	0.663
MS.329         	13.285         	0.679
MS.330         	13.26          	0.775
MS.331         	13.233         	0.729
MS.332         	13.205         	0.61
MS.333         	13.18          	0.645
MS.334         	13.153         	0.502
MS.335         	13.127         	0.671
MS.336         	13.1           	0.59
MS.337         	13.075         	0.467
MS.338         	13.047         	0.463
MS.339         	13.023         	0.445
MS.340         	12.997         	0.483
MS.341         	12.97          	0.463
MS.342         	12.945         	0.385
MS.343         	12.917         	0.504
MS.344         	12.892         	0.463
MS.345         	12.867         	0.655
MS.346         	12.842         	0.437
MS.347         	12.815         	0.453
MS.348         	12.79          	0.487
MS.349         	12.765         	0.383
MS.350         	12.74          	0.443
MS.351         	12.712         	0.439
MS.352         	12.688         	0.429
MS.353         	12.662         	0.443
MS.354         	12.637         	0.604
MS.355         	12.613         	0.363
MS.356         	12.587         	0.389
MS.357         	12.562         	0.441
MS.358         	12.537         	0.391
MS.359         	12.512         	0.546
MS.360         	12.488         	0.409
MS.361         	12.462         	0.401
MS.362         	12.438         	0.407
MS.363         	12.412         	0.397
MS.364         	12.387         	0.397
MS.365         	12.363         	0.387
MS.366         	12.337         	0.389
MS.367         	12.312         	0.451
MS.368         	12.287         	0.387
MS.369         	12.265         	0.389
MS.370         	12.24          	0.421
MS.371         	12.215         	0.391
MS.372         	12.19          	0.401
MS.373         	12.167         	0.397
MS.374         	12.142         	0.401
MS.375         	12.117         	0.214
MS.376         	12.092         	0.205
MS.377         	12.07          	0.211
MS.378         	12.045         	0.395
MS.379         	12.02          	0.395
MS.380         	11.997         	0.234
MS.381         	11.972         	0.246
MS.382         	11.95          	0.214
MS.383         	11.925         	0.214
MS.384         	11.903         	0.24
MS.385         	11.877         	0.413
MS.386         	11.855         	0.23
MS.387         	11.83          	0.22
MS.388         	11.807         	0.226
MS.389         	11.782         	0.232
MS.390         	11.76          	0.234
MS.391         	11.735         	0.234
MS.392         	11.712         	0.234
MS.393         	11.69          	0.234
MS.394         	11.665         	0.238
MS.395         	11.642         	0.234
MS.396         	11.62          	0.238
MS.397         	11.595         	0.234
MS.398         	11.572         	0.236
MS.399         	11.55          	0.23
MS.400         	11.528         	0.234
MS.401         	11.505         	0.236
MS.402         	11.48          	0.234
MS.403         	11.457         	0.234
MS.404         	11.435         	0.236
MS.405         	11.412         	0.232
MS.406         	11.39          	0.236
MS.407         	11.367         	0.236
MS.408         	11.345         	0.232
MS.409         	11.32          	0.232
MS.410         	11.297         	0.101
MS.411         	11.275         	0.232
MS.412         	11.252         	0.236
MS.413         	11.23          	0.234
MS.414         	11.207         	0.095
MS.415         	11.185         	0.234
MS.416         	11.165         	0.093
MS.417         	11.142         	0.093
MS.418         	11.12          	0.095
MS.419         	11.097         	0.095
MS.420         	11.075         	0.097
MS.421         	11.052         	0.097
MS.422         	11.03          	0.234
MS.423         	11.007         	0.095
MS.424         	10.988         	0.093
MS.425         	10.965         	0.091
MS.426         	10.943         	0.095
MS.427         	10.92          	0.097
MS.428         	10.9           	0.097
MS.429         	10.877         	0.101
MS.430         	10.855         	0.095
MS.431         	10.835         	0.097
MS.432         	10.812         	0.093
MS.433         	10.79          	0.095
MS.434         	10.77          	0.091
MS.435         	10.747         	0.095
MS.436         	10.725         	0.103
MS.437         	10.705         	0.101
MS.438         	10.682         	0.111
MS.439         	10.662         	0.111
MS.440         	10.64          	0.111
MS.441         	10.62          	0.103
MS.442         	10.597         	0.099
MS.443         	10.577         	0.095
MS.444         	10.555         	0.095
MS.445         	10.535         	0.109
MS.446         	10.512         	0.111
MS.447         	10.492         	0.107
MS.448         	10.472         	0.111
MS.449         	10.45          	0.101
MS.450         	10.43          	0.095
MS.451         	10.41          	0.095
MS.452         	10.387         	0.109
MS.453         	10.367         	0.113
MS.454         	10.347         	0.111
MS.455         	10.325         	0.111
MS.456         	10.305         	0.109
MS.457         	10.285         	0.115
MS.458         	10.265         	0.115
MS.459         	10.245         	0.101
MS.460         	10.222         	0.099
MS.461         	10.202         	0.111
MS.462         	10.182         	0.091
MS.463         	10.162         	0.093
MS.464         	10.142         	0.091
MS.465         	10.122         	0.115
MS.466         	10.102         	0.089
MS.467         	10.08          	0.091
MS.468         	10.06          	0.089
MS.469         	10.04          	0.097
MS.470         	10.02          	0.089
MS.471         	10             	0.091
MS.472         	9.98           	0.089
MS.473         	9.96           	0.093
MS.474         	9.94           	0.089
MS.475         	9.92           	0.109
MS.476         	9.903          	0.089
MS.477         	9.882          	0.089
MS.478         	9.863          	0.091
MS.479         	9.842          	0.093
MS.480         	9.823          	0.093
MS.481         	9.802          	0.091
MS.482         	9.782          	0.111
MS.483         	9.762          	0.095
MS.484         	9.745          	0.093
MS.485         	9.725          	0.089
MS.486         	9.705          	0.091
MS.487         	9.685          	0.095
MS.488         	9.667          	0.093
MS.489         	9.648          	0.093
MS.490         	9.627          	0.091
MS.491         	9.608          	0.091
MS.492         	9.59           	0.091
MS.493         	9.57           	0.095
MS.494         	9.552          	0.091
MS.495         	9.532          	0.091
MS.496         	9.512          	0.093
MS.497         	9.495          	0.089
MS.498         	9.475          	0.091
MS.499         	9.455          	0.091
MS.500         	9.438          	0.089
MS.501         	9.417          	0.095
MS.502         	9.4            	0.093
MS.503         	9.38           	0.095
MS.504         	9.363          	0.091
MS.505         	9.342          	0.093
MS.506         	9.325          	0.093
MS.507         	9.305          	0.091
MS.508         	9.287          	0.093
MS.509         	9.27           	0.095
MS.510         	9.25           	0.091
MS.511         	9.233          	0.091
MS.512         	9.212          	0.093
MS.513         	9.195          	0.093
MS.514         	9.177          	0.093
MS.515         	9.158          	0.089
MS.516         	9.14           	0.093
MS.517         	9.122          	0.089
MS.518         	9.102          	0.087
MS.519         	9.085          	-0.006
MS.520         	9.068          	0.093
MS.521         	9.05           	0.089
MS.522         	9.03           	-0.006
MS.523         	9.012          	0.093
MS.524         	8.995          	-0.006
MS.525         	8.977          	-0.006
MS.526         	8.96           	0.091
MS.527         	8.94           	-0.004
MS.528         	8.922          	0.093
MS.529         	8.905          	-0.008
MS.530         	8.887          	-0.008
MS.531         	8.87           	0.093
MS.532         	8.852          	0.093
MS.533         	8.835          	0.089
MS.534         	8.818          	-0.006
MS.535         	8.8            	0.095
MS.536         	8.783          	0.087
MS.537         	8.765          	-0.004
MS.538         	8.747          	-0.006
MS.539         	8.73           	-0.008
MS.540         	8.712          	-0.008
MS.541         	8.695          	-0.006
MS.542         	8.677          	-0.004
MS.543         	8.66           	-0.008
MS.544         	8.642          	-0.006
MS.545         	8.625          	-0.004
MS.546         	8.608          	-0.008
MS.547         	8.59           	0.099
MS.548         	8.573          	-0.002
MS.549         	8.557          	-0.006
MS.550         	8.54           	-0.006
MS.551         	8.523          	-0.006
MS.552         	8.505          	-0.006
MS.553         	8.488          	-0.006
MS.554         	8.47           	0.095
MS.555         	8.455          	-0.008
MS.556         	8.438          	-0.006
MS.557         	8.42           	-0.01
MS.558         	8.403          	-0.006
MS.559         	8.387          	-0.006
MS.560         	8.37           	-0.002
MS.561         	8.352          	-0.006
MS.562         	8.337          	-0.008
MS.563         	8.32           	-0.006
MS.564         	8.302          	-0.006
MS.565         	8.287          	-0.004
DERIVED EXCITABILITY VARIABLES
Program = QTracP 3/4/2020
Threshold method = 6 (optimised for CAP, using data for present condition only)
SR method = 1 (using actual data values)
6.                 	0.000               	Peak response\(mV)
17.                	33                  	Age (years)
18.                	2                   	Sex (M=1, F=2)

EXTRA VARIABLES

MScPeak(mV) = 8.92
MScS5(mA) = 12.72
MScS50(mA) = 16.58
MScS95(mA) = 20.04
MScNSteps = 4
MScSteps(%) = 9.4
MScStepMax(%) = 2.8
MScD50 = 39
MScSlope = 6.03
MSFPeakAmp(mV) = 9.03
MSFNUnits = 79
MSFMeanUnitAmp(uV) = 114.2
MSFHuntTime(m) = 3.29
MSFError(%) = 4.52
MSFNLarge = 15.72
MSFMedianAmp(%) = 0.954
MSFMedianAmp(mV) = 0.0861
MSFHalfAmpAmp(%) = 1.59
MSFHalfAmpAmp(mV) = 0.143
MSFLargestAmp(%) = 7.11
MSFLargestAmp(mV) = 0.641
MSFMeanRS(%) = 2.02
MSFOpts = 10106121
MScDuration(min) = 5.2
MSFTraces = 520
MSFSizeLimit(uV) = 22.8
MSFLimitType = 3
MSFSmallestAmp(uV) = 26.9

EXTRA WAVEFORMS


!MScan Model
!79
	1	9.01	0.5	2
	2	9.04	0.61	2
	3	11.08	0.57	2
	4	11.32	0.91	2
	5	12.07	1.6	2
	6	12.71	1.08	2
	7	13.08	0.9	2
	8	13.17	0.97	2
	9	13.38	1.32	2
	10	13.48	0.36	2
	11	13.7	0.44	2
	12	13.83	1.07	2
	13	14.07	1.75	2
	14	14.21	0.93	2
	15	14.27	0.72	2
	16	14.33	0.95	2
	17	14.44	2.03	2
	18	14.68	2.6	2
	19	14.77	1.2	2
	20	14.84	1.23	2
	21	14.91	1.44	2
	22	14.96	0.74	2
	23	14.99	0.37	2
	24	15.01	0.37	2
	25	15.04	0.37	2
	26	15.07	0.48	2
	27	15.09	0.38	2
	28	15.1	0.35	2
	29	15.12	0.35	2
	30	15.14	0.36	2
	31	15.16	0.37	2
	32	15.18	0.37	2
	33	15.2	0.33	2
	34	15.22	0.3	2
	35	15.24	0.3	2
	36	15.26	0.35	2
	37	15.29	0.42	2
	38	15.32	0.31	2
	39	15.35	0.33	2
	40	15.46	1.17	2
	41	15.6	0.8	2
	42	15.66	0.84	2
	43	15.75	1.29	2
	44	15.85	0.79	2
	45	16.04	1.62	2
	46	16.11	1.41	2
	47	16.19	1.79	2
	48	16.23	1.08	2
	49	16.28	0.6	2
	50	16.32	1.16	2
	51	16.46	4.77	2
	52	16.67	4.83	2
	53	16.72	0.54	2
	54	16.76	0.62	2
	55	16.81	1.01	2
	56	16.85	1.47	2
	57	16.89	1.07	2
	58	16.92	0.69	2
	59	16.95	0.58	2
	60	16.99	0.88	2
	61	17.07	2.22	2
	62	17.16	1.07	2
	63	17.34	2.69	2
	64	17.63	5.21	2.4
	65	18.06	7.11	2
	66	18.3	1.58	1.92
	67	18.57	2.07	2
	68	18.73	1.3	2
	69	18.89	1.42	2
	70	19.19	5.17	2
	71	19.35	3.39	2
	72	19.46	1.46	2
	73	20.46	1.24	2
	74	20.75	1.09	2
	75	21.2	1.59	2
	76	22.49	0.41	2
	77	22.61	0.33	2
	78	22.71	0.47	2
	79	23.24	1.12	2

