File:              	C:\Qtrac\Data\Daniel M Sørensen\MScan multicentre study\Data from centres\Ankara\Processed data\HCAC10104C.QZD
Name:              	TR.ANK.NC.6.1
Protocol:          	MSCAN-R2
Date:              	4/1/21
Start time:        	13:07:02
Age:               	30
Sex:               	M
Temperature:
S/R sites:         	ADM
NC/disease:        	NC
Operator:          	EB
Comments:
M-SCAN DATA (6.8-2.3m)
Scanpts: 6, 12, 472, 493
Stim. (mA)     	Amp. (mV)
MS.1           	27             	6.423
MS.2           	27             	6.415
MS.3           	27             	6.546
MS.4           	27             	6.578
MS.5           	27             	6.383
MS.6           	27             	6.423
MS.7           	27             	6.417
MS.8           	27             	6.459
MS.9           	27             	6.441
MS.10          	27             	6.433
MS.11          	27             	6.381
MS.12          	27             	6.425
MS.13          	27             	6.429
MS.14          	27             	6.421
MS.15          	27             	6.443
MS.16          	27             	6.328
MS.17          	27             	6.459
MS.18          	27             	6.413
MS.19          	27             	6.355
MS.20          	27             	6.316
MS.21          	27             	6.331
MS.22          	27             	6.441
MS.23          	26.945         	6.423
MS.24          	26.892         	6.333
MS.25          	26.837         	6.345
MS.26          	26.785         	6.355
MS.27          	26.733         	6.343
MS.28          	26.677         	6.379
MS.29          	26.625         	6.347
MS.30          	26.573         	6.379
MS.31          	26.517         	6.371
MS.32          	26.465         	6.478
MS.33          	26.412         	6.365
MS.34          	26.36          	6.371
MS.35          	26.307         	6.361
MS.36          	26.255         	6.385
MS.37          	26.202         	6.373
MS.38          	26.15          	6.371
MS.39          	26.097         	6.353
MS.40          	26.045         	6.411
MS.41          	25.993         	6.389
MS.42          	25.942         	6.391
MS.43          	25.89          	6.331
MS.44          	25.837         	6.363
MS.45          	25.785         	6.322
MS.46          	25.735         	6.443
MS.47          	25.682         	6.377
MS.48          	25.632         	6.379
MS.49          	25.58          	6.375
MS.50          	25.53          	6.415
MS.51          	25.477         	6.085
MS.52          	25.427         	6.439
MS.53          	25.377         	6.413
MS.54          	25.325         	6.427
MS.55          	25.275         	6.445
MS.56          	25.225         	6.355
MS.57          	25.175         	6.351
MS.58          	25.125         	6.371
MS.59          	25.075         	6.153
MS.60          	25.025         	6.387
MS.61          	24.975         	6.461
MS.62          	24.925         	6.367
MS.63          	24.875         	6.047
MS.64          	24.825         	6.451
MS.65          	24.775         	6.532
MS.66          	24.725         	6.431
MS.67          	24.675         	6.063
MS.68          	24.627         	6.105
MS.69          	24.577         	6.049
MS.70          	24.528         	6.073
MS.71          	24.48          	6.085
MS.72          	24.43          	6.101
MS.73          	24.382         	5.988
MS.74          	24.332         	6.042
MS.75          	24.285         	5.97
MS.76          	24.235         	5.793
MS.77          	24.188         	6.012
MS.78          	24.14          	6.034
MS.79          	24.09          	5.891
MS.80          	24.042         	6.059
MS.81          	23.995         	5.976
MS.82          	23.948         	5.893
MS.83          	23.9           	5.99
MS.84          	23.852         	5.827
MS.85          	23.802         	5.893
MS.86          	23.755         	5.642
MS.87          	23.707         	5.676
MS.88          	23.66          	5.799
MS.89          	23.615         	5.374
MS.90          	23.567         	5.684
MS.91          	23.52          	5.426
MS.92          	23.472         	5.62
MS.93          	23.425         	5.331
MS.94          	23.38          	5.338
MS.95          	23.332         	5.311
MS.96          	23.285         	5.323
MS.97          	23.24          	5.39
MS.98          	23.192         	5.41
MS.99          	23.147         	5.521
MS.100         	23.1           	5.346
MS.101         	23.055         	5.174
MS.102         	23.007         	5.366
MS.103         	22.962         	5.16
MS.104         	22.915         	5.483
MS.105         	22.87          	5.136
MS.106         	22.825         	5.267
MS.107         	22.78          	5.098
MS.108         	22.733         	5.205
MS.109         	22.688         	5.132
MS.110         	22.642         	5.078
MS.111         	22.597         	5.104
MS.112         	22.552         	5.07
MS.113         	22.507         	5.021
MS.114         	22.462         	4.989
MS.115         	22.417         	5.136
MS.116         	22.372         	4.967
MS.117         	22.327         	5.08
MS.118         	22.282         	4.898
MS.119         	22.24          	5.072
MS.120         	22.195         	4.959
MS.121         	22.15          	4.824
MS.122         	22.105         	4.759
MS.123         	22.062         	4.83
MS.124         	22.017         	4.838
MS.125         	21.972         	4.818
MS.126         	21.93          	4.78
MS.127         	21.885         	4.852
MS.128         	21.842         	4.685
MS.129         	21.797         	4.804
MS.130         	21.755         	4.649
MS.131         	21.712         	4.643
MS.132         	21.667         	4.643
MS.133         	21.625         	4.633
MS.134         	21.583         	4.516
MS.135         	21.538         	4.473
MS.136         	21.495         	4.367
MS.137         	21.452         	4.568
MS.138         	21.41          	4.534
MS.139         	21.368         	4.596
MS.140         	21.325         	4.099
MS.141         	21.282         	4.324
MS.142         	21.24          	4.3
MS.143         	21.198         	4.334
MS.144         	21.155         	4.212
MS.145         	21.112         	4.288
MS.146         	21.07          	4.03
MS.147         	21.028         	3.966
MS.148         	20.985         	3.899
MS.149         	20.942         	3.918
MS.150         	20.903         	4.046
MS.151         	20.86          	3.841
MS.152         	20.817         	3.799
MS.153         	20.778         	3.644
MS.154         	20.735         	3.845
MS.155         	20.695         	3.742
MS.156         	20.653         	3.771
MS.157         	20.61          	3.416
MS.158         	20.57          	3.66
MS.159         	20.53          	3.708
MS.160         	20.487         	3.64
MS.161         	20.448         	3.358
MS.162         	20.405         	3.549
MS.163         	20.365         	3.223
MS.164         	20.325         	3.162
MS.165         	20.285         	3.255
MS.166         	20.243         	3.188
MS.167         	20.202         	3.307
MS.168         	20.163         	2.931
MS.169         	20.122         	3.049
MS.170         	20.083         	3.037
MS.171         	20.042         	2.788
MS.172         	20.002         	2.8
MS.173         	19.962         	2.808
MS.174         	19.922         	2.661
MS.175         	19.882         	2.888
MS.176         	19.842         	2.737
MS.177         	19.802         	2.641
MS.178         	19.762         	2.89
MS.179         	19.725         	2.643
MS.180         	19.685         	2.582
MS.181         	19.645         	2.548
MS.182         	19.605         	2.397
MS.183         	19.567         	2.451
MS.184         	19.528         	2.401
MS.185         	19.487         	2.637
MS.186         	19.45          	2.598
MS.187         	19.41          	2.296
MS.188         	19.372         	2.413
MS.189         	19.333         	2.429
MS.190         	19.295         	2.409
MS.191         	19.257         	2.367
MS.192         	19.217         	2.222
MS.193         	19.18          	2.254
MS.194         	19.14          	2.334
MS.195         	19.102         	2.453
MS.196         	19.065         	2.232
MS.197         	19.028         	2.246
MS.198         	18.987         	2.107
MS.199         	18.95          	1.986
MS.200         	18.913         	1.911
MS.201         	18.875         	2.143
MS.202         	18.837         	2.079
MS.203         	18.8           	1.883
MS.204         	18.762         	1.887
MS.205         	18.725         	1.811
MS.206         	18.688         	1.883
MS.207         	18.65          	1.907
MS.208         	18.612         	1.93
MS.209         	18.575         	1.799
MS.210         	18.538         	1.642
MS.211         	18.5           	1.966
MS.212         	18.465         	1.817
MS.213         	18.427         	1.605
MS.214         	18.39          	1.752
MS.215         	18.355         	1.666
MS.216         	18.317         	1.714
MS.217         	18.28          	1.648
MS.218         	18.245         	1.666
MS.219         	18.208         	1.642
MS.220         	18.17          	1.666
MS.221         	18.135         	1.515
MS.222         	18.097         	1.41
MS.223         	18.062         	1.619
MS.224         	18.028         	1.436
MS.225         	17.99          	1.505
MS.226         	17.955         	1.307
MS.227         	17.917         	1.488
MS.228         	17.882         	1.347
MS.229         	17.847         	1.295
MS.230         	17.812         	1.275
MS.231         	17.775         	1.229
MS.232         	17.74          	1.285
MS.233         	17.705         	1.215
MS.234         	17.67          	1.174
MS.235         	17.635         	1.206
MS.236         	17.6           	1.174
MS.237         	17.562         	1.217
MS.238         	17.528         	1.198
MS.239         	17.493         	1.142
MS.240         	17.458         	1.102
MS.241         	17.425         	1.061
MS.242         	17.39          	1.116
MS.243         	17.355         	1.124
MS.244         	17.32          	1.025
MS.245         	17.285         	1.017
MS.246         	17.25          	1.12
MS.247         	17.215         	0.941
MS.248         	17.182         	0.953
MS.249         	17.147         	0.943
MS.250         	17.112         	0.977
MS.251         	17.08          	0.949
MS.252         	17.045         	0.914
MS.253         	17.01          	0.824
MS.254         	16.977         	0.862
MS.255         	16.942         	0.771
MS.256         	16.91          	0.788
MS.257         	16.875         	0.81
MS.258         	16.842         	0.715
MS.259         	16.807         	0.767
MS.260         	16.775         	0.669
MS.261         	16.74          	0.769
MS.262         	16.708         	0.806
MS.263         	16.675         	0.769
MS.264         	16.64          	0.651
MS.265         	16.608         	0.85
MS.266         	16.575         	0.755
MS.267         	16.54          	0.675
MS.268         	16.507         	0.667
MS.269         	16.475         	0.769
MS.270         	16.442         	0.54
MS.271         	16.41          	0.522
MS.272         	16.378         	0.481
MS.273         	16.342         	0.596
MS.274         	16.31          	0.677
MS.275         	16.278         	0.618
MS.276         	16.245         	0.53
MS.277         	16.212         	0.534
MS.278         	16.18          	0.485
MS.279         	16.147         	0.536
MS.280         	16.118         	0.413
MS.281         	16.085         	0.455
MS.282         	16.052         	0.534
MS.283         	16.02          	0.461
MS.284         	15.987         	0.403
MS.285         	15.955         	0.556
MS.286         	15.925         	0.443
MS.287         	15.892         	0.431
MS.288         	15.86          	0.427
MS.289         	15.83          	0.457
MS.290         	15.797         	0.431
MS.291         	15.765         	0.332
MS.292         	15.735         	0.381
MS.293         	15.702         	0.385
MS.294         	15.672         	0.417
MS.295         	15.64          	0.328
MS.296         	15.61          	0.373
MS.297         	15.577         	0.328
MS.298         	15.547         	0.318
MS.299         	15.515         	0.369
MS.300         	15.485         	0.346
MS.301         	15.452         	0.348
MS.302         	15.422         	0.391
MS.303         	15.392         	0.314
MS.304         	15.36          	0.324
MS.305         	15.33          	0.369
MS.306         	15.3           	0.352
MS.307         	15.27          	0.324
MS.308         	15.237         	0.322
MS.309         	15.207         	0.306
MS.310         	15.177         	0.218
MS.311         	15.148         	0.304
MS.312         	15.117         	0.336
MS.313         	15.087         	0.22
MS.314         	15.057         	0.332
MS.315         	15.027         	0.222
MS.316         	14.997         	0.22
MS.317         	14.967         	0.207
MS.318         	14.938         	0.224
MS.319         	14.907         	0.236
MS.320         	14.877         	0.211
MS.321         	14.847         	0.205
MS.322         	14.818         	0.31
MS.323         	14.787         	0.224
MS.324         	14.76          	0.187
MS.325         	14.73          	0.191
MS.326         	14.7           	0.3
MS.327         	14.67          	0.278
MS.328         	14.64          	0.189
MS.329         	14.612         	0.191
MS.330         	14.582         	0.211
MS.331         	14.552         	0.191
MS.332         	14.525         	0.209
MS.333         	14.495         	0.211
MS.334         	14.467         	0.195
MS.335         	14.438         	0.189
MS.336         	14.41          	0.189
MS.337         	14.38          	0.189
MS.338         	14.352         	0.191
MS.339         	14.322         	0.189
MS.340         	14.295         	0.191
MS.341         	14.265         	0.193
MS.342         	14.237         	0.211
MS.343         	14.207         	0.193
MS.344         	14.18          	0.191
MS.345         	14.153         	0.211
MS.346         	14.122         	0.195
MS.347         	14.095         	0.137
MS.348         	14.068         	0.193
MS.349         	14.04          	0.195
MS.350         	14.01          	0.197
MS.351         	13.983         	0.195
MS.352         	13.955         	0.191
MS.353         	13.927         	0.193
MS.354         	13.9           	0.143
MS.355         	13.872         	0.195
MS.356         	13.845         	0.191
MS.357         	13.815         	0.193
MS.358         	13.787         	0.141
MS.359         	13.76          	0.157
MS.360         	13.733         	0.197
MS.361         	13.705         	0.141
MS.362         	13.677         	0.137
MS.363         	13.653         	0.036
MS.364         	13.625         	0.143
MS.365         	13.597         	0.034
MS.366         	13.57          	0.147
MS.367         	13.542         	0.091
MS.368         	13.515         	0.197
MS.369         	13.487         	0.145
MS.370         	13.462         	0.087
MS.371         	13.435         	0.036
MS.372         	13.407         	0.145
MS.373         	13.38          	0.036
MS.374         	13.355         	0.036
MS.375         	13.327         	0.04
MS.376         	13.3           	0.038
MS.377         	13.275         	0.036
MS.378         	13.247         	0.038
MS.379         	13.222         	0.038
MS.380         	13.195         	0.034
MS.381         	13.167         	0.038
MS.382         	13.142         	0.038
MS.383         	13.115         	0.038
MS.384         	13.09          	0.038
MS.385         	13.062         	0.04
MS.386         	13.037         	0.038
MS.387         	13.012         	0.04
MS.388         	12.985         	0.036
MS.389         	12.96          	0.032
MS.390         	12.932         	0.04
MS.391         	12.907         	0.036
MS.392         	12.882         	0.034
MS.393         	12.858         	0.034
MS.394         	12.83          	0.04
MS.395         	12.805         	0.036
MS.396         	12.78          	0.038
MS.397         	12.755         	0.038
MS.398         	12.727         	0.038
MS.399         	12.702         	0.036
MS.400         	12.677         	0.04
MS.401         	12.653         	0.038
MS.402         	12.627         	0.04
MS.403         	12.602         	0.034
MS.404         	12.577         	0.036
MS.405         	12.552         	0.042
MS.406         	12.528         	0.03
MS.407         	12.502         	0.04
MS.408         	12.477         	0.042
MS.409         	12.452         	0.044
MS.410         	12.427         	0.038
MS.411         	12.403         	0.032
MS.412         	12.377         	0.028
MS.413         	12.352         	0.034
MS.414         	12.327         	0.04
MS.415         	12.302         	0.03
MS.416         	12.278         	0.032
MS.417         	12.255         	0.034
MS.418         	12.23          	0.028
MS.419         	12.205         	0.04
MS.420         	12.18          	0.034
MS.421         	12.155         	0.03
MS.422         	12.132         	0.032
MS.423         	12.108         	0.036
MS.424         	12.082         	0.032
MS.425         	12.06          	0.046
MS.426         	12.035         	0.028
MS.427         	12.01          	0.032
MS.428         	11.988         	0.032
MS.429         	11.962         	0.036
MS.430         	11.94          	0.032
MS.431         	11.915         	0.034
MS.432         	11.892         	0.03
MS.433         	11.867         	0.03
MS.434         	11.845         	0.03
MS.435         	11.82          	0.032
MS.436         	11.797         	0.03
MS.437         	11.773         	0.038
MS.438         	11.75          	0.032
MS.439         	11.727         	0.032
MS.440         	11.702         	0.032
MS.441         	11.68          	0.034
MS.442         	11.655         	0.03
MS.443         	11.632         	0.03
MS.444         	11.61          	0.032
MS.445         	11.587         	0.032
MS.446         	11.562         	0.032
MS.447         	11.54          	-0.012
MS.448         	11.517         	0.032
MS.449         	11.495         	0.032
MS.450         	11.47          	-0.01
MS.451         	11.447         	-0.014
MS.452         	11.425         	-0.008
MS.453         	11.403         	-0.012
MS.454         	11.38          	0.03
MS.455         	11.358         	-0.006
MS.456         	11.335         	-0.01
MS.457         	11.312         	-0.012
MS.458         	11.29          	0.036
MS.459         	11.267         	-0.01
MS.460         	11.245         	-0.01
MS.461         	11.222         	-0.012
MS.462         	11.2           	-0.01
MS.463         	11.177         	-0.012
MS.464         	11.155         	-0.012
MS.465         	11.132         	-0.008
MS.466         	11.11          	-0.01
MS.467         	11.087         	-0.01
MS.468         	11.065         	-0.012
MS.469         	11.042         	-0.008
MS.470         	11.023         	-0.008
MS.471         	11             	-0.01
MS.472         	10.977         	-0.01
MS.473         	10.955         	-0.01
MS.474         	10.932         	-0.01
MS.475         	10.912         	-0.01
MS.476         	10.89          	-0.008
MS.477         	10.867         	-0.008
MS.478         	10.847         	-0.012
MS.479         	10.825         	-0.008
MS.480         	10.802         	-0.012
MS.481         	10.782         	-0.004
MS.482         	10.76          	-0.008
MS.483         	10.738         	-0.008
MS.484         	10.717         	-0.01
MS.485         	10.695         	-0.012
MS.486         	10.675         	-0.008
MS.487         	10.653         	-0.01
MS.488         	10.632         	-0.004
MS.489         	10.61          	-0.006
MS.490         	10.59          	-0.008
MS.491         	10.568         	-0.008
MS.492         	10.547         	-0.008
MS.493         	10.525         	-0.012
DERIVED EXCITABILITY VARIABLES
Program = QTracP 3/4/2020
Threshold method = 6 (optimised for CAP, using data for present condition only)
SR method = 1 (using actual data values)
6.                 	0.000               	Peak response\(mV)
17.                	30                  	Age (years)
18.                	1                   	Sex (M=1, F=2)

EXTRA VARIABLES

MScPeak(mV) = 6.43
MScS5(mA) = 15.27
MScS50(mA) = 20.27
MScS95(mA) = 25.08
MScNSteps = 2
MScSteps(%) = 4.6
MScStepMax(%) = 2.5
MScD50 = 48
MScSlope = 5.38
MSFPeakAmp(mV) = 6.43
MSFNUnits = 112
MSFMeanUnitAmp(uV) = 57.4
MSFHuntTime(m) = 2.67
MSFError(%) = 2.95
MSFNLarge = 35.01
MSFMedianAmp(%) = 0.849
MSFMedianAmp(mV) = 0.0546
MSFHalfAmpAmp(%) = 1
MSFHalfAmpAmp(mV) = 0.0645
MSFLargestAmp(%) = 4.48
MSFLargestAmp(mV) = 0.288
MSFMeanRS(%) = 2
MSFOpts = 10106121
MScDuration(min) = 4.5
MSFTraces = 488
MSFSizeLimit(uV) = 16.1
MSFLimitType = 1
MSFSmallestAmp(uV) = 17

EXTRA WAVEFORMS


!MScan Model
!112
	1	11.44	0.4	2
	2	13.28	0.54	2
	3	13.59	1.34	2
	4	13.62	0.9	2
	5	14.99	0.97	2
	6	15.15	0.46	2
	7	15.45	1.01	2
	8	15.64	0.5	2
	9	15.81	0.48	2
	10	15.95	0.68	2
	11	16.2	1.05	2
	12	16.33	1.2	2
	13	16.53	1.25	2
	14	16.74	1.3	2
	15	16.84	0.69	2
	16	16.9	0.34	2
	17	16.96	0.49	2
	18	17	0.33	2
	19	17.04	0.26	2
	20	17.1	0.46	2
	21	17.14	0.32	2
	22	17.17	0.32	2
	23	17.2	0.34	2
	24	17.23	0.33	2
	25	17.27	0.3	2
	26	17.3	0.33	2
	27	17.35	0.37	2
	28	17.39	0.28	2
	29	17.43	0.31	2
	30	17.48	0.37	2
	31	17.54	0.45	2
	32	17.59	0.49	2
	33	17.65	0.43	2
	34	17.7	0.46	2
	35	17.76	0.65	2
	36	17.82	0.53	2
	37	17.85	0.33	2
	38	17.88	0.32	2
	39	17.92	0.35	2
	40	17.95	0.44	2
	41	17.99	0.44	2
	42	18.04	0.73	2
	43	18.1	0.69	2
	44	18.16	0.72	2
	45	18.25	1.04	2
	46	18.35	0.84	2
	47	18.45	1.04	2
	48	18.56	1.01	2
	49	18.67	0.95	2
	50	18.75	0.96	2
	51	18.82	0.78	2
	52	18.89	0.9	2
	53	18.96	0.94	2
	54	19.03	0.84	2
	55	19.12	1.07	2
	56	19.29	1.92	2
	57	19.41	1.24	2
	58	19.54	1.37	2
	59	19.69	1.45	2
	60	19.75	0.59	2
	61	19.81	0.74	2
	62	19.87	0.98	2
	63	19.93	0.97	2
	64	19.99	1.06	2
	65	20.05	1.05	2
	66	20.1	0.87	2
	67	20.14	0.66	2
	68	20.18	0.61	2
	69	20.22	0.71	2
	70	20.26	0.88	2
	71	20.31	1.03	2
	72	20.36	1.23	2
	73	20.42	1.01	2
	74	20.48	0.98	2
	75	20.54	1.17	2
	76	20.61	1.18	2
	77	20.68	1.05	2
	78	20.73	0.84	2
	79	20.78	0.85	2
	80	20.83	1.13	2
	81	20.88	0.84	2
	82	20.93	0.86	2
	83	20.99	0.85	2
	84	21.04	0.73	2
	85	21.1	0.92	2
	86	21.16	0.99	2
	87	21.22	0.85	2
	88	21.28	0.77	2
	89	21.34	0.95	2
	90	21.42	1.29	2
	91	21.51	1.12	2
	92	21.63	1.45	2
	93	21.76	1.3	2
	94	21.82	0.51	2
	95	21.89	0.7	2
	96	21.95	0.59	2
	97	22.05	0.84	2
	98	22.16	0.92	2
	99	22.26	0.7	2
	100	22.35	0.58	2
	101	22.48	0.99	2
	102	22.7	1.6	2
	103	22.85	1	2
	104	23.21	2.55	2
	105	23.52	1.38	2
	106	23.63	1.36	2
	107	23.75	0.94	2
	108	23.91	1.53	2
	109	23.95	3.34	2
	110	24.34	1.41	2
	111	24.82	4.48	2
	112	25.43	0.76	2

