File:              	C:\Qtrac\Data\Daniel M Sørensen\MScan multicentre study\Data from centres\Ankara\Processed data\HKC10114A.QZD
Name:              	TR.ANK.NC.8.1
Protocol:          	MSCAN-R2
Date:              	14/1/21
Start time:        	17:50:41
Age:               	25
Sex:               	F
Temperature:
S/R sites:         	APB
NC/disease:        	NC
Operator:          	HA
Comments:
M-SCAN DATA (4.5-0.9m)
Scanpts: 21, 25, 381, 403
Stim. (mA)     	Amp. (mV)
MS.1           	7.5            	4.796
MS.2           	7.5            	4.77
MS.3           	7.5            	4.814
MS.4           	7.5            	4.792
MS.5           	7.5            	4.792
MS.6           	7.5            	4.782
MS.7           	7.5            	4.671
MS.8           	7.5            	4.776
MS.9           	7.5            	4.761
MS.10          	7.5            	4.774
MS.11          	7.5            	4.774
MS.12          	7.5            	4.776
MS.13          	7.5            	4.78
MS.14          	7.5            	4.78
MS.15          	7.5            	4.782
MS.16          	7.5            	4.689
MS.17          	7.5            	4.77
MS.18          	7.5            	4.784
MS.19          	7.5            	4.778
MS.20          	7.5            	4.788
MS.21          	7.5            	4.788
MS.22          	7.5            	4.792
MS.23          	7.5            	4.802
MS.24          	7.485          	4.802
MS.25          	7.47           	4.8
MS.26          	7.455          	4.822
MS.27          	7.44           	4.812
MS.28          	7.425          	4.82
MS.29          	7.41           	4.719
MS.30          	7.395          	4.818
MS.31          	7.38           	4.786
MS.32          	7.365          	4.749
MS.33          	7.352          	4.753
MS.34          	7.337          	4.703
MS.35          	7.322          	4.788
MS.36          	7.307          	4.794
MS.37          	7.293          	4.761
MS.38          	7.277          	4.763
MS.39          	7.265          	4.776
MS.40          	7.25           	4.727
MS.41          	7.235          	4.822
MS.42          	7.22           	4.715
MS.43          	7.205          	4.786
MS.44          	7.192          	4.689
MS.45          	7.177          	4.602
MS.46          	7.162          	4.614
MS.47          	7.148          	4.6
MS.48          	7.135          	4.616
MS.49          	7.12           	4.608
MS.50          	7.105          	4.645
MS.51          	7.092          	4.649
MS.52          	7.077          	4.643
MS.53          	7.062          	4.631
MS.54          	7.05           	4.661
MS.55          	7.035          	4.635
MS.56          	7.02           	4.637
MS.57          	7.007          	4.665
MS.58          	6.992          	4.669
MS.59          	6.98           	4.653
MS.60          	6.965          	4.633
MS.61          	6.95           	4.641
MS.62          	6.938          	4.616
MS.63          	6.922          	4.637
MS.64          	6.91           	4.637
MS.65          	6.895          	4.574
MS.66          	6.882          	4.596
MS.67          	6.867          	4.612
MS.68          	6.855          	4.602
MS.69          	6.84           	4.598
MS.70          	6.827          	4.594
MS.71          	6.812          	4.586
MS.72          	6.8            	4.58
MS.73          	6.787          	4.568
MS.74          	6.773          	4.56
MS.75          	6.76           	4.604
MS.76          	6.745          	4.55
MS.77          	6.733          	4.57
MS.78          	6.72           	4.516
MS.79          	6.705          	4.526
MS.80          	6.692          	4.554
MS.81          	6.677          	4.522
MS.82          	6.665          	4.552
MS.83          	6.652          	4.562
MS.84          	6.637          	4.341
MS.85          	6.625          	4.369
MS.86          	6.612          	4.334
MS.87          	6.6            	4.363
MS.88          	6.585          	4.588
MS.89          	6.572          	4.393
MS.90          	6.56           	4.334
MS.91          	6.547          	4.349
MS.92          	6.532          	4.347
MS.93          	6.52           	4.314
MS.94          	6.507          	4.576
MS.95          	6.495          	4.326
MS.96          	6.48           	4.479
MS.97          	6.467          	4.403
MS.98          	6.455          	4.498
MS.99          	6.442          	4.25
MS.100         	6.43           	4.471
MS.101         	6.418          	4.3
MS.102         	6.405          	4.218
MS.103         	6.39           	4.314
MS.104         	6.378          	4.441
MS.105         	6.365          	4.447
MS.106         	6.352          	4.49
MS.107         	6.34           	4.202
MS.108         	6.327          	4.429
MS.109         	6.315          	4.322
MS.110         	6.302          	4.254
MS.111         	6.29           	4.236
MS.112         	6.277          	4.363
MS.113         	6.265          	4.248
MS.114         	6.253          	4.131
MS.115         	6.24           	4.198
MS.116         	6.227          	4.216
MS.117         	6.215          	4.171
MS.118         	6.202          	4.198
MS.119         	6.19           	4.226
MS.120         	6.177          	4.101
MS.121         	6.165          	4.121
MS.122         	6.152          	4.212
MS.123         	6.14           	4.089
MS.124         	6.128          	4.347
MS.125         	6.115          	4.214
MS.126         	6.102          	4.232
MS.127         	6.092          	4.248
MS.128         	6.08           	4.191
MS.129         	6.067          	4.103
MS.130         	6.055          	4.204
MS.131         	6.043          	4.248
MS.132         	6.03           	4.175
MS.133         	6.02           	4.195
MS.134         	6.007          	4.141
MS.135         	5.995          	3.962
MS.136         	5.983          	3.901
MS.137         	5.97           	3.918
MS.138         	5.96           	3.922
MS.139         	5.947          	3.869
MS.140         	5.935          	3.829
MS.141         	5.922          	3.827
MS.142         	5.912          	4.016
MS.143         	5.9            	4.22
MS.144         	5.887          	3.907
MS.145         	5.875          	3.505
MS.146         	5.865          	3.946
MS.147         	5.852          	3.99
MS.148         	5.84           	4.125
MS.149         	5.83           	3.317
MS.150         	5.817          	3.672
MS.151         	5.805          	3.7
MS.152         	5.795          	3.577
MS.153         	5.782          	3.547
MS.154         	5.773          	3.805
MS.155         	5.76           	4.004
MS.156         	5.747          	3.555
MS.157         	5.737          	3.352
MS.158         	5.725          	3.458
MS.159         	5.715          	3.638
MS.160         	5.702          	3.64
MS.161         	5.69           	3.863
MS.162         	5.68           	3.666
MS.163         	5.668          	3.271
MS.164         	5.657          	2.925
MS.165         	5.645          	2.969
MS.166         	5.635          	3.072
MS.167         	5.622          	3.456
MS.168         	5.612          	2.912
MS.169         	5.6            	2.985
MS.170         	5.59           	3.088
MS.171         	5.577          	2.639
MS.172         	5.567          	2.973
MS.173         	5.555          	2.88
MS.174         	5.545          	2.735
MS.175         	5.535          	2.588
MS.176         	5.523          	2.671
MS.177         	5.512          	2.717
MS.178         	5.5            	2.679
MS.179         	5.49           	2.542
MS.180         	5.48           	2.411
MS.181         	5.467          	2.479
MS.182         	5.457          	2.558
MS.183         	5.445          	2.608
MS.184         	5.435          	2.5
MS.185         	5.425          	2.27
MS.186         	5.412          	2.389
MS.187         	5.402          	2.534
MS.188         	5.392          	2.272
MS.189         	5.38           	2.385
MS.190         	5.37           	2.322
MS.191         	5.36           	2.334
MS.192         	5.35           	2.187
MS.193         	5.338          	2.27
MS.194         	5.327          	2.119
MS.195         	5.318          	2.111
MS.196         	5.307          	2.129
MS.197         	5.295          	2.238
MS.198         	5.285          	1.883
MS.199         	5.275          	2.012
MS.200         	5.265          	1.978
MS.201         	5.253          	2.075
MS.202         	5.242          	1.938
MS.203         	5.233          	2.028
MS.204         	5.222          	1.752
MS.205         	5.213          	1.911
MS.206         	5.202          	1.73
MS.207         	5.19           	1.783
MS.208         	5.18           	1.835
MS.209         	5.17           	1.825
MS.210         	5.16           	1.64
MS.211         	5.15           	1.583
MS.212         	5.14           	1.712
MS.213         	5.13           	1.335
MS.214         	5.117          	1.718
MS.215         	5.108          	1.696
MS.216         	5.097          	1.446
MS.217         	5.088          	1.325
MS.218         	5.077          	1.507
MS.219         	5.068          	1.573
MS.220         	5.057          	1.575
MS.221         	5.047          	1.233
MS.222         	5.037          	1.297
MS.223         	5.027          	1.184
MS.224         	5.017          	1.307
MS.225         	5.007          	1.128
MS.226         	4.997          	1.376
MS.227         	4.987          	1.186
MS.228         	4.977          	1.156
MS.229         	4.967          	1.049
MS.230         	4.957          	1.354
MS.231         	4.947          	1.305
MS.232         	4.938          	1.206
MS.233         	4.927          	0.918
MS.234         	4.918          	1.023
MS.235         	4.907          	0.981
MS.236         	4.898          	1.019
MS.237         	4.887          	0.951
MS.238         	4.88           	0.838
MS.239         	4.87           	0.812
MS.240         	4.86           	0.878
MS.241         	4.85           	0.771
MS.242         	4.84           	0.767
MS.243         	4.83           	0.626
MS.244         	4.82           	0.675
MS.245         	4.81           	0.681
MS.246         	4.802          	0.957
MS.247         	4.793          	0.663
MS.248         	4.782          	0.52
MS.249         	4.773          	0.602
MS.250         	4.762          	0.489
MS.251         	4.753          	0.524
MS.252         	4.745          	0.524
MS.253         	4.735          	0.536
MS.254         	4.725          	0.562
MS.255         	4.715          	0.417
MS.256         	4.707          	0.429
MS.257         	4.697          	0.342
MS.258         	4.688          	0.433
MS.259         	4.677          	0.344
MS.260         	4.67           	0.491
MS.261         	4.66           	0.375
MS.262         	4.65           	0.413
MS.263         	4.64           	0.365
MS.264         	4.632          	0.409
MS.265         	4.622          	0.407
MS.266         	4.612          	0.373
MS.267         	4.605          	0.276
MS.268         	4.595          	0.354
MS.269         	4.585          	0.254
MS.270         	4.577          	0.33
MS.271         	4.568          	0.407
MS.272         	4.557          	0.361
MS.273         	4.55           	0.373
MS.274         	4.54           	0.246
MS.275         	4.53           	0.334
MS.276         	4.523          	0.344
MS.277         	4.512          	0.363
MS.278         	4.503          	0.336
MS.279         	4.495          	0.161
MS.280         	4.485          	0.145
MS.281         	4.477          	0.169
MS.282         	4.467          	0.173
MS.283         	4.46           	0.238
MS.284         	4.45           	0.177
MS.285         	4.44           	0.244
MS.286         	4.432          	0.191
MS.287         	4.423          	0.29
MS.288         	4.415          	0.131
MS.289         	4.405          	0.191
MS.290         	4.398          	0.161
MS.291         	4.387          	0.111
MS.292         	4.38           	0.077
MS.293         	4.37           	0.193
MS.294         	4.362          	0.139
MS.295         	4.352          	0.06
MS.296         	4.345          	0.066
MS.297         	4.335          	0.068
MS.298         	4.327          	0.079
MS.299         	4.318          	0.105
MS.300         	4.31           	0.191
MS.301         	4.3            	0.143
MS.302         	4.293          	0.073
MS.303         	4.285          	0.177
MS.304         	4.275          	0.046
MS.305         	4.267          	0.034
MS.306         	4.257          	0.068
MS.307         	4.25           	0.077
MS.308         	4.242          	0.038
MS.309         	4.233          	0.123
MS.310         	4.225          	0.115
MS.311         	4.215          	0.081
MS.312         	4.207          	0.077
MS.313         	4.2            	0.044
MS.314         	4.19           	0.038
MS.315         	4.182          	0.038
MS.316         	4.175          	0.034
MS.317         	4.165          	0.024
MS.318         	4.157          	0.028
MS.319         	4.15           	0.038
MS.320         	4.14           	0.046
MS.321         	4.132          	0.032
MS.322         	4.125          	0.066
MS.323         	4.115          	0.036
MS.324         	4.108          	0.026
MS.325         	4.1            	0.034
MS.326         	4.092          	0.032
MS.327         	4.082          	0.022
MS.328         	4.075          	0.026
MS.329         	4.068          	0.022
MS.330         	4.06           	0.026
MS.331         	4.05           	0.024
MS.332         	4.043          	0.028
MS.333         	4.035          	0.024
MS.334         	4.027          	0.026
MS.335         	4.017          	0.026
MS.336         	4.01           	0.028
MS.337         	4.003          	0.022
MS.338         	3.995          	0.022
MS.339         	3.987          	0.014
MS.340         	3.977          	0.02
MS.341         	3.97           	0.022
MS.342         	3.962          	0.032
MS.343         	3.955          	0.02
MS.344         	3.947          	0.018
MS.345         	3.94           	0.012
MS.346         	3.93           	0.008
MS.347         	3.922          	0.022
MS.348         	3.915          	0.018
MS.349         	3.908          	0.022
MS.350         	3.9            	0.02
MS.351         	3.892          	0.004
MS.352         	3.885          	0.018
MS.353         	3.877          	0.02
MS.354         	3.867          	0.006
MS.355         	3.86           	0.018
MS.356         	3.852          	0.02
MS.357         	3.845          	0.01
MS.358         	3.837          	0.008
MS.359         	3.83           	0.022
MS.360         	3.822          	0.01
MS.361         	3.815          	0.004
MS.362         	3.807          	0.028
MS.363         	3.8            	0.028
MS.364         	3.793          	0.000
MS.365         	3.785          	0.02
MS.366         	3.777          	0.008
MS.367         	3.77           	0.008
MS.368         	3.762          	0.004
MS.369         	3.755          	0.02
MS.370         	3.747          	0.004
MS.371         	3.74           	0.01
MS.372         	3.732          	0.002
MS.373         	3.725          	0.006
MS.374         	3.717          	0.008
MS.375         	3.71           	0.004
MS.376         	3.702          	0.008
MS.377         	3.695          	0.01
MS.378         	3.688          	0.01
MS.379         	3.68           	0.002
MS.380         	3.672          	0.002
MS.381         	3.665          	0.01
MS.382         	3.658          	0.008
MS.383         	3.65           	0.006
MS.384         	3.642          	0.01
MS.385         	3.635          	0.008
MS.386         	3.63           	0.01
MS.387         	3.622          	0.006
MS.388         	3.615          	0.004
MS.389         	3.607          	0.000
MS.390         	3.6            	0.01
MS.391         	3.592          	0.004
MS.392         	3.585          	0.008
MS.393         	3.577          	-0.002
MS.394         	3.57           	0.004
MS.395         	3.565          	0.008
MS.396         	3.557          	0.006
MS.397         	3.55           	0.002
MS.398         	3.543          	0.006
MS.399         	3.535          	0.006
MS.400         	3.527          	0.012
MS.401         	3.523          	0.008
MS.402         	3.515          	0.008
MS.403         	3.507          	0.01
DERIVED EXCITABILITY VARIABLES
Program = QTracP 3/4/2020
Threshold method = 6 (optimised for CAP, using data for present condition only)
SR method = 1 (using actual data values)
6.                 	0.000               	Peak response\(mV)
17.                	25                  	Age (years)
18.                	2                   	Sex (M=1, F=2)

EXTRA VARIABLES

MScPeak(mV) = 4.77
MScS5(mA) = 4.45
MScS50(mA) = 5.4
MScS95(mA) = 6.62
MScNSteps = 3
MScSteps(%) = 7.4
MScStepMax(%) = 3
MScD50 = 40
MScSlope = 6.77
MSFPeakAmp(mV) = 4.79
MSFNUnits = 54
MSFMeanUnitAmp(uV) = 88.7
MSFHuntTime(m) = 1.46
MSFError(%) = 3.64
MSFNLarge = 14.61
MSFMedianAmp(%) = 1.39
MSFMedianAmp(mV) = 0.0668
MSFHalfAmpAmp(%) = 1.93
MSFHalfAmpAmp(mV) = 0.0925
MSFLargestAmp(%) = 8.49
MSFLargestAmp(mV) = 0.406
MSFMeanRS(%) = 2
MSFOpts = 10106121
MScDuration(min) = 3.6
MSFTraces = 383
MSFSizeLimit(uV) = 17.7
MSFLimitType = 3
MSFSmallestAmp(uV) = 24.3

EXTRA WAVEFORMS


!MScan Model
!54
	1	4.09	0.51	2
	2	4.22	0.83	2
	3	4.37	1.59	2
	4	4.44	1.14	2
	5	4.52	1.7	2
	6	4.62	2.29	2
	7	4.68	1.1	2
	8	4.72	1.57	2
	9	4.75	1	2
	10	4.77	1.08	2
	11	4.79	0.88	2
	12	4.81	1.1	2
	13	4.83	1.21	2
	14	4.85	1.39	2
	15	4.88	1.91	2
	16	4.91	1.89	2
	17	4.94	1.82	2
	18	4.98	2.52	2
	19	5.03	2.98	2
	20	5.07	2.35	2
	21	5.1	1.49	2
	22	5.13	1.89	2
	23	5.16	1.93	2
	24	5.19	1.39	2
	25	5.21	1.37	2
	26	5.23	1.28	2
	27	5.25	1.1	2
	28	5.26	1.07	2
	29	5.28	1.03	2
	30	5.3	0.95	2
	31	5.31	0.95	2
	32	5.33	1.05	2
	33	5.35	1.28	2
	34	5.38	1.17	2
	35	5.4	1.43	2
	36	5.42	1.45	2
	37	5.45	1.48	2
	38	5.48	2.02	2
	39	5.52	2.48	2
	40	5.56	2.67	2
	41	5.59	3.04	2
	42	5.63	3.57	2
	43	5.69	8.49	2
	44	5.87	5.43	2
	45	5.87	1.36	2
	46	6.01	4.94	2
	47	6.27	2	2
	48	6.27	1.34	2
	49	6.61	4.05	2
	50	6.72	1.32	2
	51	6.8	0.97	2
	52	7.14	0.87	2
	53	7.23	1.06	1.9
	54	7.39	1.28	2.4

