File:              	C:\Qtrac\Data\Daniel M Sørensen\MScan multicentre study\Data from centres\Roskilde\Folders with NC-examinations\ROS_N1a\MBC00226A.QZD
Name:              	DK.ROS.NC.1.1
Protocol:          	MSCAN-R2
Date:              	26/2/20
Start time:        	14:49:47
Age:               	62
Sex:               	f
Temperature:       	36.8
S/R sites:         	Median Wr-APB
NC/disease:        	NC
Operator:          	MB
Comments:
M-SCAN DATA (9.6-5.1m)
Scanpts: 95, 101, 477, 498
Stim. (mA)     	Amp. (mV)
MS.1           	49.5           	6.328
MS.2           	49.5           	6.349
MS.3           	49.5           	6.324
MS.4           	49.5           	6.292
MS.5           	49.5           	6.312
MS.6           	49.5           	6.296
MS.7           	49.5           	6.308
MS.8           	49.5           	6.312
MS.9           	49.5           	6.274
MS.10          	49.5           	6.274
MS.11          	49.5           	6.308
MS.12          	49.5           	6.3
MS.13          	49.5           	6.308
MS.14          	49.5           	6.266
MS.15          	49.5           	6.246
MS.16          	49.5           	6.266
MS.17          	49.5           	6.308
MS.18          	49.5           	6.26
MS.19          	49.5           	6.276
MS.20          	49.5           	6.298
MS.21          	49.5           	6.379
MS.22          	49.5           	6.32
MS.23          	49.5           	6.274
MS.24          	49.302         	6.312
MS.25          	49.202         	6.322
MS.26          	49.105         	6.341
MS.27          	49.007         	6.316
MS.28          	48.91          	6.377
MS.29          	48.812         	6.355
MS.30          	48.715         	6.328
MS.31          	48.618         	6.308
MS.32          	48.52          	6.326
MS.33          	48.423         	6.337
MS.34          	48.325         	6.353
MS.35          	48.23          	6.355
MS.36          	48.132         	6.328
MS.37          	48.037         	6.335
MS.38          	47.94          	6.343
MS.39          	47.845         	6.363
MS.40          	47.75          	6.361
MS.41          	47.655         	6.385
MS.42          	47.56          	6.373
MS.43          	47.465         	6.409
MS.44          	47.37          	6.379
MS.45          	47.275         	6.391
MS.46          	47.18          	6.375
MS.47          	47.085         	6.361
MS.48          	46.993         	6.353
MS.49          	46.897         	6.369
MS.50          	46.805         	6.391
MS.51          	46.71          	6.399
MS.52          	46.618         	6.385
MS.53          	46.525         	6.393
MS.54          	46.43          	6.417
MS.55          	46.337         	6.401
MS.56          	46.245         	6.435
MS.57          	46.153         	6.405
MS.58          	46.06          	6.395
MS.59          	45.97          	6.397
MS.60          	45.877         	6.437
MS.61          	45.785         	6.413
MS.62          	45.695         	6.415
MS.63          	45.602         	6.437
MS.64          	45.513         	6.421
MS.65          	45.42          	6.427
MS.66          	45.33          	6.413
MS.67          	45.24          	6.447
MS.68          	45.15          	6.431
MS.69          	45.06          	6.451
MS.70          	44.97          	6.421
MS.71          	44.88          	6.447
MS.72          	44.79          	6.431
MS.73          	44.7           	6.427
MS.74          	44.61          	6.449
MS.75          	44.522         	6.423
MS.76          	44.432         	6.453
MS.77          	44.342         	6.447
MS.78          	44.255         	6.441
MS.79          	44.167         	6.421
MS.80          	44.077         	6.461
MS.81          	43.99          	6.455
MS.82          	43.903         	6.445
MS.83          	43.815         	6.48
MS.84          	43.728         	6.482
MS.85          	43.64          	6.465
MS.86          	43.552         	6.471
MS.87          	43.465         	6.453
MS.88          	43.377         	6.48
MS.89          	43.292         	6.48
MS.90          	43.205         	6.469
MS.91          	43.12          	6.441
MS.92          	43.032         	6.48
MS.93          	42.947         	6.451
MS.94          	42.862         	6.522
MS.95          	42.775         	6.486
MS.96          	42.69          	6.461
MS.97          	42.605         	6.496
MS.98          	42.52          	6.512
MS.99          	42.435         	6.478
MS.100         	42.35          	6.486
MS.101         	42.265         	6.502
MS.102         	42.18          	6.451
MS.103         	42.097         	6.476
MS.104         	42.013         	6.469
MS.105         	41.927         	6.474
MS.106         	41.845         	6.524
MS.107         	41.76          	6.486
MS.108         	41.677         	6.441
MS.109         	41.595         	6.431
MS.110         	41.513         	6.467
MS.111         	41.427         	6.445
MS.112         	41.345         	6.455
MS.113         	41.263         	6.528
MS.114         	41.18          	6.457
MS.115         	41.097         	6.496
MS.116         	41.017         	6.447
MS.117         	40.935         	6.433
MS.118         	40.853         	6.413
MS.119         	40.77          	6.498
MS.120         	40.69          	6.478
MS.121         	40.607         	6.478
MS.122         	40.528         	6.457
MS.123         	40.445         	6.514
MS.124         	40.365         	6.467
MS.125         	40.285         	6.445
MS.126         	40.205         	6.49
MS.127         	40.125         	6.494
MS.128         	40.042         	6.492
MS.129         	39.962         	6.474
MS.130         	39.882         	6.389
MS.131         	39.805         	6.441
MS.132         	39.725         	6.383
MS.133         	39.645         	6.379
MS.134         	39.565         	6.383
MS.135         	39.487         	6.385
MS.136         	39.407         	6.421
MS.137         	39.33          	6.391
MS.138         	39.25          	6.401
MS.139         	39.173         	6.345
MS.140         	39.095         	6.387
MS.141         	39.015         	6.407
MS.142         	38.938         	6.339
MS.143         	38.86          	6.353
MS.144         	38.782         	6.341
MS.145         	38.705         	6.304
MS.146         	38.627         	6.137
MS.147         	38.55          	6.202
MS.148         	38.472         	6.353
MS.149         	38.397         	6.165
MS.150         	38.32          	6.143
MS.151         	38.243         	6.111
MS.152         	38.167         	6.079
MS.153         	38.09          	6.02
MS.154         	38.015         	6.125
MS.155         	37.938         	6.139
MS.156         	37.862         	6.117
MS.157         	37.787         	6.149
MS.158         	37.712         	6.117
MS.159         	37.638         	6.055
MS.160         	37.56          	5.964
MS.161         	37.485         	5.952
MS.162         	37.41          	5.855
MS.163         	37.337         	6.02
MS.164         	37.263         	5.823
MS.165         	37.188         	5.811
MS.166         	37.112         	5.91
MS.167         	37.04          	5.71
MS.168         	36.965         	5.728
MS.169         	36.89          	5.736
MS.170         	36.818         	5.797
MS.171         	36.745         	5.859
MS.172         	36.67          	5.891
MS.173         	36.597         	5.871
MS.174         	36.525         	5.638
MS.175         	36.45          	5.72
MS.176         	36.377         	5.775
MS.177         	36.305         	5.452
MS.178         	36.232         	5.479
MS.179         	36.16          	5.686
MS.180         	36.087         	5.35
MS.181         	36.015         	5.485
MS.182         	35.945         	5.474
MS.183         	35.872         	5.555
MS.184         	35.8           	5.716
MS.185         	35.73          	5.458
MS.186         	35.657         	5.197
MS.187         	35.587         	5.16
MS.188         	35.515         	5.261
MS.189         	35.445         	5.265
MS.190         	35.372         	5.293
MS.191         	35.302         	5.16
MS.192         	35.232         	4.937
MS.193         	35.162         	5.094
MS.194         	35.092         	5.096
MS.195         	35.022         	4.943
MS.196         	34.952         	4.778
MS.197         	34.882         	4.731
MS.198         	34.812         	5.122
MS.199         	34.743         	4.941
MS.200         	34.673         	5.076
MS.201         	34.605         	5.17
MS.202         	34.535         	4.721
MS.203         	34.465         	4.659
MS.204         	34.397         	4.759
MS.205         	34.327         	4.679
MS.206         	34.26          	4.768
MS.207         	34.19          	4.514
MS.208         	34.122         	4.667
MS.209         	34.055         	4.707
MS.210         	33.987         	4.461
MS.211         	33.92          	4.647
MS.212         	33.85          	4.361
MS.213         	33.782         	4.256
MS.214         	33.715         	4.355
MS.215         	33.647         	4.097
MS.216         	33.583         	4.002
MS.217         	33.515         	3.791
MS.218         	33.447         	4.216
MS.219         	33.38          	4.236
MS.220         	33.312         	4.155
MS.221         	33.247         	3.851
MS.222         	33.18          	4.322
MS.223         	33.115         	3.924
MS.224         	33.048         	3.916
MS.225         	32.982         	3.67
MS.226         	32.917         	3.565
MS.227         	32.85          	3.462
MS.228         	32.785         	3.36
MS.229         	32.72          	3.623
MS.230         	32.655         	3.603
MS.231         	32.59          	3.541
MS.232         	32.522         	3.426
MS.233         	32.458         	3.72
MS.234         	32.395         	3.422
MS.235         	32.33          	3.205
MS.236         	32.265         	2.802
MS.237         	32.2           	3.178
MS.238         	32.135         	2.643
MS.239         	32.072         	2.951
MS.240         	32.007         	2.773
MS.241         	31.942         	2.854
MS.242         	31.88          	2.778
MS.243         	31.815         	2.618
MS.244         	31.752         	2.721
MS.245         	31.69          	2.296
MS.246         	31.625         	2.387
MS.247         	31.562         	2.554
MS.248         	31.5           	2.332
MS.249         	31.438         	2.159
MS.250         	31.372         	2.506
MS.251         	31.31          	2.175
MS.252         	31.247         	2.274
MS.253         	31.185         	1.988
MS.254         	31.122         	1.817
MS.255         	31.062         	2.089
MS.256         	31             	1.807
MS.257         	30.938         	1.948
MS.258         	30.875         	1.932
MS.259         	30.815         	1.899
MS.260         	30.752         	1.766
MS.261         	30.69          	1.803
MS.262         	30.63          	1.948
MS.263         	30.567         	1.726
MS.264         	30.507         	1.734
MS.265         	30.448         	1.726
MS.266         	30.385         	1.605
MS.267         	30.325         	1.652
MS.268         	30.265         	1.507
MS.269         	30.205         	1.567
MS.270         	30.142         	1.497
MS.271         	30.082         	1.499
MS.272         	30.022         	1.517
MS.273         	29.962         	1.337
MS.274         	29.903         	1.396
MS.275         	29.842         	1.408
MS.276         	29.785         	1.394
MS.277         	29.725         	1.204
MS.278         	29.665         	1.223
MS.279         	29.605         	1.088
MS.280         	29.547         	1.408
MS.281         	29.487         	1.358
MS.282         	29.427         	1.039
MS.283         	29.37          	1.106
MS.284         	29.31          	0.985
MS.285         	29.252         	0.816
MS.286         	29.195         	1.12
MS.287         	29.135         	0.9
MS.288         	29.077         	0.784
MS.289         	29.02          	0.812
MS.290         	28.962         	0.846
MS.291         	28.903         	0.856
MS.292         	28.845         	0.886
MS.293         	28.787         	0.872
MS.294         	28.73          	0.828
MS.295         	28.672         	0.83
MS.296         	28.615         	0.894
MS.297         	28.56          	0.832
MS.298         	28.502         	0.737
MS.299         	28.445         	0.667
MS.300         	28.387         	0.725
MS.301         	28.332         	0.665
MS.302         	28.275         	0.544
MS.303         	28.217         	0.461
MS.304         	28.162         	0.679
MS.305         	28.105         	0.524
MS.306         	28.05          	0.514
MS.307         	27.993         	0.504
MS.308         	27.938         	0.336
MS.309         	27.882         	0.435
MS.310         	27.825         	0.57
MS.311         	27.77          	0.409
MS.312         	27.715         	0.322
MS.313         	27.66          	0.361
MS.314         	27.605         	0.371
MS.315         	27.55          	0.238
MS.316         	27.495         	0.379
MS.317         	27.44          	0.274
MS.318         	27.385         	0.222
MS.319         	27.33          	0.165
MS.320         	27.275         	0.242
MS.321         	27.22          	0.383
MS.322         	27.165         	0.226
MS.323         	27.112         	0.308
MS.324         	27.057         	0.205
MS.325         	27.002         	0.228
MS.326         	26.95          	0.147
MS.327         	26.895         	0.242
MS.328         	26.842         	0.179
MS.329         	26.787         	0.165
MS.330         	26.735         	0.139
MS.331         	26.682         	0.189
MS.332         	26.627         	0.109
MS.333         	26.575         	0.107
MS.334         	26.522         	0.111
MS.335         	26.47          	0.199
MS.336         	26.415         	0.157
MS.337         	26.362         	0.103
MS.338         	26.31          	0.083
MS.339         	26.257         	0.127
MS.340         	26.205         	0.077
MS.341         	26.153         	0.113
MS.342         	26.1           	0.125
MS.343         	26.047         	0.068
MS.344         	25.997         	0.107
MS.345         	25.945         	0.127
MS.346         	25.892         	0.075
MS.347         	25.84          	0.075
MS.348         	25.79          	0.079
MS.349         	25.737         	0.091
MS.350         	25.688         	0.083
MS.351         	25.635         	0.056
MS.352         	25.585         	0.097
MS.353         	25.532         	0.05
MS.354         	25.483         	0.075
MS.355         	25.43          	0.06
MS.356         	25.38          	0.099
MS.357         	25.33          	0.058
MS.358         	25.28          	0.068
MS.359         	25.227         	0.058
MS.360         	25.177         	0.06
MS.361         	25.127         	0.06
MS.362         	25.077         	0.048
MS.363         	25.028         	0.058
MS.364         	24.977         	0.048
MS.365         	24.927         	0.062
MS.366         	24.877         	0.058
MS.367         	24.827         	0.062
MS.368         	24.778         	0.056
MS.369         	24.73          	0.044
MS.370         	24.68          	0.062
MS.371         	24.63          	0.038
MS.372         	24.58          	0.073
MS.373         	24.532         	0.064
MS.374         	24.483         	0.04
MS.375         	24.435         	0.04
MS.376         	24.385         	0.06
MS.377         	24.337         	0.038
MS.378         	24.288         	0.042
MS.379         	24.24          	0.042
MS.380         	24.19          	0.038
MS.381         	24.142         	0.04
MS.382         	24.095         	0.042
MS.383         	24.045         	0.036
MS.384         	23.997         	0.000
MS.385         	23.95          	-0.002
MS.386         	23.903         	0.042
MS.387         	23.855         	0.002
MS.388         	23.807         	0.036
MS.389         	23.76          	-0.004
MS.390         	23.712         	0.000
MS.391         	23.665         	0.042
MS.392         	23.618         	-0.004
MS.393         	23.57          	-0.002
MS.394         	23.522         	-0.004
MS.395         	23.475         	-0.002
MS.396         	23.43          	-0.004
MS.397         	23.382         	-0.004
MS.398         	23.335         	-0.002
MS.399         	23.288         	-0.002
MS.400         	23.243         	-0.002
MS.401         	23.195         	-0.002
MS.402         	23.15          	-0.002
MS.403         	23.102         	-0.002
MS.404         	23.057         	-0.002
MS.405         	23.01          	0.000
MS.406         	22.965         	-0.004
MS.407         	22.92          	-0.002
MS.408         	22.872         	-0.004
MS.409         	22.827         	-0.002
MS.410         	22.782         	-0.002
MS.411         	22.737         	-0.004
MS.412         	22.69          	-0.004
MS.413         	22.645         	-0.002
MS.414         	22.6           	-0.002
MS.415         	22.555         	-0.002
MS.416         	22.51          	-0.004
MS.417         	22.465         	-0.002
MS.418         	22.42          	-0.004
MS.419         	22.375         	-0.002
MS.420         	22.33          	-0.002
MS.421         	22.285         	-0.002
MS.422         	22.243         	-0.002
MS.423         	22.198         	-0.002
MS.424         	22.153         	-0.002
MS.425         	22.108         	0.000
MS.426         	22.065         	-0.002
MS.427         	22.02          	-0.002
MS.428         	21.977         	0.000
MS.429         	21.932         	-0.002
MS.430         	21.887         	0.002
MS.431         	21.845         	-0.002
MS.432         	21.802         	0.000
MS.433         	21.757         	0.000
MS.434         	21.715         	-0.004
MS.435         	21.67          	-0.002
MS.436         	21.627         	-0.004
MS.437         	21.585         	-0.002
MS.438         	21.54          	-0.002
MS.439         	21.497         	0.000
MS.440         	21.455         	0.000
MS.441         	21.413         	-0.002
MS.442         	21.37          	-0.002
MS.443         	21.327         	0.000
MS.444         	21.285         	-0.002
MS.445         	21.243         	0.000
MS.446         	21.2           	-0.004
MS.447         	21.157         	-0.002
MS.448         	21.115         	-0.004
MS.449         	21.073         	-0.004
MS.450         	21.03          	-0.004
MS.451         	20.987         	-0.002
MS.452         	20.948         	0.000
MS.453         	20.905         	0.000
MS.454         	20.862         	0.000
MS.455         	20.82          	0.000
MS.456         	20.78          	0.002
MS.457         	20.737         	0.002
MS.458         	20.698         	-0.002
MS.459         	20.655         	-0.002
MS.460         	20.615         	0.000
MS.461         	20.573         	0.000
MS.462         	20.532         	-0.002
MS.463         	20.49          	-0.002
MS.464         	20.45          	-0.002
MS.465         	20.41          	0.000
MS.466         	20.368         	-0.002
MS.467         	20.327         	0.002
MS.468         	20.288         	0.000
MS.469         	20.245         	-0.002
MS.470         	20.205         	0.002
MS.471         	20.165         	0.000
MS.472         	20.125         	0.000
MS.473         	20.085         	0.000
MS.474         	20.045         	0.000
MS.475         	20.005         	-0.002
MS.476         	19.965         	0.000
MS.477         	19.925         	-0.004
MS.478         	19.885         	-0.002
MS.479         	19.845         	0.000
MS.480         	19.805         	-0.002
MS.481         	19.765         	0.000
MS.482         	19.727         	-0.002
MS.483         	19.688         	-0.002
MS.484         	19.647         	0.000
MS.485         	19.608         	0.000
MS.486         	19.57          	-0.002
MS.487         	19.53          	0.002
MS.488         	19.493         	0.000
MS.489         	19.452         	-0.002
MS.490         	19.413         	0.000
MS.491         	19.375         	0.000
MS.492         	19.335         	-0.002
MS.493         	19.297         	-0.002
MS.494         	19.26          	-0.002
MS.495         	19.22          	0.000
MS.496         	19.182         	0.002
MS.497         	19.142         	-0.002
MS.498         	19.105         	0.000
DERIVED EXCITABILITY VARIABLES
Program = QTracP 3/4/2020
Threshold method = 6 (optimised for CAP, using data for present condition only)
SR method = 1 (using actual data values)
6.                 	0.000               	Peak response\(mV)
9.                 	36.8                	Temperature ( C)
17.                	62                  	Age (years)
18.                	2                   	Sex (M=1, F=2)

EXTRA VARIABLES

MScPeak(mV) = 6.3
MScS5(mA) = 27.4
MScS50(mA) = 32.24
MScS95(mA) = 37.42
MScNSteps = 2
MScSteps(%) = 4.6
MScStepMax(%) = 2.5
MScD50 = 36
MScSlope = 7.9
MSFPeakAmp(mV) = 6.49
MSFNUnits = 91
MSFMeanUnitAmp(uV) = 71.3
MSFHuntTime(m) = 1.82
MSFError(%) = 3.08
MSFNLarge = 25.54
MSFMedianAmp(%) = 0.963
MSFMedianAmp(mV) = 0.0625
MSFHalfAmpAmp(%) = 1.33
MSFHalfAmpAmp(mV) = 0.0866
MSFLargestAmp(%) = 4.04
MSFLargestAmp(mV) = 0.262
MSFMeanRS(%) = 2
MSFOpts = 10106121
MScDuration(min) = 4.5
MSFTraces = 404
MSFSizeLimit(uV) = 16.2
MSFLimitType = 1
MSFSmallestAmp(uV) = 17.7

EXTRA WAVEFORMS


!MScan Model
!91
	1	23.96	0.37	2
	2	24.45	0.39	2
	3	25.39	0.32	2
	4	25.89	0.34	2
	5	26.33	0.46	2
	6	26.63	0.51	2
	7	27.01	0.9	2
	8	27.31	1.14	2
	9	27.52	0.81	2
	10	27.7	0.91	2
	11	27.82	0.44	2
	12	27.93	0.67	2
	13	28.02	0.58	2
	14	28.11	0.74	2
	15	28.19	0.66	2
	16	28.3	0.73	2
	17	28.4	0.42	2
	18	28.67	1.7	2
	19	28.91	1.71	2
	20	29.11	1.1	2
	21	29.11	0.28	2
	22	29.26	0.95	2
	23	29.38	0.99	2
	24	29.49	0.64	2
	25	29.61	1.15	2
	26	29.71	1.01	2
	27	29.81	0.93	2
	28	29.87	0.52	2
	29	29.91	0.36	2
	30	29.96	0.38	2
	31	30	0.27	2
	32	30.04	0.27	2
	33	30.08	0.3	2
	34	30.13	0.41	2
	35	30.17	0.4	2
	36	30.22	0.42	2
	37	30.27	0.52	2
	38	30.33	0.5	2
	39	30.39	0.45	2
	40	30.44	0.48	2
	41	30.55	0.88	2
	42	30.66	0.96	2
	43	30.77	1.02	2
	44	30.89	1.16	2
	45	31.03	1.25	2
	46	31.12	0.84	2
	47	31.19	0.72	2
	48	31.27	0.85	2
	49	31.34	1.02	2
	50	31.41	0.95	2
	51	31.5	1.24	2
	52	31.61	1.07	2
	53	31.7	1.34	2
	54	31.78	1.05	2
	55	31.85	1.15	2
	56	31.93	1.48	2
	57	32.01	1.33	2
	58	32.09	1.47	2
	59	32.22	1.98	2
	60	32.36	1.77	2
	61	32.5	1.27	2
	62	32.5	0.85	2
	63	32.65	2.37	2
	64	32.93	4.04	2
	65	33.14	1.98	2
	66	33.32	1.94	2
	67	33.54	3.05	2
	68	33.72	2.05	2
	69	33.86	1.15	2
	70	34	1.48	2
	71	34.21	1.91	2
	72	34.21	0.48	2
	73	34.54	2.61	2
	74	34.89	2.48	2
	75	35.15	1.68	2
	76	35.35	1.4	2
	77	35.55	1.63	2
	78	35.75	1.57	2
	79	35.98	1.74	2
	80	36.29	2.24	2
	81	36.79	2.17	2
	82	37.08	1.47	2
	83	37.28	0.95	2
	84	37.6	0.86	2
	85	37.84	1.2	2
	86	38.09	0.91	2
	87	38.33	1.27	2
	88	38.64	0.7	2
	89	38.92	1.12	2
	90	39.36	1.15	2
	91	39.74	0.54	2

