File:              	C:\Qtrac\Data\Daniel M Sørensen\MScan multicentre study\Data from centres\Roskilde\Folders with NC-examinations\ROS_N1b\MBC00305B.QZD
Name:              	DK.ROS.NC.1.2
Protocol:          	MSCAN-R2
Date:              	5/3/20
Start time:        	14:51:51
Age:               	62
Sex:               	f
Temperature:       	39.9
S/R sites:         	Ulnar Wr-ADM
NC/disease:        	NC
Operator:          	MB
Comments:
M-SCAN DATA (7.6-1.6m)
Scanpts: 17, 22, 626, 633
Stim. (mA)     	Amp. (mV)
MS.1           	15             	9.555
MS.2           	15             	9.573
MS.3           	15             	9.553
MS.4           	15             	9.587
MS.5           	15             	9.604
MS.6           	15             	9.581
MS.7           	15             	9.571
MS.8           	15             	9.553
MS.9           	15             	9.587
MS.10          	15             	9.606
MS.11          	15             	9.595
MS.12          	15             	9.602
MS.13          	15             	9.614
MS.14          	15             	9.604
MS.15          	15             	9.61
MS.16          	15             	9.583
MS.17          	15             	9.614
MS.18          	15             	9.599
MS.19          	15             	9.599
MS.20          	15             	9.606
MS.21          	15             	9.616
MS.22          	15             	9.618
MS.23          	15             	9.618
MS.24          	14.94          	9.606
MS.25          	14.91          	9.618
MS.26          	14.88          	9.614
MS.27          	14.85          	9.642
MS.28          	14.82          	9.632
MS.29          	14.792         	9.632
MS.30          	14.762         	9.61
MS.31          	14.733         	9.616
MS.32          	14.702         	9.604
MS.33          	14.672         	9.602
MS.34          	14.645         	9.571
MS.35          	14.615         	9.602
MS.36          	14.585         	9.614
MS.37          	14.557         	9.599
MS.38          	14.527         	9.597
MS.39          	14.497         	9.595
MS.40          	14.47          	9.597
MS.41          	14.44          	9.602
MS.42          	14.412         	9.573
MS.43          	14.382         	9.561
MS.44          	14.355         	9.604
MS.45          	14.325         	9.543
MS.46          	14.297         	9.579
MS.47          	14.267         	9.565
MS.48          	14.24          	9.595
MS.49          	14.212         	9.577
MS.50          	14.182         	9.571
MS.51          	14.155         	9.575
MS.52          	14.127         	9.567
MS.53          	14.097         	9.545
MS.54          	14.07          	9.577
MS.55          	14.042         	9.595
MS.56          	14.015         	9.565
MS.57          	13.985         	9.563
MS.58          	13.957         	9.587
MS.59          	13.93          	9.573
MS.60          	13.903         	9.571
MS.61          	13.875         	9.581
MS.62          	13.847         	9.569
MS.63          	13.82          	9.549
MS.64          	13.792         	9.559
MS.65          	13.765         	9.531
MS.66          	13.737         	9.595
MS.67          	13.71          	9.579
MS.68          	13.682         	9.591
MS.69          	13.655         	9.553
MS.70          	13.627         	9.539
MS.71          	13.6           	9.567
MS.72          	13.572         	9.533
MS.73          	13.545         	9.557
MS.74          	13.517         	9.537
MS.75          	13.492         	9.565
MS.76          	13.465         	9.575
MS.77          	13.438         	9.573
MS.78          	13.41          	9.545
MS.79          	13.385         	9.577
MS.80          	13.358         	9.571
MS.81          	13.33          	9.567
MS.82          	13.305         	9.602
MS.83          	13.278         	9.547
MS.84          	13.25          	9.567
MS.85          	13.225         	9.569
MS.86          	13.197         	9.551
MS.87          	13.172         	9.541
MS.88          	13.145         	9.535
MS.89          	13.12          	9.549
MS.90          	13.092         	9.581
MS.91          	13.068         	9.509
MS.92          	13.04          	9.553
MS.93          	13.015         	9.557
MS.94          	12.987         	9.549
MS.95          	12.962         	9.549
MS.96          	12.938         	9.525
MS.97          	12.91          	9.551
MS.98          	12.885         	9.535
MS.99          	12.86          	9.525
MS.100         	12.832         	9.531
MS.101         	12.807         	9.469
MS.102         	12.782         	9.454
MS.103         	12.757         	9.454
MS.104         	12.73          	9.473
MS.105         	12.705         	9.456
MS.106         	12.68          	9.469
MS.107         	12.655         	9.483
MS.108         	12.63          	9.489
MS.109         	12.605         	9.487
MS.110         	12.58          	9.442
MS.111         	12.555         	9.422
MS.112         	12.53          	9.4
MS.113         	12.505         	9.428
MS.114         	12.48          	9.42
MS.115         	12.455         	9.414
MS.116         	12.43          	9.362
MS.117         	12.405         	9.374
MS.118         	12.38          	9.39
MS.119         	12.355         	9.301
MS.120         	12.33          	9.366
MS.121         	12.305         	9.303
MS.122         	12.28          	9.275
MS.123         	12.257         	9.305
MS.124         	12.233         	9.318
MS.125         	12.207         	9.295
MS.126         	12.182         	9.219
MS.127         	12.157         	9.279
MS.128         	12.135         	9.279
MS.129         	12.11          	9.263
MS.130         	12.085         	9.291
MS.131         	12.062         	9.223
MS.132         	12.037         	9.259
MS.133         	12.012         	9.195
MS.134         	11.99          	9.279
MS.135         	11.965         	9.243
MS.136         	11.943         	9.181
MS.137         	11.917         	9.231
MS.138         	11.895         	9.128
MS.139         	11.87          	9.136
MS.140         	11.847         	9.156
MS.141         	11.822         	9.164
MS.142         	11.8           	9.187
MS.143         	11.775         	9.118
MS.144         	11.752         	9.062
MS.145         	11.73          	9.126
MS.146         	11.705         	9.11
MS.147         	11.682         	9.104
MS.148         	11.657         	9.08
MS.149         	11.635         	9.042
MS.150         	11.613         	9.064
MS.151         	11.59          	9.009
MS.152         	11.565         	9.013
MS.153         	11.542         	9.034
MS.154         	11.52          	9.025
MS.155         	11.497         	8.997
MS.156         	11.472         	8.973
MS.157         	11.45          	8.963
MS.158         	11.427         	8.977
MS.159         	11.405         	8.959
MS.160         	11.382         	8.953
MS.161         	11.36          	8.923
MS.162         	11.337         	8.929
MS.163         	11.315         	8.925
MS.164         	11.292         	8.899
MS.165         	11.27          	8.921
MS.166         	11.247         	8.895
MS.167         	11.225         	8.824
MS.168         	11.202         	8.917
MS.169         	11.18          	8.925
MS.170         	11.157         	8.901
MS.171         	11.135         	8.872
MS.172         	11.113         	8.76
MS.173         	11.09          	8.854
MS.174         	11.068         	8.804
MS.175         	11.045         	8.758
MS.176         	11.023         	8.717
MS.177         	11.002         	8.693
MS.178         	10.98          	8.659
MS.179         	10.957         	8.691
MS.180         	10.935         	8.709
MS.181         	10.915         	8.631
MS.182         	10.892         	8.687
MS.183         	10.87          	8.598
MS.184         	10.847         	8.532
MS.185         	10.827         	8.671
MS.186         	10.805         	8.522
MS.187         	10.785         	8.556
MS.188         	10.762         	8.542
MS.189         	10.74          	8.613
MS.190         	10.72          	8.504
MS.191         	10.698         	8.538
MS.192         	10.677         	8.53
MS.193         	10.655         	8.457
MS.194         	10.635         	8.441
MS.195         	10.613         	8.5
MS.196         	10.592         	8.48
MS.197         	10.57          	8.453
MS.198         	10.55          	8.421
MS.199         	10.528         	8.451
MS.200         	10.507         	8.415
MS.201         	10.485         	8.361
MS.202         	10.465         	8.306
MS.203         	10.445         	8.276
MS.204         	10.422         	8.329
MS.205         	10.403         	8.363
MS.206         	10.382         	8.278
MS.207         	10.36          	8.308
MS.208         	10.34          	8.262
MS.209         	10.32          	8.218
MS.210         	10.3           	8.248
MS.211         	10.278         	8.214
MS.212         	10.257         	8.266
MS.213         	10.238         	8.19
MS.214         	10.217         	8.127
MS.215         	10.198         	8.145
MS.216         	10.175         	8.026
MS.217         	10.155         	8.141
MS.218         	10.135         	8.119
MS.219         	10.115         	8.061
MS.220         	10.095         	8.063
MS.221         	10.075         	8.085
MS.222         	10.055         	8.079
MS.223         	10.035         	8.041
MS.224         	10.015         	7.996
MS.225         	9.995          	7.992
MS.226         	9.975          	7.974
MS.227         	9.955          	7.926
MS.228         	9.935          	7.954
MS.229         	9.915          	7.916
MS.230         	9.895          	7.948
MS.231         	9.875          	7.948
MS.232         	9.855          	7.944
MS.233         	9.835          	7.877
MS.234         	9.818          	7.867
MS.235         	9.797          	7.912
MS.236         	9.778          	7.863
MS.237         	9.757          	7.898
MS.238         	9.738          	7.859
MS.239         	9.717          	7.857
MS.240         	9.7            	7.841
MS.241         	9.68           	7.837
MS.242         	9.66           	7.845
MS.243         	9.64           	7.795
MS.244         	9.622          	7.763
MS.245         	9.602          	7.775
MS.246         	9.582          	7.795
MS.247         	9.565          	7.807
MS.248         	9.545          	7.744
MS.249         	9.525          	7.71
MS.250         	9.507          	7.765
MS.251         	9.488          	7.773
MS.252         	9.47           	7.672
MS.253         	9.45           	7.618
MS.254         	9.432          	7.561
MS.255         	9.412          	7.656
MS.256         	9.395          	7.595
MS.257         	9.375          	7.573
MS.258         	9.358          	7.559
MS.259         	9.337          	7.505
MS.260         	9.32           	7.495
MS.261         	9.3            	7.44
MS.262         	9.283          	7.404
MS.263         	9.262          	7.362
MS.264         	9.245          	7.595
MS.265         	9.225          	7.531
MS.266         	9.207          	7.279
MS.267         	9.19           	7.481
MS.268         	9.17           	7.37
MS.269         	9.153          	7.378
MS.270         	9.135          	7.489
MS.271         	9.115          	7.378
MS.272         	9.097          	7.374
MS.273         	9.08           	7.462
MS.274         	9.062          	7.162
MS.275         	9.042          	7.309
MS.276         	9.025          	7.144
MS.277         	9.007          	7.265
MS.278         	8.99           	7.263
MS.279         	8.972          	7.277
MS.280         	8.952          	7.156
MS.281         	8.935          	6.983
MS.282         	8.917          	6.842
MS.283         	8.9            	6.983
MS.284         	8.882          	6.882
MS.285         	8.865          	6.971
MS.286         	8.847          	7.003
MS.287         	8.83           	6.882
MS.288         	8.812          	6.907
MS.289         	8.795          	6.876
MS.290         	8.775          	6.715
MS.291         	8.757          	6.719
MS.292         	8.74           	6.488
MS.293         	8.722          	6.582
MS.294         	8.707          	6.715
MS.295         	8.69           	6.449
MS.296         	8.672          	6.556
MS.297         	8.655          	6.564
MS.298         	8.637          	6.423
MS.299         	8.62           	6.463
MS.300         	8.602          	6.802
MS.301         	8.585          	6.276
MS.302         	8.568          	6.492
MS.303         	8.55           	6.065
MS.304         	8.535          	6.288
MS.305         	8.517          	6.399
MS.306         	8.5            	6.115
MS.307         	8.483          	6.024
MS.308         	8.465          	6.139
MS.309         	8.45           	5.877
MS.310         	8.432          	6.02
MS.311         	8.415          	6.044
MS.312         	8.398          	5.869
MS.313         	8.382          	5.934
MS.314         	8.365          	5.799
MS.315         	8.347          	5.887
MS.316         	8.332          	5.978
MS.317         	8.315          	5.936
MS.318         	8.297          	5.549
MS.319         	8.283          	5.617
MS.320         	8.265          	5.257
MS.321         	8.247          	5.819
MS.322         	8.233          	5.172
MS.323         	8.215          	5.42
MS.324         	8.2            	5.535
MS.325         	8.182          	5.41
MS.326         	8.167          	5.207
MS.327         	8.15           	5.233
MS.328         	8.135          	5.011
MS.329         	8.117          	4.991
MS.330         	8.102          	4.955
MS.331         	8.085          	4.892
MS.332         	8.07           	4.981
MS.333         	8.052          	4.826
MS.334         	8.037          	4.81
MS.335         	8.02           	4.808
MS.336         	8.005          	4.763
MS.337         	7.99           	4.753
MS.338         	7.972          	4.631
MS.339         	7.957          	4.612
MS.340         	7.94           	4.804
MS.341         	7.925          	4.526
MS.342         	7.91           	4.484
MS.343         	7.892          	4.52
MS.344         	7.878          	4.441
MS.345         	7.862          	4.397
MS.346         	7.847          	4.304
MS.347         	7.83           	4.345
MS.348         	7.815          	4.373
MS.349         	7.8            	4.29
MS.350         	7.785          	4.131
MS.351         	7.767          	4.159
MS.352         	7.753          	4.26
MS.353         	7.737          	4.272
MS.354         	7.722          	4.187
MS.355         	7.707          	4.334
MS.356         	7.69           	4.093
MS.357         	7.675          	3.97
MS.358         	7.66           	4.063
MS.359         	7.645          	4.059
MS.360         	7.63           	3.831
MS.361         	7.615          	4.048
MS.362         	7.6            	3.851
MS.363         	7.585          	3.773
MS.364         	7.57           	3.674
MS.365         	7.555          	3.63
MS.366         	7.537          	3.926
MS.367         	7.523          	3.791
MS.368         	7.507          	3.591
MS.369         	7.492          	3.523
MS.370         	7.477          	3.599
MS.371         	7.462          	3.489
MS.372         	7.447          	3.565
MS.373         	7.435          	3.68
MS.374         	7.42           	3.307
MS.375         	7.405          	3.446
MS.376         	7.39           	3.398
MS.377         	7.375          	3.305
MS.378         	7.36           	3.205
MS.379         	7.345          	3.17
MS.380         	7.33           	3.201
MS.381         	7.315          	2.971
MS.382         	7.302          	3.15
MS.383         	7.287          	3.178
MS.384         	7.273          	3.122
MS.385         	7.257          	3.094
MS.386         	7.242          	3.029
MS.387         	7.227          	3.001
MS.388         	7.215          	3.086
MS.389         	7.2            	3.142
MS.390         	7.185          	3.029
MS.391         	7.17           	2.929
MS.392         	7.157          	2.929
MS.393         	7.142          	2.983
MS.394         	7.128          	2.963
MS.395         	7.115          	2.866
MS.396         	7.1            	2.933
MS.397         	7.085          	2.882
MS.398         	7.072          	2.955
MS.399         	7.057          	2.584
MS.400         	7.043          	2.689
MS.401         	7.03           	2.818
MS.402         	7.015          	2.796
MS.403         	7              	2.552
MS.404         	6.987          	2.647
MS.405         	6.972          	2.467
MS.406         	6.96           	2.508
MS.407         	6.945          	2.524
MS.408         	6.932          	2.332
MS.409         	6.918          	2.534
MS.410         	6.902          	2.336
MS.411         	6.89           	2.431
MS.412         	6.875          	2.242
MS.413         	6.862          	2.258
MS.414         	6.847          	2.318
MS.415         	6.835          	2.201
MS.416         	6.822          	2.111
MS.417         	6.807          	2.073
MS.418         	6.795          	2.028
MS.419         	6.78           	2.056
MS.420         	6.767          	1.982
MS.421         	6.753          	2.06
MS.422         	6.74           	1.915
MS.423         	6.727          	1.93
MS.424         	6.712          	1.998
MS.425         	6.7            	1.956
MS.426         	6.685          	1.954
MS.427         	6.672          	2.012
MS.428         	6.66           	2.065
MS.429         	6.645          	1.903
MS.430         	6.632          	1.807
MS.431         	6.62           	1.877
MS.432         	6.608          	1.77
MS.433         	6.592          	1.783
MS.434         	6.58           	1.869
MS.435         	6.567          	1.621
MS.436         	6.555          	1.779
MS.437         	6.54           	1.752
MS.438         	6.527          	1.561
MS.439         	6.515          	1.41
MS.440         	6.503          	1.519
MS.441         	6.487          	1.482
MS.442         	6.475          	1.484
MS.443         	6.462          	1.482
MS.444         	6.45           	1.462
MS.445         	6.438          	1.577
MS.446         	6.425          	1.362
MS.447         	6.41           	1.559
MS.448         	6.398          	1.271
MS.449         	6.385          	1.434
MS.450         	6.372          	1.295
MS.451         	6.36           	1.311
MS.452         	6.347          	1.422
MS.453         	6.335          	1.398
MS.454         	6.322          	1.354
MS.455         	6.31           	1.243
MS.456         	6.297          	1.204
MS.457         	6.285          	1.158
MS.458         	6.273          	1.08
MS.459         	6.26           	1.188
MS.460         	6.247          	1.039
MS.461         	6.235          	1.146
MS.462         	6.222          	0.995
MS.463         	6.21           	1.031
MS.464         	6.197          	1.086
MS.465         	6.185          	1.027
MS.466         	6.172          	0.963
MS.467         	6.16           	0.878
MS.468         	6.148          	0.947
MS.469         	6.135          	0.882
MS.470         	6.122          	0.86
MS.471         	6.11           	0.91
MS.472         	6.097          	0.922
MS.473         	6.088          	0.904
MS.474         	6.075          	0.866
MS.475         	6.062          	0.8
MS.476         	6.05           	0.802
MS.477         	6.037          	0.822
MS.478         	6.025          	0.904
MS.479         	6.012          	0.856
MS.480         	6.003          	0.842
MS.481         	5.99           	0.81
MS.482         	5.977          	0.693
MS.483         	5.965          	0.773
MS.484         	5.955          	0.832
MS.485         	5.942          	0.856
MS.486         	5.93           	0.673
MS.487         	5.918          	0.733
MS.488         	5.907          	0.773
MS.489         	5.895          	0.715
MS.490         	5.882          	0.576
MS.491         	5.87           	0.691
MS.492         	5.86           	0.701
MS.493         	5.847          	0.634
MS.494         	5.835          	0.606
MS.495         	5.825          	0.604
MS.496         	5.812          	0.632
MS.497         	5.8            	0.516
MS.498         	5.79           	0.495
MS.499         	5.777          	0.461
MS.500         	5.767          	0.453
MS.501         	5.755          	0.596
MS.502         	5.742          	0.618
MS.503         	5.733          	0.562
MS.504         	5.72           	0.491
MS.505         	5.71           	0.556
MS.506         	5.697          	0.397
MS.507         	5.685          	0.393
MS.508         	5.675          	0.431
MS.509         	5.662          	0.455
MS.510         	5.652          	0.363
MS.511         	5.64           	0.363
MS.512         	5.63           	0.29
MS.513         	5.617          	0.338
MS.514         	5.608          	0.33
MS.515         	5.595          	0.268
MS.516         	5.585          	0.338
MS.517         	5.572          	0.369
MS.518         	5.562          	0.294
MS.519         	5.552          	0.278
MS.520         	5.54           	0.298
MS.521         	5.53           	0.284
MS.522         	5.517          	0.306
MS.523         	5.507          	0.26
MS.524         	5.495          	0.169
MS.525         	5.485          	0.292
MS.526         	5.475          	0.201
MS.527         	5.463          	0.254
MS.528         	5.452          	0.244
MS.529         	5.443          	0.244
MS.530         	5.43           	0.173
MS.531         	5.42           	0.256
MS.532         	5.41           	0.232
MS.533         	5.398          	0.25
MS.534         	5.387          	0.27
MS.535         	5.378          	0.149
MS.536         	5.365          	0.157
MS.537         	5.355          	0.115
MS.538         	5.345          	0.246
MS.539         	5.332          	0.123
MS.540         	5.322          	0.248
MS.541         	5.312          	0.123
MS.542         	5.302          	0.125
MS.543         	5.29           	0.111
MS.544         	5.28           	0.145
MS.545         	5.27           	0.131
MS.546         	5.26           	0.099
MS.547         	5.25           	0.129
MS.548         	5.237          	0.117
MS.549         	5.227          	0.107
MS.550         	5.217          	0.091
MS.551         	5.207          	0.083
MS.552         	5.197          	0.119
MS.553         	5.188          	0.075
MS.554         	5.175          	0.117
MS.555         	5.165          	0.024
MS.556         	5.155          	0.087
MS.557         	5.145          	0.087
MS.558         	5.135          	0.077
MS.559         	5.125          	0.093
MS.560         	5.115          	0.024
MS.561         	5.105          	0.028
MS.562         	5.095          	0.07
MS.563         	5.082          	0.07
MS.564         	5.072          	0.056
MS.565         	5.062          	0.036
MS.566         	5.052          	0.026
MS.567         	5.043          	0.028
MS.568         	5.032          	0.024
MS.569         	5.023          	0.026
MS.570         	5.012          	0.075
MS.571         	5.003          	0.032
MS.572         	4.992          	0.073
MS.573         	4.983          	0.03
MS.574         	4.972          	0.038
MS.575         	4.963          	0.022
MS.576         	4.952          	0.046
MS.577         	4.943          	0.038
MS.578         	4.932          	0.026
MS.579         	4.922          	0.028
MS.580         	4.915          	0.024
MS.581         	4.905          	0.03
MS.582         	4.895          	0.02
MS.583         	4.885          	0.022
MS.584         	4.875          	0.02
MS.585         	4.865          	0.022
MS.586         	4.855          	0.024
MS.587         	4.845          	0.02
MS.588         	4.835          	0.014
MS.589         	4.825          	0.018
MS.590         	4.818          	0.02
MS.591         	4.807          	0.02
MS.592         	4.797          	0.018
MS.593         	4.787          	0.022
MS.594         	4.777          	0.018
MS.595         	4.767          	0.018
MS.596         	4.76           	0.018
MS.597         	4.75           	0.022
MS.598         	4.74           	0.02
MS.599         	4.73           	0.022
MS.600         	4.72           	0.02
MS.601         	4.713          	0.018
MS.602         	4.702          	0.024
MS.603         	4.693          	0.054
MS.604         	4.682          	0.02
MS.605         	4.675          	0.016
MS.606         	4.665          	0.02
MS.607         	4.655          	0.026
MS.608         	4.645          	0.018
MS.609         	4.637          	0.018
MS.610         	4.628          	0.018
MS.611         	4.617          	0.02
MS.612         	4.61           	0.024
MS.613         	4.6            	0.03
MS.614         	4.59           	0.02
MS.615         	4.582          	0.028
MS.616         	4.572          	0.02
MS.617         	4.562          	0.026
MS.618         	4.555          	0.022
MS.619         	4.545          	0.024
MS.620         	4.535          	0.02
MS.621         	4.527          	0.022
MS.622         	4.517          	0.016
MS.623         	4.51           	0.022
MS.624         	4.5            	0.018
MS.625         	4.49           	0.022
MS.626         	4.483          	0.022
MS.627         	4.472          	0.032
MS.628         	4.465          	0.028
MS.629         	4.455          	0.018
MS.630         	4.445          	0.02
MS.631         	4.438          	0.02
MS.632         	4.427          	0.02
MS.633         	4.42           	0.02
MS.634         	4.41           	0.018
MS.635         	4.402          	0.02
MS.636         	4.392          	0.012
MS.637         	4.385          	0.022
MS.638         	4.375          	0.022
MS.639         	4.367          	0.02
MS.640         	4.358          	0.016
MS.641         	4.35           	0.028
MS.642         	4.34           	0.024
DERIVED EXCITABILITY VARIABLES
Program = QTracP 3/4/2020
Threshold method = 6 (optimised for CAP, using data for present condition only)
SR method = 1 (using actual data values)
6.                 	0.000               	Peak response\(mV)
9.                 	39.9                	Temperature ( C)
17.                	62                  	Age (years)
18.                	2                   	Sex (M=1, F=2)

EXTRA VARIABLES

MScPeak(mV) = 9.57
MScS5(mA) = 5.75
MScS50(mA) = 7.96
MScS95(mA) = 11.73
MScNSteps = 0
MScSteps(%) = 0.0
MScStepMax(%) = 0.0
MScD50 = 73
MScSlope = 3.77
MSFPeakAmp(mV) = 9.59
MSFNUnits = 165
MSFMeanUnitAmp(uV) = 58.1
MSFHuntTime(m) = 3.65
MSFError(%) = 3.16
MSFNLarge = 53.28
MSFMedianAmp(%) = 0.526
MSFMedianAmp(mV) = 0.0504
MSFHalfAmpAmp(%) = 0.682
MSFHalfAmpAmp(mV) = 0.0654
MSFLargestAmp(%) = 1.66
MSFLargestAmp(mV) = 0.159
MSFMeanRS(%) = 2
MSFOpts = 10106121
MScDuration(min) = 6
MSFTraces = 617
MSFSizeLimit(uV) = 24
MSFLimitType = 1
MSFSmallestAmp(uV) = 24

EXTRA WAVEFORMS


!MScan Model
!165
	1	5.13	0.45	2
	2	5.23	0.41	2
	3	5.31	0.4	2
	4	5.42	0.73	2
	5	5.53	0.74	2
	6	5.58	0.4	2
	7	5.62	0.53	2
	8	5.67	0.44	2
	9	5.71	0.47	2
	10	5.75	0.51	2
	11	5.8	0.64	2
	12	5.85	0.7	2
	13	5.9	0.6	2
	14	5.94	0.45	2
	15	6.01	0.71	2
	16	6.07	0.74	2
	17	6.11	0.38	2
	18	6.14	0.36	2
	19	6.16	0.36	2
	20	6.19	0.46	2
	21	6.21	0.42	2
	22	6.24	0.44	2
	23	6.27	0.51	2
	24	6.3	0.52	2
	25	6.33	0.58	2
	26	6.37	0.78	2
	27	6.41	0.84	2
	28	6.46	0.87	2
	29	6.5	0.9	2
	30	6.54	0.72	2
	31	6.58	0.67	2
	32	6.62	0.78	2
	33	6.66	1.01	2
	34	6.7	0.74	2
	35	6.73	0.61	2
	36	6.76	0.62	2
	37	6.79	0.52	2
	38	6.81	0.55	2
	39	6.84	0.61	2
	40	6.86	0.43	2
	41	6.88	0.41	2
	42	6.9	0.47	2
	43	6.92	0.55	2
	44	6.94	0.52	2
	45	6.96	0.5	2
	46	6.98	0.5	2
	47	7.03	0.6	2
	48	7.06	0.76	2
	49	7.14	1.42	2
	50	7.14	0.61	2
	51	7.22	1.63	2
	52	7.28	1.08	2
	53	7.31	0.61	2
	54	7.34	0.71	2
	55	7.37	0.55	2
	56	7.4	0.6	2
	57	7.43	0.66	2
	58	7.46	0.63	2
	59	7.49	0.68	2
	60	7.51	0.75	2
	61	7.54	0.76	2
	62	7.57	0.73	2
	63	7.6	0.88	2
	64	7.64	0.77	2
	65	7.67	0.73	2
	66	7.7	0.71	2
	67	7.73	0.67	2
	68	7.76	0.62	2
	69	7.78	0.62	2
	70	7.81	0.52	2
	71	7.83	0.53	2
	72	7.85	0.53	2
	73	7.88	0.51	2
	74	7.89	0.36	2
	75	7.91	0.38	2
	76	7.93	0.4	2
	77	7.95	0.48	2
	78	7.97	0.61	2
	79	8	0.69	2
	80	8.02	0.77	2
	81	8.05	0.75	2
	82	8.08	0.89	2
	83	8.11	1.12	2
	84	8.13	0.8	2
	85	8.16	0.79	2
	86	8.19	0.81	2
	87	8.22	0.89	2
	88	8.25	0.92	2
	89	8.28	1.09	2
	90	8.32	1.27	2
	91	8.38	1.66	2
	92	8.44	1.66	2
	93	8.49	1.43	2
	94	8.54	0.95	2
	95	8.58	0.95	2
	96	8.63	1.09	2
	97	8.68	1.11	2
	98	8.73	1.18	2
	99	8.78	1.05	2
	100	8.81	0.55	2
	101	8.84	0.54	2
	102	8.87	0.68	2
	103	8.91	0.73	2
	104	8.94	0.68	2
	105	9	0.85	2
	106	9.08	1.56	2
	107	9.19	1.16	2
	108	9.3	1.08	2
	109	9.36	0.53	2
	110	9.41	0.44	2
	111	9.45	0.38	2
	112	9.5	0.37	2
	113	9.53	0.32	2
	114	9.59	0.51	2
	115	9.64	0.38	2
	116	9.69	0.31	2
	117	9.76	0.43	2
	118	9.82	0.4	2
	119	9.86	0.25	2
	120	9.91	0.28	2
	121	9.97	0.4	2
	122	10.02	0.3	2
	123	10.06	0.32	2
	124	10.11	0.36	2
	125	10.17	0.38	2
	126	10.21	0.39	2
	127	10.26	0.52	2
	128	10.34	0.49	2
	129	10.39	0.5	2
	130	10.47	0.53	2
	131	10.52	0.42	2
	132	10.56	0.27	2
	133	10.6	0.26	2
	134	10.64	0.3	2
	135	10.68	0.29	2
	136	10.73	0.3	2
	137	10.77	0.34	2
	138	10.81	0.33	2
	139	10.86	0.28	2
	140	10.9	0.31	2
	141	10.94	0.34	2
	142	10.99	0.32	2
	143	11.03	0.3	2
	144	11.07	0.28	2
	145	11.16	0.52	2
	146	11.2	0.32	2
	147	11.25	0.27	2
	148	11.32	0.45	2
	149	11.39	0.45	2
	150	11.5	0.42	2
	151	11.61	0.46	2
	152	11.68	0.34	2
	153	11.76	0.39	2
	154	11.84	0.39	2
	155	11.91	0.28	2
	156	11.99	0.29	2
	157	12.07	0.32	2
	158	12.14	0.3	2
	159	12.27	0.53	2
	160	12.33	0.25	2
	161	12.44	0.44	2
	162	12.62	0.68	2
	163	12.81	0.45	2
	164	13.03	0.39	2
	165	14.4	0.55	2

