File:              	C:\Qtrac\Data\Daniel M Sørensen\MScan multicentre study\Data from centres\Roskilde\Folders with NC-examinations\ROS_N8b\MBC00605A.QZD
Name:              	DK.ROS.NC.8.2
Protocol:          	MSCAN-R2
Date:              	5/6/20
Start time:        	10:19:05
Age:               	52
Sex:               	F
Temperature:       	35,7
S/R sites:         	Median Wr-APB
NC/disease:        	NC
Operator:          	tr
Comments:
M-SCAN DATA (Repeat 2/2, 21.5-12.4m)
Scanpts: 68, 78, 840, 874
Stim. (mA)     	Amp. (mV)
MS.1           	13.5           	10.514
MS.2           	13.5           	10.512
MS.3           	13.5           	10.56
MS.4           	13.5           	10.534
MS.5           	13.5           	10.526
MS.6           	13.5           	10.528
MS.7           	13.5           	10.526
MS.8           	13.5           	10.56
MS.9           	13.5           	10.574
MS.10          	13.5           	10.566
MS.11          	13.5           	10.574
MS.12          	13.5           	10.566
MS.13          	13.5           	10.564
MS.14          	13.5           	10.554
MS.15          	13.5           	10.546
MS.16          	13.5           	10.546
MS.17          	13.5           	10.556
MS.18          	13.5           	10.538
MS.19          	13.5           	10.548
MS.20          	13.5           	10.558
MS.21          	13.5           	10.544
MS.22          	13.5           	10.596
MS.23          	13.5           	10.554
MS.24          	13.472         	10.576
MS.25          	13.445         	10.58
MS.26          	13.42          	10.558
MS.27          	13.392         	10.572
MS.28          	13.365         	10.57
MS.29          	13.34          	10.55
MS.30          	13.312         	10.572
MS.31          	13.285         	10.558
MS.32          	13.26          	10.55
MS.33          	13.233         	10.566
MS.34          	13.205         	10.554
MS.35          	13.18          	10.546
MS.36          	13.153         	10.558
MS.37          	13.127         	10.548
MS.38          	13.1           	10.53
MS.39          	13.075         	10.554
MS.40          	13.047         	10.542
MS.41          	13.023         	10.536
MS.42          	12.997         	10.558
MS.43          	12.97          	10.55
MS.44          	12.945         	10.554
MS.45          	12.92          	10.566
MS.46          	12.892         	10.554
MS.47          	12.867         	10.568
MS.48          	12.842         	10.562
MS.49          	12.815         	10.558
MS.50          	12.79          	10.572
MS.51          	12.765         	10.552
MS.52          	12.74          	10.566
MS.53          	12.715         	10.56
MS.54          	12.688         	10.546
MS.55          	12.662         	10.558
MS.56          	12.637         	10.558
MS.57          	12.613         	10.548
MS.58          	12.587         	10.566
MS.59          	12.562         	10.566
MS.60          	12.537         	10.558
MS.61          	12.512         	10.586
MS.62          	12.488         	10.601
MS.63          	12.462         	10.609
MS.64          	12.438         	10.623
MS.65          	12.412         	10.601
MS.66          	12.387         	10.617
MS.67          	12.363         	10.605
MS.68          	12.337         	10.592
MS.69          	12.312         	10.613
MS.70          	12.29          	10.607
MS.71          	12.265         	10.603
MS.72          	12.24          	10.615
MS.73          	12.215         	10.615
MS.74          	12.19          	10.633
MS.75          	12.167         	10.609
MS.76          	12.142         	10.623
MS.77          	12.117         	10.629
MS.78          	12.095         	10.611
MS.79          	12.07          	10.627
MS.80          	12.045         	10.617
MS.81          	12.023         	10.611
MS.82          	11.997         	10.615
MS.83          	11.972         	10.609
MS.84          	11.95          	10.596
MS.85          	11.925         	10.605
MS.86          	11.903         	10.599
MS.87          	11.877         	10.594
MS.88          	11.855         	10.599
MS.89          	11.83          	10.58
MS.90          	11.807         	10.586
MS.91          	11.782         	10.582
MS.92          	11.76          	10.572
MS.93          	11.738         	10.601
MS.94          	11.712         	10.578
MS.95          	11.69          	10.58
MS.96          	11.665         	10.588
MS.97          	11.642         	10.572
MS.98          	11.62          	10.582
MS.99          	11.597         	10.59
MS.100         	11.572         	10.57
MS.101         	11.55          	10.582
MS.102         	11.528         	10.58
MS.103         	11.505         	10.572
MS.104         	11.48          	10.592
MS.105         	11.457         	10.58
MS.106         	11.435         	10.562
MS.107         	11.412         	10.568
MS.108         	11.39          	10.56
MS.109         	11.367         	10.558
MS.110         	11.345         	10.568
MS.111         	11.322         	10.552
MS.112         	11.297         	10.556
MS.113         	11.275         	10.556
MS.114         	11.252         	10.544
MS.115         	11.23          	10.558
MS.116         	11.207         	10.544
MS.117         	11.188         	10.546
MS.118         	11.165         	10.558
MS.119         	11.142         	10.548
MS.120         	11.12          	10.548
MS.121         	11.097         	10.554
MS.122         	11.075         	10.536
MS.123         	11.052         	10.554
MS.124         	11.03          	10.562
MS.125         	11.007         	10.542
MS.126         	10.988         	10.55
MS.127         	10.965         	10.552
MS.128         	10.943         	10.542
MS.129         	10.92          	10.546
MS.130         	10.9           	10.534
MS.131         	10.877         	10.53
MS.132         	10.855         	10.546
MS.133         	10.835         	10.522
MS.134         	10.812         	10.51
MS.135         	10.79          	10.524
MS.136         	10.77          	10.514
MS.137         	10.747         	10.504
MS.138         	10.725         	10.52
MS.139         	10.705         	10.514
MS.140         	10.682         	10.51
MS.141         	10.662         	10.52
MS.142         	10.64          	10.51
MS.143         	10.62          	10.522
MS.144         	10.597         	10.514
MS.145         	10.577         	10.504
MS.146         	10.555         	10.516
MS.147         	10.535         	10.494
MS.148         	10.515         	10.488
MS.149         	10.492         	10.506
MS.150         	10.472         	10.508
MS.151         	10.45          	10.514
MS.152         	10.43          	10.548
MS.153         	10.41          	10.526
MS.154         	10.387         	10.518
MS.155         	10.367         	10.532
MS.156         	10.347         	10.53
MS.157         	10.327         	10.526
MS.158         	10.305         	10.55
MS.159         	10.285         	10.54
MS.160         	10.265         	10.532
MS.161         	10.245         	10.464
MS.162         	10.222         	10.451
MS.163         	10.202         	10.538
MS.164         	10.182         	10.46
MS.165         	10.162         	10.456
MS.166         	10.142         	10.538
MS.167         	10.122         	10.371
MS.168         	10.102         	10.417
MS.169         	10.082         	10.439
MS.170         	10.06          	10.427
MS.171         	10.04          	10.343
MS.172         	10.02          	10.415
MS.173         	10             	10.341
MS.174         	9.98           	10.411
MS.175         	9.96           	10.333
MS.176         	9.94           	10.341
MS.177         	9.922          	10.341
MS.178         	9.903          	10.345
MS.179         	9.882          	10.349
MS.180         	9.863          	10.419
MS.181         	9.842          	10.353
MS.182         	9.823          	10.347
MS.183         	9.802          	10.339
MS.184         	9.782          	10.353
MS.185         	9.765          	10.339
MS.186         	9.745          	10.327
MS.187         	9.725          	10.341
MS.188         	9.705          	10.327
MS.189         	9.685          	10.31
MS.190         	9.667          	10.323
MS.191         	9.648          	10.319
MS.192         	9.627          	10.298
MS.193         	9.61           	10.321
MS.194         	9.59           	10.321
MS.195         	9.57           	10.302
MS.196         	9.552          	10.31
MS.197         	9.532          	10.308
MS.198         	9.512          	10.3
MS.199         	9.495          	10.323
MS.200         	9.475          	10.188
MS.201         	9.457          	10.182
MS.202         	9.438          	10.312
MS.203         	9.417          	10.165
MS.204         	9.4            	10.29
MS.205         	9.38           	10.174
MS.206         	9.363          	10.165
MS.207         	9.342          	10.163
MS.208         	9.325          	10.172
MS.209         	9.307          	10.159
MS.210         	9.287          	10.161
MS.211         	9.27           	10.139
MS.212         	9.25           	10.031
MS.213         	9.233          	10.111
MS.214         	9.212          	10.143
MS.215         	9.195          	10.103
MS.216         	9.177          	10.123
MS.217         	9.158          	10.051
MS.218         	9.14           	10.099
MS.219         	9.122          	10.063
MS.220         	9.105          	10.101
MS.221         	9.085          	10.091
MS.222         	9.068          	10.049
MS.223         	9.05           	10.089
MS.224         	9.03           	10.043
MS.225         	9.012          	10.089
MS.226         	8.995          	10.085
MS.227         	8.977          	9.944
MS.228         	8.96           	10.037
MS.229         	8.943          	9.956
MS.230         	8.922          	9.946
MS.231         	8.905          	10.033
MS.232         	8.887          	10.022
MS.233         	8.87           	9.93
MS.234         	8.852          	9.918
MS.235         	8.835          	9.908
MS.236         	8.818          	10.055
MS.237         	8.8            	9.954
MS.238         	8.783          	9.914
MS.239         	8.765          	9.95
MS.240         	8.747          	9.908
MS.241         	8.73           	9.958
MS.242         	8.712          	9.92
MS.243         	8.695          	9.906
MS.244         	8.677          	9.863
MS.245         	8.66           	9.964
MS.246         	8.642          	9.924
MS.247         	8.625          	9.922
MS.248         	8.608          	9.916
MS.249         	8.59           	9.974
MS.250         	8.573          	9.92
MS.251         	8.557          	9.946
MS.252         	8.54           	9.982
MS.253         	8.523          	9.932
MS.254         	8.505          	9.984
MS.255         	8.488          	9.908
MS.256         	8.472          	9.843
MS.257         	8.455          	9.847
MS.258         	8.438          	9.865
MS.259         	8.42           	9.962
MS.260         	8.405          	9.914
MS.261         	8.387          	9.94
MS.262         	8.37           	9.956
MS.263         	8.352          	9.948
MS.264         	8.337          	9.944
MS.265         	8.32           	9.95
MS.266         	8.302          	9.986
MS.267         	8.287          	9.918
MS.268         	8.27           	9.904
MS.269         	8.255          	10.002
MS.270         	8.238          	9.954
MS.271         	8.22           	9.934
MS.272         	8.205          	9.908
MS.273         	8.188          	9.928
MS.274         	8.172          	9.773
MS.275         	8.155          	9.916
MS.276         	8.14           	9.908
MS.277         	8.122          	9.9
MS.278         	8.108          	9.718
MS.279         	8.09           	9.873
MS.280         	8.075          	9.807
MS.281         	8.057          	9.753
MS.282         	8.042          	9.815
MS.283         	8.025          	9.867
MS.284         	8.01           	9.74
MS.285         	7.995          	9.66
MS.286         	7.977          	9.745
MS.287         	7.962          	9.726
MS.288         	7.945          	9.704
MS.289         	7.93           	9.692
MS.290         	7.915          	9.674
MS.291         	7.898          	9.638
MS.292         	7.882          	9.682
MS.293         	7.867          	9.642
MS.294         	7.852          	9.62
MS.295         	7.835          	9.64
MS.296         	7.82           	9.652
MS.297         	7.805          	9.648
MS.298         	7.79           	9.704
MS.299         	7.773          	9.708
MS.300         	7.757          	9.696
MS.301         	7.742          	9.753
MS.302         	7.727          	9.726
MS.303         	7.712          	9.72
MS.304         	7.695          	9.716
MS.305         	7.68           	9.706
MS.306         	7.665          	9.68
MS.307         	7.65           	9.7
MS.308         	7.635          	9.674
MS.309         	7.62           	9.672
MS.310         	7.605          	9.694
MS.311         	7.59           	9.684
MS.312         	7.575          	9.67
MS.313         	7.557          	9.692
MS.314         	7.543          	9.682
MS.315         	7.527          	9.674
MS.316         	7.512          	9.712
MS.317         	7.497          	9.694
MS.318         	7.482          	9.708
MS.319         	7.467          	9.684
MS.320         	7.452          	9.676
MS.321         	7.438          	9.65
MS.322         	7.425          	9.678
MS.323         	7.41           	9.622
MS.324         	7.395          	9.644
MS.325         	7.38           	9.656
MS.326         	7.365          	9.656
MS.327         	7.35           	9.632
MS.328         	7.335          	9.624
MS.329         	7.32           	9.654
MS.330         	7.305          	9.658
MS.331         	7.293          	9.61
MS.332         	7.277          	9.602
MS.333         	7.262          	9.608
MS.334         	7.247          	9.591
MS.335         	7.233          	9.585
MS.336         	7.22           	9.602
MS.337         	7.205          	9.583
MS.338         	7.19           	9.595
MS.339         	7.175          	9.581
MS.340         	7.162          	9.579
MS.341         	7.148          	9.593
MS.342         	7.132          	9.577
MS.343         	7.117          	9.579
MS.344         	7.105          	9.587
MS.345         	7.09           	9.581
MS.346         	7.075          	9.585
MS.347         	7.062          	9.591
MS.348         	7.047          	9.573
MS.349         	7.032          	9.563
MS.350         	7.02           	9.575
MS.351         	7.005          	9.577
MS.352         	6.992          	9.595
MS.353         	6.977          	9.616
MS.354         	6.962          	9.591
MS.355         	6.95           	9.61
MS.356         	6.935          	9.622
MS.357         	6.922          	9.595
MS.358         	6.907          	9.599
MS.359         	6.895          	9.599
MS.360         	6.88           	9.567
MS.361         	6.867          	9.575
MS.362         	6.852          	9.567
MS.363         	6.84           	9.561
MS.364         	6.825          	9.573
MS.365         	6.812          	9.567
MS.366         	6.797          	9.563
MS.367         	6.785          	9.575
MS.368         	6.773          	9.557
MS.369         	6.757          	9.553
MS.370         	6.745          	9.555
MS.371         	6.73           	9.543
MS.372         	6.717          	9.545
MS.373         	6.705          	9.527
MS.374         	6.69           	9.525
MS.375         	6.677          	9.549
MS.376         	6.665          	9.539
MS.377         	6.65           	9.521
MS.378         	6.637          	9.545
MS.379         	6.625          	9.529
MS.380         	6.61           	9.525
MS.381         	6.597          	9.547
MS.382         	6.585          	9.529
MS.383         	6.57           	9.531
MS.384         	6.557          	9.569
MS.385         	6.545          	9.521
MS.386         	6.532          	9.515
MS.387         	6.52           	9.523
MS.388         	6.505          	9.515
MS.389         	6.492          	9.549
MS.390         	6.48           	9.519
MS.391         	6.467          	9.479
MS.392         	6.455          	9.501
MS.393         	6.44           	9.487
MS.394         	6.427          	9.525
MS.395         	6.415          	9.565
MS.396         	6.402          	9.505
MS.397         	6.39           	9.529
MS.398         	6.378          	9.517
MS.399         	6.365          	9.422
MS.400         	6.352          	9.471
MS.401         	6.34           	9.495
MS.402         	6.325          	9.497
MS.403         	6.312          	9.463
MS.404         	6.3            	9.416
MS.405         	6.287          	9.477
MS.406         	6.275          	9.495
MS.407         	6.262          	9.491
MS.408         	6.25           	9.384
MS.409         	6.237          	9.501
MS.410         	6.225          	9.493
MS.411         	6.213          	9.426
MS.412         	6.2            	9.414
MS.413         	6.188          	9.422
MS.414         	6.175          	9.418
MS.415         	6.165          	9.467
MS.416         	6.152          	9.493
MS.417         	6.14           	9.485
MS.418         	6.128          	9.481
MS.419         	6.115          	9.416
MS.420         	6.102          	9.402
MS.421         	6.09           	9.4
MS.422         	6.077          	9.418
MS.423         	6.065          	9.404
MS.424         	6.055          	9.402
MS.425         	6.043          	9.414
MS.426         	6.03           	9.388
MS.427         	6.017          	9.404
MS.428         	6.005          	9.408
MS.429         	5.992          	9.392
MS.430         	5.983          	9.412
MS.431         	5.97           	9.394
MS.432         	5.957          	9.384
MS.433         	5.945          	9.398
MS.434         	5.935          	9.384
MS.435         	5.922          	9.368
MS.436         	5.91           	9.388
MS.437         	5.898          	9.372
MS.438         	5.887          	9.364
MS.439         	5.875          	9.372
MS.440         	5.862          	9.366
MS.441         	5.852          	9.362
MS.442         	5.84           	9.368
MS.443         	5.827          	9.35
MS.444         	5.817          	9.358
MS.445         	5.805          	9.362
MS.446         	5.793          	9.346
MS.447         	5.782          	9.354
MS.448         	5.77           	9.384
MS.449         	5.757          	9.368
MS.450         	5.747          	9.378
MS.451         	5.735          	9.384
MS.452         	5.725          	9.376
MS.453         	5.713          	9.37
MS.454         	5.702          	9.38
MS.455         	5.69           	9.37
MS.456         	5.677          	9.368
MS.457         	5.668          	9.382
MS.458         	5.655          	9.368
MS.459         	5.645          	9.382
MS.460         	5.632          	9.388
MS.461         	5.622          	9.372
MS.462         	5.61           	9.378
MS.463         	5.6            	9.364
MS.464         	5.588          	9.356
MS.465         	5.577          	9.382
MS.466         	5.565          	9.358
MS.467         	5.555          	9.35
MS.468         	5.545          	9.364
MS.469         	5.532          	9.362
MS.470         	5.523          	9.342
MS.471         	5.51           	9.366
MS.472         	5.5            	9.348
MS.473         	5.487          	9.334
MS.474         	5.477          	9.358
MS.475         	5.467          	9.338
MS.476         	5.455          	9.332
MS.477         	5.445          	9.344
MS.478         	5.435          	9.324
MS.479         	5.422          	9.338
MS.480         	5.412          	9.342
MS.481         	5.402          	9.334
MS.482         	5.39           	9.344
MS.483         	5.38           	9.348
MS.484         	5.37           	9.338
MS.485         	5.358          	9.352
MS.486         	5.347          	9.338
MS.487         	5.338          	9.328
MS.488         	5.327          	9.342
MS.489         	5.315          	9.34
MS.490         	5.305          	9.322
MS.491         	5.295          	9.338
MS.492         	5.285          	9.33
MS.493         	5.273          	9.32
MS.494         	5.262          	9.326
MS.495         	5.253          	9.313
MS.496         	5.242          	9.301
MS.497         	5.233          	9.311
MS.498         	5.22           	9.297
MS.499         	5.21           	9.299
MS.500         	5.2            	9.301
MS.501         	5.19           	9.299
MS.502         	5.18           	9.307
MS.503         	5.17           	9.301
MS.504         	5.157          	9.295
MS.505         	5.148          	9.34
MS.506         	5.137          	9.33
MS.507         	5.128          	9.32
MS.508         	5.117          	9.338
MS.509         	5.108          	9.313
MS.510         	5.097          	9.32
MS.511         	5.088          	9.324
MS.512         	5.077          	9.305
MS.513         	5.068          	9.318
MS.514         	5.057          	9.309
MS.515         	5.047          	9.299
MS.516         	5.037          	9.315
MS.517         	5.027          	9.301
MS.518         	5.017          	9.293
MS.519         	5.007          	9.303
MS.520         	4.997          	9.287
MS.521         	4.987          	9.297
MS.522         	4.977          	9.301
MS.523         	4.967          	9.336
MS.524         	4.957          	9.354
MS.525         	4.947          	9.295
MS.526         	4.938          	9.332
MS.527         	4.927          	9.293
MS.528         	4.918          	9.328
MS.529         	4.898          	9.338
MS.530         	4.887          	9.326
MS.531         	4.878          	9.34
MS.532         	4.867          	9.291
MS.533         	4.858          	9.328
MS.534         	4.847          	9.344
MS.535         	4.84           	9.338
MS.536         	4.83           	9.356
MS.537         	4.82           	9.348
MS.538         	4.81           	9.34
MS.539         	4.8            	9.354
MS.540         	4.79           	9.35
MS.541         	4.78           	9.338
MS.542         	4.773          	9.35
MS.543         	4.762          	9.338
MS.544         	4.753          	9.342
MS.545         	4.742          	9.32
MS.546         	4.733          	9.326
MS.547         	4.725          	9.336
MS.548         	4.715          	9.326
MS.549         	4.705          	9.336
MS.550         	4.695          	9.33
MS.551         	4.688          	9.322
MS.552         	4.677          	9.332
MS.553         	4.668          	9.328
MS.554         	4.657          	9.311
MS.555         	4.65           	9.332
MS.556         	4.64           	9.307
MS.557         	4.63           	9.301
MS.558         	4.622          	9.315
MS.559         	4.612          	9.309
MS.560         	4.602          	9.297
MS.561         	4.592          	9.305
MS.562         	4.585          	9.303
MS.563         	4.575          	9.297
MS.564         	4.565          	9.311
MS.565         	4.557          	9.303
MS.566         	4.548          	9.318
MS.567         	4.54           	9.301
MS.568         	4.53           	9.297
MS.569         	4.52           	9.311
MS.570         	4.512          	9.311
MS.571         	4.503          	9.291
MS.572         	4.495          	9.32
MS.573         	4.485          	9.301
MS.574         	4.475          	9.295
MS.575         	4.467          	9.305
MS.576         	4.457          	9.297
MS.577         	4.45           	9.297
MS.578         	4.44           	9.299
MS.579         	4.432          	9.289
MS.580         	4.423          	9.289
MS.581         	4.412          	9.293
MS.582         	4.405          	9.275
MS.583         	4.395          	9.299
MS.584         	4.387          	9.297
MS.585         	4.378          	9.279
MS.586         	4.37           	9.303
MS.587         	4.36           	9.297
MS.588         	4.352          	9.287
MS.589         	4.342          	9.299
MS.590         	4.335          	9.293
MS.591         	4.325          	9.235
MS.592         	4.318          	9.293
MS.593         	4.31           	9.203
MS.594         	4.3            	9.253
MS.595         	4.293          	9.289
MS.596         	4.282          	9.275
MS.597         	4.275          	9.285
MS.598         	4.265          	9.275
MS.599         	4.257          	9.279
MS.600         	4.25           	9.297
MS.601         	4.24           	9.233
MS.602         	4.233          	9.17
MS.603         	4.222          	9.16
MS.604         	4.215          	9.225
MS.605         	4.207          	9.245
MS.606         	4.197          	9.154
MS.607         	4.19           	9.158
MS.608         	4.182          	9.16
MS.609         	4.173          	9.152
MS.610         	4.165          	9.172
MS.611         	4.157          	9.16
MS.612         	4.148          	9.148
MS.613         	4.14           	9.156
MS.614         	4.132          	9.146
MS.615         	4.122          	9.152
MS.616         	4.115          	9.154
MS.617         	4.108          	9.132
MS.618         	4.1            	9.241
MS.619         	4.09           	9.138
MS.620         	4.082          	9.13
MS.621         	4.075          	9.122
MS.622         	4.065          	9.154
MS.623         	4.057          	9.082
MS.624         	4.05           	9.126
MS.625         	4.043          	9.092
MS.626         	4.032          	9.094
MS.627         	4.025          	9.116
MS.628         	4.017          	9.003
MS.629         	4.01           	9.13
MS.630         	4.003          	9.07
MS.631         	3.992          	9.096
MS.632         	3.985          	9.094
MS.633         	3.977          	8.947
MS.634         	3.97           	9.05
MS.635         	3.962          	9.007
MS.636         	3.955          	8.947
MS.637         	3.945          	8.947
MS.638         	3.938          	9.098
MS.639         	3.93           	8.874
MS.640         	3.922          	8.927
MS.641         	3.915          	8.977
MS.642         	3.908          	8.878
MS.643         	3.9            	8.939
MS.644         	3.89           	8.562
MS.645         	3.882          	8.794
MS.646         	3.875          	8.901
MS.647         	3.867          	8.466
MS.648         	3.86           	8.76
MS.649         	3.852          	8.78
MS.650         	3.845          	8.284
MS.651         	3.837          	8.691
MS.652         	3.83           	8.365
MS.653         	3.822          	8.647
MS.654         	3.815          	8.256
MS.655         	3.807          	7.916
MS.656         	3.8            	7.732
MS.657         	3.79           	8.242
MS.658         	3.783          	7.622
MS.659         	3.775          	7.535
MS.660         	3.767          	7.571
MS.661         	3.76           	7.521
MS.662         	3.752          	7.603
MS.663         	3.745          	7.573
MS.664         	3.737          	7.074
MS.665         	3.73           	7.851
MS.666         	3.722          	7.849
MS.667         	3.715          	7.078
MS.668         	3.707          	7.483
MS.669         	3.702          	6.937
MS.670         	3.695          	6.778
MS.671         	3.688          	7.023
MS.672         	3.68           	6.649
MS.673         	3.672          	6.089
MS.674         	3.665          	6.453
MS.675         	3.658          	6.709
MS.676         	3.65           	6.514
MS.677         	3.642          	6.252
MS.678         	3.635          	6.27
MS.679         	3.627          	5.491
MS.680         	3.62           	5.076
MS.681         	3.612          	5.609
MS.682         	3.607          	5.954
MS.683         	3.6            	5.203
MS.684         	3.592          	5.364
MS.685         	3.585          	5.323
MS.686         	3.577          	5.255
MS.687         	3.57           	5.098
MS.688         	3.562          	4.757
MS.689         	3.555          	4.693
MS.690         	3.55           	4.86
MS.691         	3.543          	4.788
MS.692         	3.535          	4.477
MS.693         	3.527          	4.439
MS.694         	3.52           	4.566
MS.695         	3.515          	4.635
MS.696         	3.507          	4.56
MS.697         	3.5            	4.391
MS.698         	3.492          	4.298
MS.699         	3.485          	4.326
MS.700         	3.48           	4.387
MS.701         	3.472          	4.117
MS.702         	3.465          	4.129
MS.703         	3.457          	3.96
MS.704         	3.45           	4.143
MS.705         	3.445          	4.218
MS.706         	3.438          	4.057
MS.707         	3.43           	3.984
MS.708         	3.422          	3.954
MS.709         	3.418          	3.889
MS.710         	3.41           	3.887
MS.711         	3.402          	3.815
MS.712         	3.398          	3.889
MS.713         	3.39           	3.825
MS.714         	3.382          	3.718
MS.715         	3.375          	3.581
MS.716         	3.37           	3.686
MS.717         	3.362          	3.495
MS.718         	3.355          	3.527
MS.719         	3.35           	3.283
MS.720         	3.342          	3.533
MS.721         	3.335          	3.531
MS.722         	3.33           	3.533
MS.723         	3.322          	3.436
MS.724         	3.315          	3.305
MS.725         	3.31           	3.339
MS.726         	3.303          	2.981
MS.727         	3.295          	3.219
MS.728         	3.29           	2.854
MS.729         	3.283          	2.951
MS.730         	3.275          	3.118
MS.731         	3.27           	2.439
MS.732         	3.262          	2.536
MS.733         	3.257          	3.035
MS.734         	3.25           	2.421
MS.735         	3.242          	2.151
MS.736         	3.237          	2.806
MS.737         	3.23           	1.915
MS.738         	3.225          	1.811
MS.739         	3.217          	1.883
MS.740         	3.212          	1.67
MS.741         	3.205          	1.625
MS.742         	3.197          	1.358
MS.743         	3.192          	1.492
MS.744         	3.185          	1.47
MS.745         	3.18           	1.319
MS.746         	3.172          	1.206
MS.747         	3.168          	1.36
MS.748         	3.16           	0.878
MS.749         	3.155          	1.162
MS.750         	3.148          	0.953
MS.751         	3.142          	0.941
MS.752         	3.135          	0.937
MS.753         	3.13           	0.713
MS.754         	3.122          	0.786
MS.755         	3.117          	0.671
MS.756         	3.11           	0.626
MS.757         	3.105          	0.957
MS.758         	3.097          	0.649
MS.759         	3.092          	0.663
MS.760         	3.085          	0.608
MS.761         	3.08           	0.679
MS.762         	3.072          	0.693
MS.763         	3.067          	0.524
MS.764         	3.06           	0.544
MS.765         	3.055          	0.586
MS.766         	3.047          	0.614
MS.767         	3.043          	0.582
MS.768         	3.037          	0.359
MS.769         	3.03           	0.465
MS.770         	3.025          	0.489
MS.771         	3.017          	0.328
MS.772         	3.013          	0.367
MS.773         	3.005          	0.457
MS.774         	3              	0.272
MS.775         	2.995          	0.56
MS.776         	2.987          	0.379
MS.777         	2.982          	0.211
MS.778         	2.977          	0.207
MS.779         	2.97           	0.159
MS.780         	2.965          	0.308
MS.781         	2.957          	0.258
MS.782         	2.952          	0.201
MS.783         	2.947          	0.33
MS.784         	2.94           	0.201
MS.785         	2.935          	0.312
MS.786         	2.93           	0.139
MS.787         	2.922          	0.246
MS.788         	2.918          	0.119
MS.789         	2.912          	0.246
MS.790         	2.905          	0.201
MS.791         	2.9            	0.089
MS.792         	2.895          	0.211
MS.793         	2.888          	0.091
MS.794         	2.882          	0.115
MS.795         	2.877          	0.054
MS.796         	2.87           	0.087
MS.797         	2.865          	0.121
MS.798         	2.86           	0.02
MS.799         	2.855          	0.052
MS.800         	2.847          	0.077
MS.801         	2.842          	0.018
MS.802         	2.837          	0.022
MS.803         	2.83           	0.02
MS.804         	2.825          	0.02
MS.805         	2.82           	0.018
MS.806         	2.815          	0.022
MS.807         	2.807          	0.05
MS.808         	2.803          	0.022
MS.809         	2.797          	0.02
MS.810         	2.793          	0.02
MS.811         	2.785          	0.02
MS.812         	2.78           	0.024
MS.813         	2.775          	0.024
MS.814         	2.77           	0.02
MS.815         	2.765          	0.02
MS.816         	2.757          	0.02
MS.817         	2.753          	0.022
MS.818         	2.747          	0.008
MS.819         	2.742          	0.018
MS.820         	2.737          	0.006
MS.821         	2.73           	0.016
MS.822         	2.725          	0.014
MS.823         	2.72           	0.018
MS.824         	2.715          	0.01
MS.825         	2.71           	0.006
MS.826         	2.705          	0.006
MS.827         	2.697          	0.008
MS.828         	2.692          	0.008
MS.829         	2.688          	0.012
MS.830         	2.682          	0.002
MS.831         	2.678          	0.008
MS.832         	2.672          	0.008
MS.833         	2.668          	0.006
MS.834         	2.66           	0.008
MS.835         	2.655          	0.01
MS.836         	2.65           	0.004
MS.837         	2.645          	0.01
MS.838         	2.64           	0.006
MS.839         	2.635          	0.004
MS.840         	2.63           	0.006
MS.841         	2.625          	0.004
MS.842         	2.617          	0.004
MS.843         	2.612          	0.004
MS.844         	2.607          	0.004
MS.845         	2.602          	0.002
MS.846         	2.597          	0.006
MS.847         	2.592          	0.002
MS.848         	2.587          	0.004
MS.849         	2.582          	0.004
MS.850         	2.577          	0.006
MS.851         	2.572          	0.004
MS.852         	2.567          	0.004
MS.853         	2.562          	0.004
MS.854         	2.557          	0.002
MS.855         	2.553          	0.002
MS.856         	2.547          	0.006
MS.857         	2.543          	0.004
MS.858         	2.537          	0.006
MS.859         	2.53           	0.004
MS.860         	2.525          	0.004
MS.861         	2.52           	0.01
MS.862         	2.515          	0.004
MS.863         	2.51           	0.004
MS.864         	2.505          	0.006
MS.865         	2.5            	0.006
MS.866         	2.495          	0.004
MS.867         	2.49           	0.006
MS.868         	2.485          	0.004
MS.869         	2.48           	0.004
MS.870         	2.475          	0.004
MS.871         	2.47           	0.002
MS.872         	2.465          	0.006
MS.873         	2.462          	0.006
MS.874         	2.457          	0.004
MS.875         	2.452          	0.002
MS.876         	2.447          	0.004
MS.877         	2.442          	0.004
MS.878         	2.438          	0.004
MS.879         	2.432          	0.006
MS.880         	2.428          	0.004
MS.881         	2.422          	0.004
MS.882         	2.418          	0.004
MS.883         	2.412          	0.008
MS.884         	2.408          	0.004
MS.885         	2.402          	0.008
MS.886         	2.398          	0.004
MS.887         	2.392          	0.004
MS.888         	2.388          	0.004
MS.889         	2.385          	0.004
MS.890         	2.38           	0.002
MS.891         	2.375          	0.006
MS.892         	2.37           	0.004
MS.893         	2.365          	0.002
MS.894         	2.36           	0.002
MS.895         	2.355          	0.006
MS.896         	2.35           	0.004
MS.897         	2.345          	0.006
MS.898         	2.342          	0.004
MS.899         	2.337          	0.004
MS.900         	2.332          	0.004
MS.901         	2.327          	0.002
MS.902         	2.322          	0.002
MS.903         	2.317          	0.006
MS.904         	2.312          	0.006
MS.905         	2.307          	0.004
MS.906         	2.305          	0.004
MS.907         	2.3            	0.004
MS.908         	2.295          	0.006
MS.909         	2.29           	0.004
MS.910         	2.285          	0.004
MS.911         	2.28           	0.008
MS.912         	2.277          	0.004
MS.913         	2.273          	0.004
MS.914         	2.267          	0.008
MS.915         	2.263          	0.004
MS.916         	2.257          	0.006
MS.917         	2.255          	0.002
MS.918         	2.25           	0.006
MS.919         	2.245          	0.004
MS.920         	2.24           	0.004
MS.921         	2.235          	0.004
MS.922         	2.232          	0.006
MS.923         	2.227          	0.004
MS.924         	2.222          	0.004
MS.925         	2.217          	0.004
MS.926         	2.215          	0.004
MS.927         	2.21           	0.004
MS.928         	2.205          	0.004
MS.929         	2.2            	0.004
MS.930         	2.195          	0.002
MS.931         	2.192          	0.004
MS.932         	2.188          	0.006
MS.933         	2.182          	0.006
MS.934         	2.178          	0.006
MS.935         	2.175          	0.006
MS.936         	2.17           	0.002
MS.937         	2.165          	0.006
MS.938         	2.162          	0.004
MS.939         	2.158          	0.004
MS.940         	2.152          	0.006
MS.941         	2.148          	0.006
MS.942         	2.145          	0.004
MS.943         	2.14           	0.006
MS.944         	2.135          	0.004
MS.945         	2.13           	0.004
MS.946         	2.128          	0.004
MS.947         	2.122          	0.004
MS.948         	2.118          	0.004
MS.949         	2.115          	0.006
MS.950         	2.11           	0.006
MS.951         	2.105          	0.006
MS.952         	2.102          	0.004
MS.953         	2.097          	0.004
MS.954         	2.092          	0.004
DERIVED EXCITABILITY VARIABLES
Program = QTracP 3/4/2020
Threshold method = 6 (optimised for CAP, using data for present condition only)
SR method = 1 (using actual data values)
6.                 	0.000               	Peak response\(mV)
9.                 	35                  	Temperature ( C)
17.                	52                  	Age (years)
18.                	2                   	Sex (M=1, F=2)

EXTRA VARIABLES

MScPeak(mV) = 10.54
MScS5(mA) = 3.03
MScS50(mA) = 3.6
MScS95(mA) = 8.9
MScNSteps = 4
MScSteps(%) = 11.5
MScStepMax(%) = 3.8
MScD50 = 35
MScSlope = 6.62
MSFPeakAmp(mV) = 10.6
MSFNUnits = 117
MSFMeanUnitAmp(uV) = 90.7
MSFHuntTime(m) = 3.88
MSFError(%) = 2.51
MSFNLarge = 32.82
MSFMedianAmp(%) = 0.71
MSFMedianAmp(mV) = 0.0753
MSFHalfAmpAmp(%) = 0.981
MSFHalfAmpAmp(mV) = 0.104
MSFLargestAmp(%) = 3.66
MSFLargestAmp(mV) = 0.388
MSFMeanRS(%) = 2
MSFOpts = 10106121
MSFTraces = 807
MSFSizeLimit(uV) = 26.5
MSFLimitType = 1
MSFSmallestAmp(uV) = 27.4

EXTRA WAVEFORMS


!MScan Model
!117
	1	2.84	0.38	2
	2	2.87	0.36	2
	3	2.89	0.32	2
	4	2.94	0.95	2
	5	2.98	0.99	2
	6	3	0.48	2
	7	3.03	0.61	2
	8	3.05	0.71	2
	9	3.07	0.73	2
	10	3.09	0.82	2
	11	3.09	1.01	2
	12	3.11	0.8	2
	13	3.12	0.53	2
	14	3.13	0.78	2
	15	3.14	0.63	1.6
	16	3.17	0.98	2
	17	3.18	0.65	2
	18	3.18	0.78	2
	19	3.19	0.94	2
	20	3.19	1.12	2
	21	3.2	0.88	2
	22	3.21	0.88	2
	23	3.21	0.87	2
	24	3.22	0.93	2
	25	3.23	0.99	2
	26	3.23	1.01	2
	27	3.24	0.95	2
	28	3.25	0.95	2
	29	3.25	0.95	2
	30	3.26	1.39	2
	31	3.28	1.48	2
	32	3.29	1.14	2
	33	3.3	1.2	2
	34	3.31	1.82	2
	35	3.33	0.92	2
	36	3.33	0.66	2
	37	3.34	0.63	2
	38	3.35	0.55	2
	39	3.36	0.48	2
	40	3.37	0.67	2
	41	3.38	0.81	2
	42	3.39	0.58	2
	43	3.4	0.27	2
	44	3.41	0.5	2
	45	3.41	0.26	2
	46	3.42	0.28	2
	47	3.42	0.3	2
	48	3.43	0.29	2
	49	3.43	0.42	2
	50	3.44	0.63	2
	51	3.45	0.6	2
	52	3.46	0.57	2
	53	3.47	0.59	2
	54	3.48	0.68	2
	55	3.49	0.75	2
	56	3.5	0.56	2
	57	3.51	0.44	2
	58	3.52	0.53	2
	59	3.52	0.67	2
	60	3.53	0.81	2
	61	3.54	0.97	2
	62	3.55	1.07	2
	63	3.57	1.32	2
	64	3.58	0.98	2
	65	3.58	0.84	2
	66	3.59	0.97	2
	67	3.6	1.14	2
	68	3.61	1.19	2
	69	3.62	1.18	2
	70	3.63	1.26	2
	71	3.64	1.37	2
	72	3.65	1.52	2
	73	3.66	1.63	2
	74	3.67	1.44	2
	75	3.69	2.45	2
	76	3.7	2.05	2
	77	3.72	2.02	2
	78	3.74	2.01	2
	79	3.76	2.49	2
	80	3.78	3.66	2
	81	3.8	1.68	2
	82	3.82	1.34	2
	83	3.83	1.46	2
	84	3.85	1.71	2
	85	3.89	2.09	2
	86	3.97	0.77	2
	87	4.03	0.87	2
	88	4.15	0.67	2
	89	4.25	0.63	2
	90	4.39	0.55	2
	91	5.34	0.42	2
	92	5.85	0.38	2
	93	6	0.26	2
	94	6.23	0.55	2
	95	6.44	0.44	2
	96	6.83	0.63	2
	97	7.33	0.57	2
	98	7.46	0.34	2
	99	7.91	0.3	2
	100	8.01	0.79	2
	101	8.11	0.48	2
	102	8.24	0.63	2
	103	8.87	0.74	2
	104	8.97	0.41	2
	105	9.08	0.4	2
	106	9.2	0.52	2
	107	9.29	0.33	2
	108	9.35	0.29	2
	109	9.41	0.31	2
	110	9.47	0.26	2
	111	9.58	0.4	2
	112	9.69	0.33	2
	113	9.93	0.47	2
	114	10.03	0.32	2
	115	10.23	0.69	2
	116	10.98	0.57	2
	117	11.64	0.38	2

